TimeStamp,Delta_TP9,Delta_AF7,Delta_AF8,Delta_TP10,Theta_TP9,Theta_AF7,Theta_AF8,Theta_TP10,Alpha_TP9,Alpha_AF7,Alpha_AF8,Alpha_TP10,Beta_TP9,Beta_AF7,Beta_AF8,Beta_TP10,Gamma_TP9,Gamma_AF7,Gamma_AF8,Gamma_TP10,RAW_TP9,RAW_AF7,RAW_AF8,RAW_TP10,AUX_RIGHT,Accelerometer_X,Accelerometer_Y,Accelerometer_Z,Gyro_X,Gyro_Y,Gyro_Z,HeadBandOn,HSI_TP9,HSI_AF7,HSI_AF8,HSI_TP10,Battery,Elements
2021-04-20 22:10:50.484,0.11171099,0.051371902,0.12048363,0.03215922,0.10029119,0.21939027,0.15407696,0.015459761,0.7826216,0.18797928,0.55787396,0.7376198,0.37393048,1.3170434,0.7979186,0.47353804,-0.27344462,0.77305615,0.31963572,-0.0043878574,794.57874,828.4249,828.022,839.304,768.3883,-0.19024658203125,-0.0343017578125,0.9781494140625,4.732818603515625,-4.9346923828125,0.897216796875,1,1.0,1.0,1.0,1.0,100.00
2021-04-20 22:10:50.995,0.16205709,-0.0062503438,0.08043081,0.10321153,0.21651423,0.16635317,-0.054208327,0.24287067,0.70397884,0.1916994,0.5176132,0.75261694,0.3525561,1.2884731,0.823542,0.60261863,-0.1695103,0.87143517,0.09045294,0.0742548,763.95605,827.2161,815.5311,747.4359,680.54944,-0.20037841796875,-0.04278564453125,0.98193359375,4.299163818359375,-4.418792724609375,-0.321502685546875,1,1.0,1.0,1.0,1.0,100.00
2021-04-20 22:10:51.396,0.08508979,-0.0365952669,0.1898916550000,0.291753535,0.222143165,0.14604851,-0.0591979185,0.2687193850000,0.70922687,0.173490105,0.371946565,0.727574495,0.33769634,1.2749063999999,0.7981958499999,0.607395965,-0.145930655,0.88449216,0.063011382,0.0933517275,772.820525,795.787525,802.838825,,,,,,,,,,,,,,,/muse/elements/blink
2021-04-20 22:10:51.521,0.00812249,-0.06694019,0.2993525,0.48029554,0.2277721,0.12574385,-0.06418751,0.2945681,0.7144749,0.15528081,0.22627993,0.70253205,0.32283658,1.2613397,0.7728497,0.6121733,-0.12235101,0.89754915,0.035569824,0.112448655,781.685,764.35895,790.14655,729.304,854.61536,-0.19598388671875,-0.04217529296875,0.9794921875,4.9346923828125,-4.568328857421875,1.368255615234375,1,1.0,1.0,1.0,1.0,100.00
2021-04-20 22:10:52.038,0.107799776,-0.2121911,0.44099575,0.5017853,0.087188505,0.07343525,0.07854334,0.16832975,0.6735756,0.15528081,0.22627993,0.5737239,0.2722293,1.2118222,0.7928261,0.57798606,-0.031324998,0.98141813,0.024213467,0.050949153,788.93774,822.7839,814.7253,756.30035,682.5641,-0.19384765625,-0.04071044921875,0.97796630859375,4.8150634765625,-5.36834716796875,1.562652587890625,1,1.0,1.0,1.0,1.0,100.00
2021-04-20 22:10:52.223,0.129852688,-0.2121911,0.624289675,0.5455223,0.0796768875,0.07343525,0.3616618399999,0.1147810335,0.63004143,0.15528081,0.278070065,0.3931624849999,0.276969335,1.2118222,0.7689868,0.498234955,-0.034188814,0.98141813,0.2494582984999,-0.022465758500,821.17217,810.49452,817.94875,,,,,,,,,,,,,,,/muse/elements/blink
2021-04-20 22:10:52.558,0.1519056,-0.2121911,0.8075836,0.5892593,0.07216527,0.07343525,0.64478034,0.061232317,0.58650726,0.15528081,0.3298602,0.21260107,0.28170937,1.2118222,0.7451475,0.41848385,-0.03705263,0.98141813,0.47470313,-0.09588067,853.4066,798.20514,821.1722,888.86444,850.989,-0.193359375,-0.0438232421875,0.9830322265625,4.194488525390625,-4.0374755859375,-0.5084228515625,1,1.0,1.0,1.0,1.0,100.00
2021-04-20 22:10:53.072,0.33891928,-0.2121911,0.64801794,0.23587447,0.08234093,0.07343525,0.48191956,-0.07443233,0.58650726,0.15528081,0.30759123,0.19646929,0.28274143,1.2118222,0.7707506,0.3849761,0.05250682,0.98141813,0.8182813,-0.23149255,848.5714,814.7253,809.0842,855.42126,799.41394,-0.19775390625,-0.0416259765625,0.982177734375,4.94964599609375,-4.732818603515625,1.24114990234375,1,1.0,1.0,1.0,1.0,100.00
2021-04-20 22:10:53.587,-0.12079195,-0.2121911,0.641116,0.35104775,-0.119377516,0.07343525,0.38854134,0.09061753,0.18107699,0.15528081,0.5736526,0.21178024,0.31381896,1.2118222,0.854145,0.66884273,-0.364549,0.98141813,0.6643552,-0.09624227,750.65936,827.2161,830.84247,715.2015,517.3626,-0.19232177734375,-0.0384521484375,0.98297119140625,5.450592041015625,-4.8748779296875,1.951446533203125,1,1.0,1.0,1.0,1.0,100.00
2021-04-20 22:10:54.100,0.02905417,-0.2121911,0.56888634,0.19476207,-0.24543367,0.07343525,0.22826299,0.053541046,0.25626737,0.15528081,0.5253717,0.25977862,0.27093416,1.2118222,0.8699515,0.5998505,-0.27029803,0.98141813,0.6480244,-0.09880912,788.93774,794.17584,817.5458,749.45056,808.68134,-0.193115234375,-0.0390625,0.9827880859375,5.659942626953125,-4.23187255859375,1.83929443359375,1,1.0,1.0,1.0,1.0,100.00
2021-04-20 22:10:54.612,0.035010148,-0.2121911,0.59036475,0.22789751,-0.27806276,0.07343525,0.14986801,0.06543995,0.29470178,0.15528081,0.5490931,0.44527853,0.22727476,1.2118222,0.933184,0.55248547,-0.08988195,0.98141813,0.23385926,0.117658064,839.304,821.978,819.9634,842.52747,920.696,-0.187255859375,-0.03900146484375,0.9854736328125,4.822540283203125,-4.388885498046875,1.48040771484375,1,1.0,1.0,1.0,1.0,100.00
2021-04-20 22:10:55.118,0.13530993,-0.023604946,0.39076912,0.20643243,-0.2543606,0.09566132,0.025671463,0.19211529,0.296314,0.096980914,0.3590743,0.6486332,0.24328613,1.3950192,0.84646183,0.5203312,-0.064226784,0.8729764,0.20382573,0.14398272,854.21246,826.0073,827.619,894.90845,775.2381,-0.1983642578125,-0.04144287109375,0.98681640625,4.732818603515625,-5.09918212890625,1.413116455078125,1,1.0,1.0,1.0,1.0,100.00
2021-04-20 22:10:55.374,0.138997465,-0.0482396605,0.3736662600000,0.233577595,-0.228375315,0.0794877075,0.1168796015,0.248051115,0.28209093,0.096980914,0.3823052,0.6641461,0.2457426899999,1.3817515,0.84050709,0.5184140500000,-0.03570811575,0.90110745,0.263002255,0.177456945,818.15018,815.32967000000,816.7399,,,,,,,,,,,,,,,/muse/elements/blink
2021-04-20 22:10:55.637,0.142685,-0.072874375,0.3565634,0.26072276,-0.20239003,0.063314095,0.20808774,0.30398694,0.26786786,0.096980914,0.4055361,0.679659,0.24819925,1.3684838,0.83455235,0.5164969,-0.0071894475,0.9292385,0.32217878,0.21093117,782.0879,804.65204,805.8608,805.05493,793.36993,-0.20025634765625,-0.04217529296875,0.983154296875,4.628143310546875,-4.6356201171875,1.00189208984375,1,1.0,1.0,1.0,1.0,100.00
2021-04-20 22:10:56.144,0.22202994,-0.03538241,0.25533086,0.24231346,-0.09589489,0.096950725,0.23383072,0.42744222,0.21073262,0.077243425,0.37082314,0.67867607,0.33755505,1.3535565,0.8147006,0.56407666,-0.18268998,0.9242643,0.39396507,0.04730386,763.95605,828.022,821.5751,721.6484,674.90845,-0.20562744140625,-0.0361328125,0.9832763671875,4.3963623046875,-5.555267333984375,1.4056396484375,1,1.0,1.0,1.0,1.0,100.00
2021-04-20 22:10:56.653,0.2190183,-0.03538241,0.25240368,0.20657212,-0.050906964,0.096950725,0.2079107,0.5121756,0.20597105,0.077243425,0.49171674,0.67867607,0.323549,1.3535565,0.86204,0.6041428,-0.25147495,0.9242643,0.49413145,-0.005030769,817.1429,804.2491,802.6374,772.4176,730.10986,-0.19390869140625,-0.05084228515625,0.98089599609375,4.53094482421875,-4.089813232421875,0.216827392578125,1,1.0,1.0,1.0,1.0,100.00
2021-04-20 22:10:57.162,0.2190183,-0.03538241,0.15337244,0.20657212,-0.050906964,0.096950725,-0.04817728,0.5121756,0.20597105,0.077243425,0.3755323,0.67867607,0.323549,1.3535565,0.86200196,0.6041428,-0.25147495,0.9242643,0.5043145,-0.005030769,865.09155,819.15753,812.71063,883.6264,891.28204,-0.19610595703125,-0.0509033203125,0.98260498046875,4.5758056640625,-6.4300537109375,4.80010986328125,1,1.0,1.0,1.0,1.0,100.00
2021-04-20 22:10:57.688,0.25088587,-0.03538241,-0.0019432725,0.5885401,0.01913976,0.096950725,-0.076433256,0.27151412,0.10018048,0.077243425,0.53384453,0.3719471,0.47553453,1.3535565,0.8868738,0.56046695,-0.14245646,0.9242643,0.48718062,0.2536076,753.0769,834.87177,818.7546,709.5604,605.2015,-0.204345703125,-0.05010986328125,0.9803466796875,4.912261962890625,-1.607513427734375,2.923431396484375,1,1.0,1.0,1.0,1.0,100.00
2021-04-20 22:10:57.891,0.285070655,0.128344395,0.04527968675,0.56918235,0.009710069265,0.0293822795,-0.019867188,0.247412305,0.118218445,0.4754848625,0.5323129,0.39675995,0.46069613,1.36710355,0.8706211850000,0.549235405,-0.138000125,0.97480495,0.4431882099999,0.25519234,770.40292,821.37363499999,819.1575,,,,,,,,,,,,,,,/muse/elements/blink
2021-04-20 22:10:58.193,0.31925544,0.2920712,0.092502646,0.5498246,2.8037853E-4,-0.038186166,0.03669888,0.22331049,0.13625641,0.8737263,0.53078127,0.4215728,0.44585773,1.3806506,0.85436857,0.53800386,-0.13354379,1.0253456,0.3991958,0.25677708,787.72894,807.8755,819.5604,778.46155,663.22345,-0.25396728515625,-0.01068115234375,0.95770263671875,7.79083251953125,-0.897216796875,2.67669677734375,1,1.0,1.0,1.0,1.0,100.00
2021-04-20 22:10:58.700,0.31925544,0.2920712,0.19560249,0.5498246,2.8037853E-4,-0.038186166,0.13035306,0.22331049,0.13625641,0.8737263,0.48574334,0.4215728,0.44585773,1.3806506,0.869333,0.53800386,-0.13354379,1.0253456,0.37507507,0.25677708,740.989,809.4872,810.696,737.76556,691.02563,-0.25250244140625,-0.03216552734375,0.9722900390625,3.760833740234375,-4.508514404296875,-5.689849853515625,1,1.0,1.0,1.0,1.0,100.00
2021-04-20 22:10:59.225,0.3344822,0.2920712,0.3478982,0.52854025,-0.035535645,-0.038186166,0.30946067,0.14600194,0.13133731,0.8737263,0.23533009,0.4126587,0.43529102,1.3806506,0.89105403,0.51260793,-0.12047693,1.0253456,0.26362553,0.28032416,849.3773,845.34796,820.7692,821.1722,760.7326,-0.18609619140625,-0.03582763671875,0.96624755859375,4.246826171875,-11.626434326171875,1.637420654296875,1,1.0,1.0,1.0,1.0,100.00
2021-04-20 22:10:59.744,0.56061333,0.2920712,0.31207073,0.6636757,0.63179183,-0.038186166,0.45107713,0.2382135,0.9089019,0.8737263,0.27810207,0.5256363,0.3721958,1.3806506,0.8387274,0.49718285,0.0320349,1.0253456,0.09973915,0.034691,850.989,792.1612,818.3516,833.663,848.1685,-0.10455322265625,-0.0213623046875,1.00531005859375,7.514190673828125,-9.97406005859375,-3.9178466796875,1,1.0,1.0,1.0,1.0,100.00
2021-04-20 22:11:00.272,0.39151466,0.2920712,0.35589683,0.52792394,0.60501736,-0.038186166,0.3706977,0.14780755,0.9259771,0.8737263,0.35257387,0.54422396,0.33986092,1.3806506,0.83394504,0.54676986,-0.0042780545,1.0253456,0.18176246,0.0031460538,845.34796,829.2308,824.3956,857.4359,790.54944,-0.14544677734375,-8.544921875E-4,1.0076904296875,11.40960693359375,2.026214599609375,-5.00946044921875,1,1.0,1.0,1.0,1.0,100.00
2021-04-20 22:11:00.791,0.33819374,0.2920712,0.45244822,0.6175111,0.5318623,-0.038186166,0.35581046,0.1989109,0.9462146,0.8737263,0.40633053,0.7277357,0.34135956,1.3806506,0.7573689,0.62897396,-0.008702719,1.0253456,0.23045832,0.18665637,765.56775,786.52014,810.696,778.46155,708.3516,-0.1490478515625,0.00592041015625,1.009033203125,8.8226318359375,-9.532928466796875,-2.938385009765625,1,1.0,1.0,1.0,1.0,100.00
2021-04-20 22:11:01.313,0.40465492,0.2920712,0.658908,0.9293526,0.5051675,-0.038186166,0.30367488,0.52783847,0.8334428,0.8737263,0.6943079,0.87578946,0.38667265,1.3806506,0.8177706,0.6834935,-0.003307759,1.0253456,0.3885178,0.41549578,741.79486,772.01465,800.6227,751.4652,910.6227,-0.08343505859375,0.03173828125,0.96954345703125,5.69732666015625,-5.8319091796875,-8.71795654296875,1,1.0,1.0,1.0,1.0,100.00
2021-04-20 22:11:01.478,0.52378241,0.2920712,0.77963265,1.01271605,0.47145195,-0.038186166,0.4708616399999,0.604710185,0.70540605,0.8737263,0.7626459800000,0.8751679299999,0.429091675,1.3806506,0.78921798,0.70801995,0.0261088875,1.0253456,0.41892557,0.48877354,791.35533,816.538455,823.7912,,,,,,,,,,,,,,,/muse/elements/blink
2021-04-20 22:11:01.832,0.6429099,0.2920712,0.9003573,1.0960795,0.4377364,-0.038186166,0.6380484,0.6815819,0.5773693,0.8737263,0.83098406,0.8745464,0.4715107,1.3806506,0.76066536,0.7325464,0.055525534,1.0253456,0.44933334,0.5620513,840.9158,861.06226,846.9597,810.696,826.4103,-0.049072265625,0.0513916015625,0.97613525390625,5.3533935546875,-5.525360107421875,-8.9422607421875,1,1.0,1.0,1.0,1.0,100.00
2021-04-20 22:11:02.362,0.6429099,0.2920712,0.8391878,1.2284073,0.4377364,-0.038186166,0.5621518,0.8057921,0.5773693,0.8737263,0.8356684,0.78688693,0.4715107,1.3806506,0.78061706,0.77335894,0.055525534,1.0253456,0.4414282,0.5681778,913.8461,848.97437,843.73627,881.2088,913.8461,-0.07379150390625,0.014404296875,0.99468994140625,2.94586181640625,-1.428070068359375,6.160888671875,1,1.0,1.0,1.0,1.0,100.00
2021-04-20 22:11:02.758,0.75060055,0.2920712,0.7494804,0.9382743,0.457627435,-0.038186166,0.5367755000000,0.6036985850000,0.6382286500000,0.8737263,0.81607455,0.768418465,0.4099342350000,1.3806506,0.75826783,0.758009495,0.201202367,1.0253456,0.380273125,0.4330757749999,832.45418,818.956055,840.714285,,,,,,,,,,,,,,,/muse/elements/blink
2021-04-20 22:11:02.888,0.8582912,0.2920712,0.659773,0.6481413,0.47751847,-0.038186166,0.5113992,0.40160507,0.699088,0.8737263,0.7964807,0.74995,0.34835777,1.3806506,0.7359186,0.74266005,0.3468792,1.0253456,0.31911805,0.29797375,751.06226,788.93774,837.6923,778.0586,727.6923,-0.04254150390625,0.03192138671875,1.03082275390625,5.682373046875,-2.13836669921875,3.641204833984375,1,1.0,1.0,1.0,1.0,100.00
2021-04-20 22:11:03.056,0.94405075,0.2920712,0.50343089,0.6481413,0.589422385,-0.038186166,0.34709894,0.40160507,0.7984563250000,0.8737263,0.56654019,0.74995,0.3583426950000,1.3806506,0.7509216999999,0.74266005,0.333859735,1.0253456,0.294723805,0.29797375,816.538455,822.1795,841.1172,,,,,,,,,,,,,,,/muse/elements/blink
2021-04-20 22:11:03.394,1.0298103,0.2920712,0.34708878,0.6481413,0.7013263,-0.038186166,0.18279868,0.40160507,0.89782465,0.8737263,0.33659968,0.74995,0.36832762,1.3806506,0.7659248,0.74266005,0.32084027,1.0253456,0.27032956,0.29797375,882.01465,855.42126,844.5421,866.7033,752.27106,-0.04595947265625,0.0091552734375,1.01007080078125,3.93280029296875,-4.2169189453125,14.9237060546875,1,1.0,1.0,1.0,1.0,100.00
2021-04-20 22:11:03.896,1.2647024,0.2920712,0.653754,0.5595421,1.0733099,-0.038186166,0.32905775,0.50838405,0.9418589,0.8737263,0.2796338,0.751706,0.35726082,1.3806506,0.7415488,0.6189883,0.19923325,1.0253456,0.2858712,0.40628985,763.1502,805.05493,809.4872,782.0879,722.8571,-0.08074951171875,0.06585693359375,1.0096435546875,7.67120361328125,-4.493560791015625,0.650482177734375,1,1.0,1.0,1.0,1.0,100.00
2021-04-20 22:11:04.117,1.2402104,0.2920712,0.662806,0.50571244,1.0627460499999,-0.038186166,0.31420654,0.35935695,0.9369940000000,0.8737263,0.28018454,0.64613985,0.3467609849999,1.3806506,0.745176925,0.61779535,0.06277152,1.0253456,0.32308481,0.2250474935,822.98535,821.978015,821.17215,,,,,,,,,,,,,,,/muse/elements/blink
2021-04-20 22:11:04.397,1.2157184,0.2920712,0.671858,0.45188278,1.0521822,-0.038186166,0.29935533,0.21032985,0.9321291,0.8737263,0.28073528,0.5405737,0.33626115,1.3806506,0.74880505,0.6166024,-0.07369021,1.0253456,0.36029842,0.043805137,882.8205,838.9011,832.8571,859.85345,888.86444,-0.10028076171875,0.04913330078125,0.99652099609375,4.605712890625,-4.613189697265625,3.0206298828125,1,1.0,1.0,1.0,1.0,100.00
2021-04-20 22:11:04.925,1.108457,0.2920712,0.664104,0.4408237,1.0052006,-0.038186166,0.26622567,0.3553418,0.9984745,0.8737263,0.45437658,0.70858765,0.4034836,1.3806506,0.76201266,0.53350484,0.035193942,1.0253456,0.40970415,0.017864572,890.87915,828.4249,834.0659,879.19415,778.46155,-0.10443115234375,0.03924560546875,0.992431640625,4.299163818359375,-1.682281494140625,-6.482391357421875,1,1.0,1.0,1.0,1.0,100.00
2021-04-20 22:11:05.303,0.9576303500000,-0.10179715,0.4648063850000,0.3961659800000,0.8748372,-0.094639147999,0.1671639800000,0.3466057649999,0.877535175,0.7941107000000,0.461884665,0.714890225,0.412522525,1.3166755,0.77755248,0.5270799399999,0.045083582,1.00222645,0.4156992149999,0.0175615895,825.402955,810.89741499999,820.97070000000,,,,,,,,,,,,,,,/muse/elements/blink
2021-04-20 22:11:05.426,0.8068037,-0.4956655,0.26550877,0.35150826,0.7444738,-0.15109213,0.06810229,0.33786973,0.75659585,0.7144951,0.46939275,0.7211928,0.42156145,1.2527004,0.7930923,0.52065504,0.054973222,0.9791073,0.42169428,0.017258607,759.92676,793.36993,807.8755,773.22345,620.9158,-0.1219482421875,0.02056884765625,1.008056640625,0.142059326171875,-6.273040771484375,-3.611297607421875,1,1.0,1.0,1.0,1.0,100.00
2021-04-20 22:11:05.945,0.70363104,-0.18709525,0.13090374,0.1219447,0.6754812,-0.07911891,-0.049149472,0.27977878,0.7687109,0.74620366,0.47168857,0.7200856,0.44912046,1.2524503,0.76799697,0.44727185,0.055264957,0.8718036,0.3761574,0.032463048,690.6227,809.4872,817.1429,689.011,614.87177,-0.11700439453125,-0.0272216796875,0.98486328125,6.003875732421875,-6.47491455078125,-6.92352294921875,1,1.0,1.0,1.0,1.0,100.00
2021-04-20 22:11:06.450,0.42879534,-0.02044129,-0.08467132,-0.05955327,0.23560448,-0.039727256,-0.15864952,0.15027219,0.42068017,0.76826805,0.29437286,0.6688027,0.372307,1.2524811,0.7416195,0.41611835,-0.06472424,0.7820167,0.25850153,0.027758071,791.75824,789.7436,803.44324,790.14655,751.8681,-0.10992431640625,0.03302001953125,1.0050048828125,10.071258544921875,-3.790740966796875,-7.0880126953125,1,1.0,1.0,1.0,1.0,100.00
2021-04-20 22:11:06.535,0.58682952,0.04190922,-0.011285329999,0.192065235,0.24512128,-0.01646127635,-0.12497098,0.146874815,0.419622455,0.604014725,0.192564992,0.6958868,0.36135441,1.25242625,0.73272987,0.417092675,-0.083397725,0.708514,0.215938915,0.0211838475,849.78022,810.89744999999,818.95607,,,,,,,,,,,,,,,/muse/elements/blink
2021-04-20 22:11:06.959,0.7448637,0.10425973,0.06210066,0.44368374,0.25463808,0.0068047033,-0.09129244,0.14347744,0.41856474,0.4397614,0.090757124,0.7229709,0.35040182,1.2523714,0.72384024,0.418067,-0.10207121,0.6350113,0.1733763,0.014609624,907.8022,832.0513,834.4689,867.50916,782.8938,-0.0626220703125,0.03729248046875,0.99652099609375,5.03936767578125,-8.022613525390625,-3.409423828125,1,1.0,1.0,1.0,1.0,100.00
2021-04-20 22:11:07.476,1.0290695,0.20609163,0.14189108,0.6932936,0.46216625,0.044990394,-0.03898606,0.30243415,0.5366288,0.38086772,0.34055266,0.78154427,0.30773145,1.2492923,0.72554106,0.44929203,-0.16352485,0.5293322,0.117068246,0.011325059,717.2161,831.6484,810.293,741.39197,747.4359,-0.04876708984375,0.03289794921875,0.99871826171875,6.65435791015625,-7.4468994140625,1.03179931640625,1,1.0,1.0,1.0,1.0,100.00
2021-04-20 22:11:07.958,1.0433509,0.1849242400000,0.20464539,0.71933,0.57520181,0.036704024,0.0155450575,0.444308825,0.540687125,0.38009435,0.4414334450000,0.816971135,0.3526185750000,1.25608165,0.7179267149999,0.4909598149999,-0.122525575,0.5276699499999,0.161516493,0.0255020065,754.89010000000,814.72530000000,813.9194,,,,,,,,,,,,,,,/muse/elements/blink
2021-04-20 22:11:07.985,1.0576323,0.16375685,0.2673997,0.7453664,0.68823737,0.028417654,0.070076175,0.5861835,0.54474545,0.37932098,0.54231423,0.852398,0.3975057,1.262871,0.71031237,0.5326276,-0.0815263,0.5260077,0.20596474,0.039678954,792.5641,797.8022,817.5458,782.49084,730.9158,-0.0238037109375,0.04229736328125,1.00543212890625,2.3626708984375,-6.497344970703125,-2.071075439453125,1,1.0,1.0,1.0,1.0,100.00
2021-04-20 22:11:08.487,0.8587655,-0.027860397,0.23547368,0.56655264,0.5949795,0.19966847,-0.032884117,0.59929496,0.5917992,0.650527,0.54231423,0.8602193,0.35197636,1.3269147,0.6760651,0.4740767,-0.07754253,0.7441239,0.28966504,0.035971135,912.23444,827.619,830.0366,855.82416,862.27106,-0.00897216796875,0.01397705078125,1.001708984375,3.925323486328125,-7.65625,-4.134674072265625,1,1.0,1.0,1.0,1.0,100.00
2021-04-20 22:11:09.004,0.5341479,-0.027860397,0.16967575,0.18149947,0.49760917,0.19966847,0.038062133,0.6166472,0.7285753,0.650527,0.52169186,0.8592064,0.2787317,1.3269147,0.72665846,0.4263788,-0.0544667,0.7441239,0.25353962,0.0040251897,844.94507,813.5165,811.50183,823.1868,802.23444,0.0250244140625,0.03765869140625,1.0089111328125,3.237457275390625,-7.379608154296875,-3.252410888671875,1,1.0,1.0,1.0,1.0,100.00
2021-04-20 22:11:09.315,0.5084395,-0.014237262564,0.23404365,0.112534945,0.38921805,0.221072845,0.0274725259999,0.481283135,0.719410425,0.578790515,0.43215971,0.743256,0.29755701,1.3149479,0.75290143,0.38581916,-0.025175851200,0.748969,0.2816172700000,-0.01279959315,891.886435,787.527475,804.249085,,,,,,,,,,,,,,,/muse/elements/blink
2021-04-20 22:11:09.508,0.4827311,-6.1412813E-4,0.29841155,0.04357042,0.28082693,0.24247722,0.016882919,0.34591907,0.71024555,0.50705403,0.34262756,0.6273056,0.31638232,1.3029811,0.7791444,0.34525952,0.0041149976,0.7538141,0.30969492,-0.029624376,938.8278,761.53845,796.99634,893.69965,1109.6703,0.014404296875,-0.0087890625,0.9976806640625,1.742095947265625,-7.947845458984375,-4.927215576171875,1,1.0,1.0,1.0,1.0,100.00
2021-04-20 22:11:10.017,0.43132392,-6.1412813E-4,0.22024536,0.067782916,0.20266026,0.24247722,-0.02612257,0.24670325,0.71140265,0.50705403,0.34611893,0.5196748,0.34802213,1.3029811,0.7917056,0.3558473,0.0065756417,0.7538141,0.4283322,0.076291315,703.1135,808.68134,810.696,742.6007,705.12823,0.10089111328125,-0.01678466796875,0.99932861328125,6.4599609375,-7.947845458984375,-2.998199462890625,1,1.0,1.0,1.0,1.0,100.00
2021-04-20 22:11:10.384,0.344844135,-0.00061412813,0.20173473,0.167982058,0.1233755765,0.24247722,-0.11037455,0.1236124114150,0.596052275,0.50705403,0.353714795,0.372131745,0.37234838,1.3029811,0.80479848,0.35462085,0.04398957585,0.7538141,0.45769834,0.1237743075,763.956,814.52382,820.5678,,,,,,,,,,,,,,,/muse/elements/blink
2021-04-20 22:11:10.527,0.25836435,-6.1412813E-4,0.1832241,0.2681812,0.044090893,0.24247722,-0.19462653,5.2157283E-4,0.4807019,0.50705403,0.36131066,0.22458869,0.39667463,1.3029811,0.81789136,0.3533944,0.08140351,0.7538141,0.48706448,0.1712573,824.7985,820.3663,830.4396,796.1905,751.06226,0.12164306640625,-5.4931640625E-4,1.00128173828125,2.1533203125,-6.886138916015625,3.36456298828125,1,1.0,1.0,1.0,1.0,100.00
2021-04-20 22:11:11.042,0.1828342,-0.04607573,-0.066966064,0.3680795,-0.06569316,0.058512114,-0.24936399,0.09788638,0.45821425,0.24637744,0.33211398,0.21798654,0.34204966,1.2139976,0.7900666,0.40952268,0.038295496,0.5705626,0.41226363,0.14531566,928.3516,822.7839,828.4249,890.87915,865.09155,0.1353759765625,-0.00738525390625,0.9991455078125,5.96649169921875,-5.39825439453125,4.583282470703125,1,1.0,1.0,1.0,1.0,100.00
2021-04-20 22:11:11.569,0.1595952,-0.10909829,-0.091959536,0.35410887,-0.06605103,-0.043564584,-0.17143673,0.15760253,0.37122953,0.35893992,0.27144086,0.30459505,0.33761072,1.2466292,0.8340898,0.4404904,0.058414344,0.65174335,0.19244453,0.020752566,692.23444,871.9414,840.5128,704.7253,715.6044,0.150390625,-0.02899169921875,0.9920654296875,3.0804443359375,-5.63751220703125,-0.43365478515625,1,1.0,1.0,1.0,1.0,100.00
2021-04-20 22:11:11.730,0.1273485875,-0.219335485,0.0578741520000,0.3169375650000,-0.051762195,-0.123105106999,-0.1379770575,0.18804652,0.3552225249999,0.35772838,0.27529417,0.3032336049999,0.32611394,1.24517725,0.82459355,0.45382985,0.033967681,0.6543653250000,0.14233711,-0.047349182,709.96336999999,827.01465000000,825.20147,,,,,,,,,,,,,,,/muse/elements/blink
2021-04-20 22:11:12.095,0.095101975,-0.32957268,0.20770784,0.27976626,-0.03747336,-0.20264563,-0.104517385,0.21849051,0.33921552,0.35651684,0.27914748,0.30187216,0.31461716,1.2437253,0.8150973,0.4671693,0.009521018,0.6569873,0.09222969,-0.11545093,727.6923,782.0879,809.89014,780.87915,740.989,0.1539306640625,-0.02874755859375,0.99835205078125,4.373931884765625,-5.84686279296875,1.951446533203125,1,1.0,1.0,1.0,1.0,100.00
2021-04-20 22:11:12.601,-0.00817166,-0.37961808,0.2981267,0.054036204,0.037983816,-0.3416356,-0.08754462,0.22585002,0.33921552,0.3240014,0.25041744,0.24843635,0.22540349,1.3030761,0.8520986,0.41199946,-0.054715402,0.7596093,0.1410591,-0.15231486,731.31866,793.7729,809.4872,754.68866,723.663,0.18096923828125,-0.0181884765625,0.98663330078125,5.719757080078125,-6.80389404296875,1.92901611328125,1,1.0,1.0,1.0,1.0,100.00
2021-04-20 22:11:13.046,-0.00817166,-0.37961808,0.348271935,0.054036204,0.037983816,-0.3416356,-0.162322135,0.22585002,0.33921552,0.3240014,0.253085,0.24843635,0.22540349,1.3030761,0.8046711,0.41199946,-0.054715402,0.7596093,0.1755538649999,-0.15231486,803.64468,802.637365,816.53845,,,,,,,,,,,,,,,/muse/elements/blink
2021-04-20 22:11:13.111,-0.00817166,-0.37961808,0.39841717,0.054036204,0.037983816,-0.3416356,-0.23709965,0.22585002,0.33921552,0.3240014,0.25575256,0.24843635,0.22540349,1.3030761,0.7572436,0.41199946,-0.054715402,0.7596093,0.21004863,-0.15231486,875.9707,811.50183,823.5897,831.6484,855.0183,0.18035888671875,-0.013427734375,0.9847412109375,4.358978271484375,-4.164581298828125,3.446807861328125,1,1.0,1.0,1.0,1.0,100.00
2021-04-20 22:11:13.625,-0.09908216,0.115211084,0.04847216,-0.10565722,-0.3070491,-0.022835104,-0.29858398,0.1906026,0.08110325,0.3340576,0.06598822,0.43170017,0.38264376,1.2223393,0.7190529,0.42557427,0.0595447,0.73119915,0.37007847,0.27607527,924.3223,809.0842,822.381,903.7729,936.4103,0.18548583984375,-0.013916015625,0.98663330078125,5.33843994140625,-4.94964599609375,2.27294921875,1,1.0,1.0,1.0,1.0,100.00
2021-04-20 22:11:14.136,0.012624559,0.023116408,0.044994097,-0.11733992,-0.026109079,-0.10461524,-0.18760985,0.38891914,0.41863683,0.6479743,0.42513096,0.7511991,0.5934944,1.1537952,0.68220186,0.65948176,-0.054199923,0.82963014,0.35974973,0.2839382,715.6044,789.7436,797.3993,747.03296,709.9634,0.190185546875,-0.020263671875,0.98309326171875,4.732818603515625,-4.239349365234375,0.6878662109375,1,1.0,1.0,1.0,1.0,100.00
2021-04-20 22:11:14.354,0.1596728995,0.037840371,0.0907970985,-0.11289424,0.2176491855,0.04803849,-0.140866125,0.3730628900000,0.68233879,0.7066707999999,0.454441695,0.77805105,0.562593335,1.18203435,0.70454438,0.6459338050000,-0.0713675265,0.76099467,0.3227840349999,0.246395635,706.73995,811.90475,809.08425,,,,,,,,,,,,,,,/muse/elements/blink
2021-04-20 22:11:14.662,0.30672124,0.052564334,0.1366001,-0.10844856,0.46140745,0.20069222,-0.0941224,0.35720664,0.94604075,0.7653673,0.48375243,0.804903,0.53169227,1.2102735,0.7268869,0.63238585,-0.08853513,0.6923592,0.28581834,0.20885307,697.8755,834.0659,820.7692,729.707,621.7216,0.18927001953125,-0.01318359375,0.98919677734375,5.510406494140625,-5.63751220703125,-0.710296630859375,1,1.0,1.0,1.0,1.0,100.00
2021-04-20 22:11:15.188,0.34278104,-0.031175116,0.16978352,-0.06042084,0.55875194,0.14594035,-0.15505186,0.36754385,0.94604075,0.7767964,0.47757632,0.79976016,0.46277958,1.3147492,0.7458927,0.5622256,-0.1547024,0.6416,0.11571469,0.11108521,760.32965,794.57874,799.011,779.67035,817.1429,0.1859130859375,-0.0152587890625,0.97784423828125,3.828125,-4.88983154296875,0.814971923828125,1,1.0,1.0,1.0,1.0,100.00
2021-04-20 22:11:15.602,0.31141702,-0.055352711,0.18803193,0.0450601199999,0.5577071,0.1045119049999,-0.16861429,0.366168455,0.9406536249999,0.7373587500000,0.445290685,0.7437942,0.32883823,1.3208772500000,0.7688233250000,0.474755775,-0.14713252,0.6335294199999,0.119112425,0.0389140175,832.655675,826.41025,821.17215,,,,,,,,,,,,,,,/muse/elements/blink
2021-04-20 22:11:15.692,0.280053,-0.079530306,0.20628034,0.15054108,0.55666226,0.06308346,-0.18217672,0.36479306,0.9352665,0.6979211,0.41300505,0.68782824,0.19489688,1.3270053,0.79175395,0.38728595,-0.13956264,0.62545884,0.12251016,-0.033257175,904.9817,858.24176,843.3333,857.8388,927.5458,0.189208984375,-0.02313232421875,0.9830322265625,4.26177978515625,-4.448699951171875,1.577606201171875,1,1.0,1.0,1.0,1.0,100.00
2021-04-20 22:11:16.208,0.0045605176,-0.16414346,0.1779104,0.16791573,0.42981014,-0.10566725,-0.08693229,0.43633434,0.55906385,0.48702106,0.30771422,0.49811718,0.11143848,1.3317113,0.7719114,0.33242476,-0.18446957,0.72579855,0.18921374,-0.096999474,787.326,855.42126,847.76556,771.2088,775.64105,0.17138671875,-0.04144287109375,0.9881591796875,2.938385009765625,-3.970184326171875,3.84307861328125,1,1.0,1.0,1.0,1.0,100.00
2021-04-20 22:11:16.729,-0.050303765,-0.13607857,0.24125381,0.23031412,0.43270722,-0.16885257,0.05812857,0.51466596,0.49165946,0.43834355,0.2564199,0.469582,0.06795611,1.3055955,0.77577055,0.39440393,-0.20973143,0.74305296,0.22084199,-0.214844,750.65936,794.17584,805.4579,782.8938,815.5311,0.1866455078125,-0.03228759765625,0.982421875,4.91973876953125,-5.14404296875,1.24114990234375,1,1.0,1.0,1.0,1.0,100.00
2021-04-20 22:11:16.783,0.0227091575,-0.10875627,0.2494099050000,0.148134302,0.4940864900000,-0.12855811,0.082591605,0.45656208,0.4382684049999,0.371483225,0.25325535,0.44883225,0.058290625,1.3094047500000,0.7613199749999,0.36729525,-0.240035024999,0.7680591800000,0.208569995,-0.2072885,829.02933000000,818.55312,826.00733,,,,,,,,,,,,,,,/muse/elements/blink
2021-04-20 22:11:17.244,0.09572208,-0.08143397,0.257566,0.065954484,0.55546576,-0.08826365,0.10705464,0.3984582,0.38487735,0.3046229,0.2500908,0.4280825,0.04862514,1.313214,0.7468694,0.34018657,-0.27033862,0.7930654,0.196298,-0.199733,907.3993,842.9304,846.55676,859.45056,805.4579,0.1949462890625,-0.02349853515625,0.9869384765625,4.42626953125,-4.044952392578125,0.35888671875,1,1.0,1.0,1.0,1.0,100.00
2021-04-20 22:11:17.747,0.07288892,-0.046296474,0.018080672,2.2543984E-4,0.5734414,-0.0716307,0.072069205,0.39945003,0.38208923,0.30449495,0.17789464,0.4280825,0.046853922,1.3109819,0.662862,0.3242577,-0.29103485,0.81153667,0.1745369,-0.21410127,821.1722,797.8022,807.47253,810.293,772.01465,0.2010498046875,-0.031005859375,0.98138427734375,3.18511962890625,-4.47113037109375,0.83740234375,1,1.0,1.0,1.0,1.0,100.00
2021-04-20 22:11:18.101,-0.233284539999,-0.046296474,-0.084131344000,-0.04414919758,0.0977190199999,-0.0716307,0.1363479524999,0.194740692,0.3040094650000,0.30449495,0.226005445,0.2750622,0.181798501,1.3109819,0.64688137,0.393029125,-0.20920959,0.81153667,0.19279241,-0.129332785,878.18685,815.7326,823.791195,,,,,,,,,,,,,,,/muse/elements/blink
2021-04-20 22:11:18.248,-0.539458,-0.046296474,-0.18634336,-0.088523835,-0.37800336,-0.0716307,0.2006267,-0.009968646,0.2259297,0.30449495,0.27411625,0.1220419,0.31674308,1.3109819,0.63090074,0.46180055,-0.12738433,0.81153667,0.21104792,-0.0445643,935.2015,833.663,840.10986,881.6117,835.6777,0.1837158203125,-0.0267333984375,0.98486328125,5.09918212890625,-3.985137939453125,1.03179931640625,1,1.0,1.0,1.0,1.0,100.00
2021-04-20 22:11:18.749,-0.25119367,-0.046296474,-0.16470286,-0.17233625,-0.09366343,-0.0716307,0.10264441,0.03165709,0.46489587,0.30449495,0.27369547,0.1429063,0.3124583,1.3109819,0.6874642,0.45556384,-0.14341064,0.81153667,0.1449318,-0.04013717,705.5311,790.14655,815.12823,734.5421,749.45056,0.18994140625,-0.026611328125,0.98638916015625,4.85992431640625,-4.32159423828125,0.61309814453125,1,1.0,1.0,1.0,1.0,100.00
2021-04-20 22:11:19.259,-0.037588164,-0.046296474,-0.13424198,-0.194819,0.07934185,-0.0716307,0.0035444978,-0.016325898,0.45980862,0.30449495,0.25767002,0.26827696,0.26404965,1.3109819,0.767196,0.39942506,-0.173696,0.81153667,0.12107302,-0.045954872,822.7839,775.64105,798.20514,810.696,952.1245,0.18017578125,-0.02862548828125,0.98895263671875,4.344024658203125,-4.583282470703125,1.099090576171875,1,1.0,1.0,1.0,1.0,100.00
2021-04-20 22:11:19.427,-0.01324897,-0.046296474,-0.022423160000,-0.203660015,0.09443527,-0.0716307,-0.1835301861,-0.016668615499,0.44365296,0.30449495,0.24009626,0.30512047,0.252818345,1.3109819,0.7953376999999,0.41178713,-0.16971153,0.81153667,0.104939802,-0.044548464999,869.1209,812.30771,817.142855,,,,,,,,,,,,,,,/muse/elements/blink
2021-04-20 22:11:19.779,0.011090224,-0.046296474,0.08939566,-0.21250103,0.10952869,-0.0716307,-0.37060487,-0.017011333,0.4274973,0.30449495,0.2225225,0.34196398,0.24158704,1.3109819,0.8234794,0.4241492,-0.16572706,0.81153667,0.088806584,-0.043142058,915.4579,848.97437,836.08057,882.01465,825.2015,0.19281005859375,-0.0335693359375,0.98388671875,4.5758056640625,-4.4561767578125,0.97198486328125,1,1.0,1.0,1.0,1.0,100.00
2021-04-20 22:11:20.281,-0.020149127,-0.046296474,0.2075622,-0.13325715,0.1020009,-0.0716307,-0.25352177,-0.058733914,0.29720914,0.30449495,0.20239548,0.3532956,0.29707828,1.3109819,0.8258989,0.4113718,-0.18390453,0.81153667,0.07765704,-0.023516867,830.84247,855.0183,845.7509,822.7839,730.10986,0.17266845703125,-0.03729248046875,0.9793701171875,4.97955322265625,-3.955230712890625,0.46356201171875,1,1.0,1.0,1.0,1.0,100.00
2021-04-20 22:11:20.719,-0.1014792135,-0.046296474,0.197030225,-0.020589902499,0.0105251100000,-0.0716307,-0.24773255,-0.011739425499,0.3347671599999,0.30449495,0.1753927599999,0.368887965,0.326183275,1.3109819,0.8155127,0.449043515,-0.1908393,0.81153667,0.07300214,-0.0286571865,823.18678500000,821.5751,822.783865,,,,,,,,,,,,,,,/muse/elements/blink
2021-04-20 22:11:20.811,-0.1828093,-0.046296474,0.18649825,0.092077345,-0.08095068,-0.0716307,-0.24194333,0.035255063,0.37232518,0.30449495,0.14839004,0.38448033,0.35528827,1.3109819,0.8051265,0.48671523,-0.19777407,0.81153667,0.06834724,-0.033797506,815.5311,788.1319,799.81683,807.47253,838.49817,0.20367431640625,-0.03131103515625,0.9813232421875,4.463653564453125,-4.366455078125,-0.590667724609375,1,1.0,1.0,1.0,1.0,100.00
2021-04-20 22:11:21.322,-0.19843861,0.07554569,0.042392578,0.30110502,0.009294145,0.017818822,-0.17547582,0.15290724,0.45654377,0.20805658,0.17246617,0.4289741,0.36805046,1.3458611,0.76923573,0.46740922,-0.21737993,0.6101722,0.027377386,-0.052397378,715.2015,823.5897,815.9341,740.989,772.8205,0.19964599609375,-0.0350341796875,0.98406982421875,4.17205810546875,-3.24493408203125,0.755157470703125,1,1.0,1.0,1.0,1.0,100.00
2021-04-20 22:11:21.828,-0.0077202083,-0.027042737,-0.11866138,0.41025728,0.09053904,0.04081779,-0.22529133,0.27503416,0.5035571,0.57025224,0.18739848,0.43722865,0.40267438,1.3132663,0.72163576,0.54168457,-0.26185107,0.70070696,0.13226296,-0.03906287,879.19415,846.55676,834.4689,842.1245,803.0403,0.19183349609375,-0.0406494140625,0.98504638671875,4.35150146484375,-4.964599609375,2.31781005859375,1,1.0,1.0,1.0,1.0,100.00
2021-04-20 22:11:21.928,0.05148716085,-0.0813346085,-0.123552975000,0.36938454,0.17480159,0.0373315924999,-0.191377965,0.24337597,0.50015405,0.585486355,0.18317294,0.470578125,0.417033165,1.3098950999999,0.651768445,0.5475060350000,-0.286949035,0.70105838,0.15765395,0.00537056,898.33334,836.68498,830.64105,,,,,,,,,,,,,,,/muse/elements/blink
2021-04-20 22:11:22.335,0.11069453,-0.13562648,-0.12844457,0.3285118,0.25906414,0.033845395,-0.1574646,0.21171778,0.496751,0.60072047,0.1789474,0.5039276,0.43139195,1.3065239,0.58190113,0.5533275,-0.312047,0.7014098,0.18304494,0.04980399,917.47253,826.8132,826.8132,881.2088,872.3443,0.17919921875,-0.03936767578125,0.984375,5.1141357421875,-5.443115234375,1.039276123046875,1,1.0,1.0,1.0,1.0,100.00
2021-04-20 22:11:22.842,0.14870767,-0.32003248,-0.24748859,0.18063998,0.3441592,-0.02418012,-0.2848953,0.11880739,0.46616495,0.6269558,0.1423231,0.39050925,0.45414865,1.3675236,0.5907657,0.6091029,-0.35809645,0.7589932,0.23365411,0.09941731,647.1062,865.89746,856.63007,666.8498,525.42126,0.216064453125,-0.03533935546875,0.98443603515625,4.85992431640625,-6.841278076171875,1.128997802734375,1,1.0,1.0,1.0,1.0,100.00
2021-04-20 22:11:23.086,0.12315,-0.330194039999,-0.22169982,0.08949892075,0.36180616,-0.054581172,-0.319918930000,0.0122482299999,0.442838385,0.50870427,0.12774761,0.3700045349999,0.4351124899999,1.3913642,0.6188444,0.605274,-0.35488689,0.74222415,0.1958490749999,0.109878225,674.70695,824.39563,829.835185,,,,,,,,,,,,,,,/muse/elements/blink
2021-04-20 22:11:23.346,0.09759233,-0.3403556,-0.19591105,-0.0016421385,0.37945312,-0.084982224,-0.35494256,-0.09431093,0.41951182,0.39045274,0.11317212,0.34949982,0.41607633,1.4152048,0.6469231,0.6014451,-0.35167733,0.7254551,0.15804404,0.12033914,702.3077,782.8938,803.0403,749.0476,643.0769,0.22998046875,-0.0396728515625,0.97149658203125,4.20196533203125,-4.35150146484375,1.136474609375,1,1.0,1.0,1.0,1.0,100.00
2021-04-20 22:11:23.870,-0.027745493,-0.3733935,-0.11587326,0.084072486,0.38574365,-0.1324833,-0.5594178,-0.018332724,0.2850969,0.35883528,0.0289216,0.11586398,0.39860365,1.4212853,0.7648324,0.6288602,-0.27501428,0.73631316,0.13625756,0.08407411,908.60803,828.022,820.3663,861.06226,862.27106,0.22723388671875,-0.03350830078125,0.9820556640625,4.942169189453125,-3.24493408203125,2.6617431640625,1,1.0,1.0,1.0,1.0,100.00
2021-04-20 22:11:24.380,-0.028965442,-0.3892508,0.35011375,0.1325238,0.38338938,-0.17916775,0.110891566,0.019944988,0.28415096,0.33203012,0.29025057,0.015621551,0.41754946,1.4219066,0.77127534,0.6382151,-0.26574734,0.7363237,0.0061296592,0.030349305,792.96704,818.3516,818.3516,811.50183,709.15753,0.208740234375,-0.04254150390625,0.9791259765625,4.605712890625,-3.566436767578125,0.58319091796875,1,1.0,1.0,1.0,1.0,100.00
2021-04-20 22:11:24.515,0.0226614815,-0.3809227,0.350694575,0.120801345,0.419237715,-0.24832769,0.111803603,0.252152574,0.39343668,-0.036159090000,0.296951735,0.2834283755,0.360400555,1.36593695,0.7584601200000,0.564817,-0.1509856125,0.6251328,0.0348725896,-0.1002853625,746.02562,807.4725,807.67397,,,,,,,,,,,,,,,/muse/elements/blink
2021-04-20 22:11:24.907,0.074288405,-0.3725946,0.3512754,0.10907889,0.45508605,-0.31748763,0.11271564,0.48436016,0.5027224,-0.4043483,0.3036529,0.5512352,0.30325165,1.3099673,0.7456449,0.4914189,-0.036223885,0.5139419,0.06361552,-0.23092003,699.0842,796.5934,796.99634,738.5714,712.7839,0.22320556640625,-0.0355224609375,0.97808837890625,4.673004150390625,-4.38140869140625,1.652374267578125,1,1.0,1.0,1.0,1.0,100.00
2021-04-20 22:11:25.422,0.085759446,-0.3146136,0.22574677,-0.0023160994,0.30513313,-0.15109678,-0.053271167,0.44077682,0.55386674,-0.05887407,0.27721924,0.5874695,0.34550363,1.2462391,0.7022714,0.5316388,-0.08085042,0.6442326,0.15605468,-0.10515431,744.21246,797.8022,807.47253,771.2088,638.24176,0.22216796875,-0.03826904296875,0.97808837890625,4.807586669921875,-4.47113037109375,0.9869384765625,1,1.0,1.0,1.0,1.0,100.00
2021-04-20 22:11:25.928,0.13436916,-0.25230023,0.16722302,0.043684557,0.28251976,-0.19684902,-0.20845802,0.45777148,0.55954564,0.1257383,0.21498865,0.63115585,0.33450532,1.2306095,0.6705959,0.5477797,-0.06498028,0.58025736,0.14164607,-0.072118215,951.31866,848.1685,821.978,902.1612,826.4103,0.20721435546875,-0.03680419921875,0.97698974609375,4.964599609375,-4.508514404296875,1.42059326171875,1,1.0,1.0,1.0,1.0,100.00
2021-04-20 22:11:25.945,0.16278993,-0.23478884,0.24670766,0.0237855861,0.1760192525,-0.16918488,-0.211586700000,0.45160122,0.3985446099999,0.1190342349999,0.1874105999999,0.44387698,0.3389722400000,1.2129465,0.630100615,0.5714321250000,-0.077269478,0.5954983300000,0.1422393450000,-0.024814536499,894.30401499999,824.19415,818.35165,,,,,,,,,,,,,,,/muse/elements/blink
2021-04-20 22:11:26.432,0.1912107,-0.21727745,0.3261923,0.0038866152,0.069518745,-0.14152074,-0.21471538,0.44543096,0.23754358,0.11233017,0.15983255,0.25659811,0.34343916,1.1952835,0.58960533,0.59508455,-0.089558676,0.6107393,0.14283262,0.022489142,837.28937,800.2198,814.7253,819.9634,929.5604,0.21270751953125,-0.03662109375,0.97747802734375,5.211334228515625,-4.478607177734375,1.79443359375,1,1.0,1.0,1.0,1.0,100.00
2021-04-20 22:11:26.940,0.26378256,-0.17122643,0.48643655,0.11485401,0.06229564,-0.2722677,-0.13721305,0.5040868,0.17847311,0.07974063,0.13150452,0.17124023,0.26280755,1.1998495,0.570337,0.62358713,-0.0517535,0.4412074,0.01728064,0.045868278,753.47986,827.2161,826.4103,784.10254,740.989,0.19677734375,-0.038330078125,0.98004150390625,3.745880126953125,-4.314117431640625,0.979461669921875,1,1.0,1.0,1.0,1.0,100.00
2021-04-20 22:11:27.262,0.26378256,-0.149159575,0.3348781700000,0.11485401,0.06229564,-0.305212825,-0.173516025000,0.5040868,0.17847311,0.0641166335,0.228463135,0.17124023,0.26280755,1.1943658,0.621800125,0.62358713,-0.0517535,0.400970975,0.0176650620000,0.045868278,727.490845,818.75455,820.769265,,,,,,,,,,,,,,,/muse/elements/blink
2021-04-20 22:11:27.448,0.26378256,-0.12709272,0.18331979,0.11485401,0.06229564,-0.33815795,-0.209819,0.5040868,0.17847311,0.048492637,0.32542175,0.17124023,0.26280755,1.1888821,0.67326325,0.62358713,-0.0517535,0.36073455,0.018049484,0.045868278,701.50183,810.293,815.12823,736.1539,645.09155,0.21124267578125,-0.0352783203125,0.98138427734375,4.433746337890625,-5.091705322265625,1.084136962890625,1,1.0,1.0,1.0,1.0,100.00
2021-04-20 22:11:27.962,0.050653484,-0.13323215,-0.18478602,0.11145429,0.09114144,-0.5481643,-0.2431046,0.3211906,0.35333514,-0.05847084,0.3299068,0.11810531,0.31909832,1.2528156,0.6502298,0.50460523,-0.2213644,0.4835747,-0.016107637,-0.100146316,814.3223,796.99634,808.2784,802.23444,788.93774,0.21087646484375,-0.0377197265625,0.9803466796875,4.717864990234375,-4.11224365234375,1.21124267578125,1,1.0,1.0,1.0,1.0,100.00
2021-04-20 22:11:28.458,0.087271392,-0.172489085,-0.07031282,0.144010655,0.15156165,-0.427790785,-0.23131815,0.281293655,0.35406381,0.080244605,0.3556549599999,0.181135865,0.36215811,1.2246115,0.64581565,0.524669665,-0.20488951,0.5558526500000,0.0490562665,-0.089479688,810.09155000000,817.94872000000,825.0,,,,,,,,,,,,,,,/muse/elements/blink
2021-04-20 22:11:28.470,0.1238893,-0.21174602,0.04416038,0.17656702,0.21198186,-0.30741727,-0.2195317,0.24139671,0.35479248,0.21896005,0.38140312,0.24416642,0.4052179,1.1964074,0.6414015,0.5447341,-0.18841462,0.6281306,0.11422017,-0.07881306,805.8608,838.9011,841.7216,775.2381,761.13556,0.203857421875,-0.03948974609375,0.9805908203125,4.6954345703125,-4.90478515625,1.68975830078125,1,1.0,1.0,1.0,1.0,100.00
2021-04-20 22:11:28.680,0.16024322,-0.26296886,0.1718063,0.20928074,0.2433817300000,-0.251036305,-0.1633861775,0.25885942,0.34290831,0.270599265,0.313242765,0.21364644,0.42199702,1.16670265,0.63427625,0.5486165000000,-0.173084675000,0.6448834,0.188550785,-0.0823451575,830.03663000000,823.58975000000,831.64834999999,,,,,,,,,,,,,,,/muse/elements/blink
2021-04-20 22:11:29.001,0.19659714,-0.3141917,0.29945222,0.24199446,0.2747816,-0.19465534,-0.107240655,0.27632213,0.33102414,0.32223848,0.24508241,0.18312646,0.43877614,1.1369979,0.627151,0.5524989,-0.15775473,0.6616362,0.2628814,-0.085877255,854.21246,808.2784,821.5751,845.7509,772.01465,0.1890869140625,-0.02423095703125,0.98809814453125,5.540313720703125,-3.7982177734375,2.1234130859375,1,1.0,1.0,1.0,1.0,100.00
2021-04-20 22:11:29.515,0.25446537,-0.2662451,0.4745018,0.27123538,0.39190793,-0.12724842,-0.036366705,0.13504057,0.21992914,0.3184642,0.27098542,0.15852432,0.51498944,1.1278077,0.6590817,0.63039917,-0.14219286,0.7120566,0.33056542,-0.06309236,795.38464,782.49084,803.44324,788.93774,808.68134,0.1876220703125,-0.03912353515625,0.9837646484375,4.44122314453125,-4.0673828125,0.5084228515625,1,1.0,1.0,1.0,1.0,100.00
2021-04-20 22:11:29.793,0.24134662,-0.18478881,0.44347041,0.2772446750000,0.378860815,-0.0568636295,-0.0584657175,0.07606464,0.20801707,0.316636775,0.2656556599999,0.15376836,0.51953022,1.1108645,0.68403205,0.622866215,-0.139176105,0.725321485,0.32570151,-0.0510733175,759.92677,807.67397,812.71062,,,,,,,,,,,,,,,/muse/elements/blink
2021-04-20 22:11:30.026,0.22822787,-0.10333252,0.41243902,0.28325397,0.3658137,0.013521161,-0.08056473,0.01708871,0.196105,0.31480935,0.2603259,0.1490124,0.524071,1.0939213,0.7089824,0.61533326,-0.13615935,0.73858637,0.3208376,-0.039054275,724.4689,832.8571,821.978,749.45056,668.86444,0.189697265625,-0.03289794921875,0.98577880859375,4.29168701171875,-4.732818603515625,0.91217041015625,1,1.0,1.0,1.0,1.0,100.00
2021-04-20 22:11:30.533,-0.03365198,-0.10333252,0.3087252,-0.078863755,-0.3090421,0.013521161,-0.16470972,-0.16677114,0.5632357,0.31480935,0.1423759,0.38774428,0.21181358,1.0939213,0.6973209,0.42206493,-0.29436862,0.73858637,0.24863315,-0.001206893,865.09155,811.50183,818.7546,840.5128,850.58606,0.18304443359375,-0.032958984375,0.98614501953125,4.448699951171875,-4.972076416015625,0.8074951171875,1,1.0,1.0,1.0,1.0,100.00
2021-04-20 22:11:31.024,-0.005345542999,-0.145454655,0.1653961524999,-0.0683612785,-0.111869415,0.0613960255,-0.20793111,-0.213925870000,0.597073375,0.4305763999999,0.188553115,0.44689789,0.2913450800000,1.0875900500000,0.688226,0.491165365,-0.278073875,0.775074535,0.273003375,0.0513494335,792.362625,811.904765,812.30770000000,,,,,,,,,,,,,,,/muse/elements/blink
2021-04-20 22:11:31.035,0.022960894,-0.18757679,0.022067105,-0.057858802,0.08530327,0.10927089,-0.2511525,-0.2610806,0.63091105,0.54634345,0.23473033,0.5060515,0.37087658,1.0812588,0.6791311,0.5602658,-0.26177913,0.8115627,0.2973736,0.10390576,719.6337,812.3077,805.8608,753.47986,691.8315,0.19891357421875,-0.03533935546875,0.98284912109375,4.41131591796875,-4.388885498046875,0.844879150390625,1,1.0,1.0,1.0,1.0,100.00
2021-04-20 22:11:31.542,0.2815188,-0.2851826,-0.044574898,0.17136876,0.21709095,-0.031477008,-0.20709862,-0.16095698,0.58116555,0.5610661,0.19918232,0.4950625,0.41676527,1.1094977,0.6308428,0.6243637,-0.2025265,0.7842796,0.34790403,0.14764804,695.8608,822.7839,817.9487,730.5128,616.08057,0.17449951171875,-0.02880859375,0.98223876953125,4.553375244140625,-4.05242919921875,1.218719482421875,1,1.0,1.0,1.0,1.0,100.00
2021-04-20 22:11:32.062,0.5421918,-0.26682842,-0.046066813,0.42902339,0.33500117,-0.06579697,0.017796194,0.11041104,0.68450993,0.49517617,0.47783104,0.45509422,0.5098271,1.1276658,0.67836916,0.6727389,0.24139939,0.77792853,0.3942485,0.28492904,782.8938,801.4286,812.3077,788.93774,817.9487,0.18048095703125,-0.02825927734375,0.985595703125,4.329071044921875,-5.18890380859375,1.188812255859375,1,1.0,1.0,1.0,1.0,100.00
2021-04-20 22:11:32.230,0.52717128,-0.31630835,-0.030581119,0.482762445,0.33160822,-0.15535678,0.0113003518500,0.1810251,0.698968865,0.43763231,0.50357517,0.42945528,0.4873374499999,1.1407496,0.679214145,0.6445405,0.27085716,0.7580871849999,0.38171298,0.2776351700000,846.75825000000,828.62637999999,826.81318,,,,,,,,,,,,,,,/muse/elements/blink
2021-04-20 22:11:32.566,0.51215076,-0.36578828,-0.015095425,0.5365015,0.32821527,-0.24491659,0.0048045097,0.25163916,0.7134278,0.38008845,0.5293193,0.40381634,0.4648478,1.1538334,0.68005913,0.6163421,0.30031493,0.73824584,0.36917746,0.2703413,910.6227,855.82416,841.31866,876.77655,852.6007,0.18182373046875,-0.035400390625,0.98443603515625,4.486083984375,-4.613189697265625,0.91217041015625,1,1.0,1.0,1.0,1.0,100.00
2021-04-20 22:11:33.072,0.33718228,-0.27503544,0.027187586,0.38026813,0.2265712,-0.19818154,-0.060340926,0.3773001,0.7070532,0.22225432,0.5065106,0.53497183,0.4417288,1.182266,0.7289922,0.4110525,0.276236,0.69876486,0.32504714,0.21148585,867.50916,823.1868,826.0073,861.8681,663.22345,0.17718505859375,-0.03179931640625,0.9815673828125,4.598236083984375,-4.5458984375,1.375732421875,1,1.0,1.0,1.0,1.0,100.00
2021-04-20 22:11:33.358,0.060622625,-0.38092102,0.0235286085,0.2284863999999,0.222803235,0.0727940300000,-0.019906601000,0.361058,0.681647,0.1571630700000,0.5104636499999,0.527719865,0.40518847,1.17881805,0.70584302,0.3831351699999,0.11417353,0.71422225,0.2870601200000,0.1275199325,801.63003,812.106215,813.71795,,,,,,,,,,,,,,,/muse/elements/blink
2021-04-20 22:11:33.580,-0.21593703,-0.4868066,0.019869631,0.07670467,0.21903527,0.3437696,0.020527724,0.3448159,0.6562408,0.09207182,0.5144167,0.5204679,0.36864814,1.1753701,0.68269384,0.35521784,-0.04788894,0.72967964,0.2490731,0.043554015,735.7509,801.02563,801.4286,782.8938,669.2674,0.1873779296875,-0.03131103515625,0.98602294921875,4.658050537109375,-4.388885498046875,0.889739990234375,1,1.0,1.0,1.0,1.0,100.00
2021-04-20 22:11:33.677,-0.19543527,-0.4868066,0.1324466504999,0.043704258,0.159401025,0.3437696,0.1786083020000,0.37561625,0.4793714649999,0.09207182,0.3991018699999,0.5179959350000,0.36349173,1.1753701,0.673903855,0.333654685,-0.1716837,0.72967964,0.246418275,0.0532388795,816.73992,819.56041499999,813.5165,,,,,,,,,,,,,,,/muse/elements/blink
2021-04-20 22:11:34.102,-0.17493351,-0.4868066,0.24502367,0.010703846,0.09976678,0.3437696,0.33668888,0.4064166,0.30250213,0.09207182,0.28378704,0.51552397,0.35833532,1.1753701,0.66511387,0.31209153,-0.29547846,0.72967964,0.24376345,0.062923744,897.72894,838.0952,825.6044,852.6007,828.4249,0.1900634765625,-0.0279541015625,0.98822021484375,5.211334228515625,-4.972076416015625,1.054229736328125,1,1.0,1.0,1.0,1.0,100.00
2021-04-20 22:11:34.604,-0.039471995,-0.12765992,0.36126402,0.10759275,0.23023736,0.32059318,0.38959616,0.5183402,0.30250213,0.40093318,0.30203262,0.475357,0.40882993,1.1422783,0.63710064,0.25742546,-0.30434793,0.6573245,0.21565612,0.068592116,845.34796,801.4286,813.1135,817.9487,816.7399,0.19793701171875,-0.035888671875,0.9849853515625,3.3197021484375,-5.465545654296875,0.52337646484375,1,1.0,1.0,1.0,1.0,100.00
2021-04-20 22:11:34.764,0.0551318225,-0.082716982500,0.36140062,0.175096105,-0.012066070000,0.1580183262999,0.3508303000000,0.354596175,0.1873426125,0.41066681,0.3401283349999,0.3167064049999,0.296849155,1.1571321,0.67205512,0.36599359,-0.26873265,0.7662444749999,0.27376669,-0.072730252,794.98165999999,793.168525,803.4432,,,,,,,,,,,,,,,/muse/elements/blink
2021-04-20 22:11:35.112,0.14973564,-0.037774045,0.36153722,0.24259946,-0.2543695,-0.0045565274,0.31206444,0.19085215,0.072183095,0.42040044,0.37822405,0.15805581,0.18486838,1.1719859,0.7070096,0.47456172,-0.23311737,0.87516445,0.33187726,-0.21405262,744.61536,784.90845,793.7729,766.3736,750.2564,0.1873779296875,-0.03485107421875,0.98089599609375,4.007568359375,-5.8319091796875,2.99072265625,1,1.0,1.0,1.0,1.0,100.00
2021-04-20 22:11:35.633,0.003939085,-0.059087764,0.18643251,0.22787778,0.0055595743,-0.070298836,0.038818553,0.3530116,0.47590262,0.51592547,0.30427718,0.4514226,0.12786025,1.1550099,0.70624876,0.51021904,-0.2597077,0.83813393,0.30792826,-0.11865671,707.9487,823.5897,814.7253,724.4689,662.8205,0.19537353515625,-0.03271484375,0.98468017578125,4.007568359375,-4.089813232421875,0.70281982421875,1,1.0,1.0,1.0,1.0,100.00
2021-04-20 22:11:36.096,0.02063337,-0.0569959245,0.125252175,0.22255362,0.07186889215,-0.152011038,0.0070619025,0.3055661899999,0.50320128,0.530613835,0.303742975,0.4557928,0.125827295,1.1527902,0.684366705,0.50390278,-0.25319439,0.837017465,0.311344355,-0.136265330000,708.95605,798.80950000000,803.44325,,,,,,,,,,,,,,,/muse/elements/blink
2021-04-20 22:11:36.154,0.037327655,-0.054904085,0.06407184,0.21722946,0.13817821,-0.23372324,-0.024694748,0.25812078,0.53049994,0.5453022,0.30320877,0.460163,0.12379434,1.1505705,0.66248465,0.49758652,-0.24668108,0.835901,0.31476045,-0.15387395,709.9634,774.0293,792.1612,747.4359,732.1245,0.19512939453125,-0.0416259765625,0.9805908203125,4.14215087890625,-3.46923828125,-0.6878662109375,1,1.0,1.0,1.0,1.0,100.00
2021-04-20 22:11:36.670,-0.0303483,-0.08082921,-0.017427627,0.12809704,0.17670226,-0.1622525,-0.10292702,0.17049032,0.5287232,0.51321995,0.20324092,0.4287384,0.07134286,1.1141247,0.5605625,0.47700554,-0.14368685,0.7536419,0.21669455,-0.11593324,915.05493,830.84247,835.6777,874.7619,876.77655,0.19525146484375,-0.04205322265625,0.985107421875,4.6356201171875,-5.465545654296875,1.203765869140625,1,1.0,1.0,1.0,1.0,100.00
2021-04-20 22:11:37.185,0.013981552,-0.11499287,0.02143213,-0.012089638,0.1890563,-0.027597276,-0.18318537,-0.110230155,0.36700276,0.44889504,0.1364218,0.18847166,0.09655271,1.1394382,0.64301133,0.4409336,-0.070385866,0.7113252,0.14928322,-0.16616362,888.46155,816.337,828.4249,851.39197,868.71796,0.20367431640625,-0.04803466796875,0.983154296875,4.2767333984375,-4.05242919921875,0.3887939453125,1,1.0,1.0,1.0,1.0,100.00
2021-04-20 22:11:37.378,0.071639381,-0.140057675,-0.036760570000,0.0106974885000,0.1660557650000,0.033825924,-0.204314745,-0.0742180075,0.319799885,0.42024976,0.1113072820000,0.20298654,0.120521655,1.15279905,0.654724895,0.43398325,-0.064949866500,0.7217104,0.14187749,-0.117445545000,889.06594999999,820.36629999999,830.641,,,,,,,,,,,,,,,/muse/elements/blink
2021-04-20 22:11:37.698,0.12929721,-0.16512248,-0.09495327,0.033484615,0.14305523,0.095249124,-0.22544412,-0.03820586,0.27259701,0.39160448,0.086192764,0.21750142,0.1444906,1.1661599,0.66643846,0.4270329,-0.059513867,0.7320956,0.13447176,-0.06872747,889.67035,824.3956,832.8571,869.12085,884.43225,0.22283935546875,-0.045166015625,0.98486328125,4.47113037109375,-4.358978271484375,0.10467529296875,1,1.0,1.0,1.0,1.0,100.00
2021-04-20 22:11:38.205,0.18375275,-0.16727799,-0.12415064,0.14328483,0.15197468,0.11921799,-0.12628716,0.10494306,0.32633573,0.36364287,0.14868276,0.16865103,0.17898642,1.188494,0.71576655,0.45332783,-0.06679012,0.72971386,0.15786974,-0.019427521,735.34796,815.9341,811.50183,760.7326,751.4652,0.2015380859375,-0.037841796875,0.98199462890625,4.523468017578125,-4.47113037109375,2.190704345703125,1,1.0,1.0,1.0,1.0,100.00
2021-04-20 22:11:38.724,0.24060473,-0.1593179,-0.13486354,0.23068802,0.13165852,0.096213154,-0.06913729,0.2752174,0.3383753,0.3151364,0.18963729,0.1742718,0.3129544,1.1768647,0.6740547,0.45169854,-0.14635809,0.789432,0.21935816,0.009900487,892.0879,828.022,829.6337,852.1978,830.0366,0.20501708984375,-0.03826904296875,0.9818115234375,5.151519775390625,-3.656158447265625,0.43365478515625,1,1.0,1.0,1.0,1.0,100.00
2021-04-20 22:11:38.727,0.16857019,-0.156832885,-0.062618312000,0.176447715,0.1056682075,0.0219424999999,-0.078110985,0.327307875,0.36531897,0.32356605,0.20118607,0.18743508,0.3371999300000,1.1744813500000,0.66749285,0.4631150699999,-0.154321445,0.80203158,0.2367768049999,0.0122272954999,860.05495,816.73995,833.05860000000,,,,,,,,,,,,,,,/muse/elements/blink
2021-04-20 22:11:39.226,0.09653565,-0.15434787,0.009626916,0.12220741,0.079677895,-0.052328154,-0.08708468,0.37939835,0.39226264,0.3319957,0.21273485,0.20059836,0.36144546,1.172098,0.660931,0.4745316,-0.1622848,0.81463116,0.25419545,0.014554104,828.022,805.4579,836.4835,807.8755,806.6667,0.17901611328125,-0.04315185546875,0.9794921875,5.921630859375,-4.074859619140625,8.471221923828125,1,1.0,1.0,1.0,1.0,100.00
2021-04-20 22:11:39.741,0.06928394,-0.05401135,0.28241363,-0.011867619,0.1482443,-0.001459576,0.15350969,0.44089434,0.3716134,0.25412998,0.15791735,0.16496225,0.4426084,1.1511229,0.68828845,0.48056632,-0.26816264,0.78887,0.31526113,-0.04310408,759.92676,837.6923,837.6923,794.9817,680.14655,0.187744140625,0.012451171875,0.989990234375,12.493743896484375,-3.850555419921875,2.52716064453125,1,1.0,1.0,1.0,1.0,100.00
2021-04-20 22:11:40.050,0.02777754475,-0.007022110000,0.412116465,-0.3225966295,0.171865735,0.0296225085000,0.23664022,0.42811447,0.3637298300000,0.175750425,0.227846925,0.13704041,0.439008375,1.1412516,0.6923878750000,0.5193404850000,-0.210987464999,0.75688475,0.350857425,-0.04305552,730.10988,807.0696,822.38095,,,,,,,,,,,,,,,/muse/elements/blink
2021-04-20 22:11:40.252,-0.0137288505,0.03996713,0.5418193,-0.63332564,0.19548717,0.060704593,0.31977075,0.4153346,0.35584626,0.09737087,0.2977765,0.10911857,0.43540835,1.1313803,0.6964873,0.55811465,-0.15381229,0.7248995,0.38645372,-0.04300696,700.293,776.4469,807.0696,742.6007,691.4286,0.18634033203125,6.103515625E-4,0.98284912109375,3.207550048828125,-6.80389404296875,0.979461669921875,1,1.0,1.0,1.0,1.0,100.00
2021-04-20 22:11:40.758,-0.0137288505,0.06294164,0.515447,-0.63332564,0.19548717,0.12119727,0.3671579,0.4153346,0.35584626,0.058223363,0.31611872,0.10911857,0.43540835,1.1148652,0.7235371,0.55811465,-0.15381229,0.74693435,0.40093395,-0.04300696,794.17584,799.81683,811.0989,788.1319,832.0513,0.21319580078125,-0.024658203125,0.98150634765625,0.710296630859375,-9.144134521484375,0.2691650390625,1,1.0,1.0,1.0,1.0,100.00
2021-04-20 22:11:41.250,-0.019429060249,0.06294164,0.394807865,-0.3400937875,0.2995720349999,0.12119727,0.25636722,0.525327425,0.79692803,0.058223363,0.3594199,0.517933835,0.42475535,1.1148652,0.7006585000000,0.562790605,-0.15515233,0.74693435,0.3562354,0.02862618,858.64467,828.827815,822.5824,,,,,,,,,,,,,,,/muse/elements/blink
2021-04-20 22:11:41.264,-0.02512927,0.06294164,0.27416873,-0.046861935,0.4036569,0.12119727,0.14557654,0.63532025,1.2380098,0.058223363,0.40272108,0.9267491,0.41410235,1.1148652,0.6777799,0.56746656,-0.15649237,0.74693435,0.31153685,0.10025932,923.1135,857.8388,834.0659,867.50916,822.381,0.21142578125,-0.03265380859375,0.9796142578125,5.33843994140625,-4.553375244140625,2.03369140625,1,1.0,1.0,1.0,1.0,100.00
2021-04-20 22:11:41.779,0.045550928,0.06294164,-0.20747185,0.045454517,0.7323149,0.12119727,0.03596863,0.7607858,1.298289,0.058223363,0.6573717,0.9873691,0.4922208,1.1148652,0.68064904,0.66831875,-0.1103751,0.74693435,0.24934146,0.089464344,857.4359,812.3077,804.65204,837.28937,842.52747,0.2041015625,-0.03326416015625,0.9783935546875,4.8748779296875,-3.102874755859375,0.052337646484375,1,1.0,1.0,1.0,1.0,100.00
2021-04-20 22:11:42.308,0.3267404,0.34714368,-0.13092715,0.25523382,0.83682114,0.64233315,0.12391179,0.8180013,1.3488172,0.96748257,0.8003806,1.1029619,0.55709463,1.1815206,0.6667992,0.63092667,-0.08726564,0.7651876,0.2284209,0.0519069,798.60803,801.02563,815.5311,782.49084,851.39197,0.2091064453125,-0.0286865234375,0.9801025390625,4.80010986328125,-4.553375244140625,0.979461669921875,1,1.0,1.0,1.0,1.0,100.00
2021-04-20 22:11:42.475,0.411879175,0.3180213400000,-0.088878665,0.3152305450000,0.903361945,0.689798445,0.150835695,0.9126847499999,1.32036525,0.97077057,0.8003806,1.0993005,0.5888954399999,1.18808605,0.640210275,0.612666665,-0.075166895000,0.7668114500000,0.230986285,0.0241363968,847.564085,826.813165,831.2454,,,,,,,,,,,,,,,/muse/elements/blink
2021-04-20 22:11:42.813,0.49701795,0.288899,-0.04683018,0.37522727,0.96990275,0.73726374,0.1777596,1.0073682,1.2919133,0.97405857,0.8003806,1.0956391,0.62069625,1.1946515,0.61362135,0.59440666,-0.06306815,0.7684353,0.23355167,-0.0036341064,896.52014,852.6007,846.9597,863.47986,765.56775,0.19464111328125,-0.0340576171875,0.982666015625,4.5458984375,-4.5458984375,0.710296630859375,1,1.0,1.0,1.0,1.0,100.00
2021-04-20 22:11:43.320,0.47974235,0.19453326,-0.10000781,0.32157788,0.86390114,0.6429865,0.1172037,0.9073729,1.2455057,0.9489339,0.7807134,0.91802603,0.59660625,1.1611357,0.5571081,0.48991203,-0.12755471,0.7135033,0.18488346,0.0054493137,850.58606,813.91943,815.5311,824.3956,874.35895,0.1912841796875,-0.029052734375,0.98931884765625,4.568328857421875,-4.0673828125,0.725250244140625,1,1.0,1.0,1.0,1.0,100.00
2021-04-20 22:11:43.791,0.327071965,0.0551847050000,-0.205465185,0.2275189899999,0.74693482,0.51800808,0.0248578275,0.79130835,1.17081185,0.8267367,0.60714879,0.835456065,0.556316075,1.13580025,0.5737976499999,0.5013178,-0.176188905,0.71784377,0.168730125,0.02467192685,876.77655,825.805865,821.97800000000,,,,,,,,,,,,,,,/muse/elements/blink
2021-04-20 22:11:43.822,0.17440158,-0.08416385,-0.31092256,0.1334601,0.6299685,0.39302966,-0.067488045,0.6752438,1.096118,0.7045395,0.43358418,0.7528861,0.5160259,1.1104648,0.5904872,0.51272357,-0.2248231,0.72218424,0.15257679,0.04389454,902.96704,837.6923,828.4249,873.1502,771.6117,0.18853759765625,-0.03289794921875,0.98126220703125,4.0374755859375,-3.72344970703125,-0.366363525390625,1,1.0,1.0,1.0,1.0,100.00
2021-04-20 22:11:44.338,-0.06910293,-0.12781301,-0.49410245,0.024335595,0.0788882,0.07088309,-0.06433945,0.14287028,0.8150707,0.48066613,0.33031762,0.6624165,0.38492292,1.0751284,0.6632165,0.47482458,-0.25160167,0.73001075,0.16924614,0.08154004,720.4396,803.0403,806.6667,738.5714,707.1429,0.19891357421875,-0.02984619140625,0.986083984375,3.925323486328125,-5.211334228515625,-0.710296630859375,1,1.0,1.0,1.0,1.0,100.00
2021-04-20 22:11:44.852,-0.17470926,-0.14922622,-0.5606081,-0.028574336,-0.08379366,-0.07991963,-0.14415342,-0.0023504207,0.69152397,0.4853418,0.13919714,0.42249587,0.34637216,1.0805293,0.6604223,0.3752502,-0.27539736,0.7631111,0.1809604,0.035108525,847.76556,804.2491,812.71063,830.0366,803.0403,0.204833984375,-0.03472900390625,0.98529052734375,4.508514404296875,-7.364654541015625,3.0206298828125,1,1.0,1.0,1.0,1.0,100.00
2021-04-20 22:11:45.000,-0.20416945,-0.109164165,-0.80233595,-0.004794532499,-0.054774943500,-0.118569235,-0.199494899999,0.01332124765,0.69566861,0.49423737,0.13605445,0.428093925,0.3505667,1.08021805,0.66179787,0.351811235,-0.2674444,0.79621105,0.2063866899999,0.022919611,879.395595,826.00733,829.835165,,,,,,,,,,,,,,,/muse/elements/blink
2021-04-20 22:11:45.368,-0.23362964,-0.06910211,-1.0440638,0.018985271,-0.025756227,-0.15721884,-0.25483638,0.028992916,0.69981325,0.50313294,0.13291176,0.43369198,0.35476124,1.0799068,0.66317344,0.32837227,-0.25949144,0.829311,0.23181298,0.010730697,911.02563,847.76556,846.9597,882.4176,769.59705,0.2252197265625,-0.05859375,0.9715576171875,2.758941650390625,-7.53662109375,2.444915771484375,1,1.0,1.0,1.0,1.0,100.00
2021-04-20 22:11:45.730,-0.216280595000,-0.09965169,-0.63912194,0.0737480805,0.0139862475,-0.24783389,-0.249467304999,-0.053656741999,0.70038161,0.5036076199999,0.0861495935,0.4211479299999,0.37691009,1.07893025,0.64419794,0.321287435,-0.27997273,0.8414843000000,0.216728425,-0.004391912999,858.241765,833.26008,830.439565,,,,,,,,,,,,,,,/muse/elements/blink
2021-04-20 22:11:45.883,-0.19893155,-0.13020127,-0.23418008,0.12851089,0.053728722,-0.33844894,-0.24409823,-0.1363064,0.70094997,0.5040823,0.039387427,0.40860388,0.39905894,1.0779537,0.62522244,0.3142026,-0.30045402,0.8536576,0.20164387,-0.019514523,805.4579,818.7546,813.91943,822.7839,728.0952,0.238525390625,-0.06231689453125,0.977294921875,5.271148681640625,-4.56085205078125,0.67291259765625,1,1.0,1.0,1.0,1.0,100.00
2021-04-20 22:11:46.307,-0.1407386,-0.123923658,0.1193816749999,0.240609215,0.050164398,-0.337752895,-0.0748255,-0.09954246,0.6846567100000,0.46151503,-0.028237241499,0.398316325,0.42484442,1.0777871499999,0.62175402,0.3332456900000,-0.292101544999,0.8737858000000,0.20598831,-0.039234789,752.47255,808.27839999999,815.732615,,,,,,,,,,,,,,,/muse/elements/blink
2021-04-20 22:11:46.391,-0.08254565,-0.117646046,0.47294343,0.35270754,0.046600074,-0.33705685,0.09444723,-0.06277852,0.66836345,0.41894776,-0.09586191,0.38802877,0.4506299,1.0776206,0.6182856,0.35228878,-0.28374907,0.893914,0.21033275,-0.058955055,699.4872,797.8022,817.5458,730.10986,692.6374,0.23565673828125,-0.06298828125,0.97161865234375,5.241241455078125,-3.910369873046875,0.201873779296875,1,1.0,1.0,1.0,1.0,100.00
2021-04-20 22:11:46.914,0.010865808,-0.12211864,0.5324624,0.47078672,0.15854275,-0.34980112,0.15813784,0.009202416,0.59832525,0.40937355,-0.04225916,0.34561872,0.47766906,1.0641581,0.56730443,0.34669095,-0.39297518,0.883444,0.23007512,-0.09586282,754.2857,823.9927,818.7546,746.2271,686.1905,0.20550537109375,-0.05413818359375,0.9757080078125,5.734710693359375,-3.09539794921875,1.3458251953125,1,1.0,1.0,1.0,1.0,100.00
2021-04-20 22:11:47.439,0.14536668,-0.12211864,0.49895662,-0.15363026,0.07945519,-0.34980112,0.06771622,-0.052892793,0.31584796,0.40937355,-0.0312793,0.3268673,0.1486522,1.0641581,0.56948745,0.3026577,-0.19353406,0.883444,0.32190835,0.20132005,899.7436,802.23444,816.7399,864.2857,952.52747,0.21771240234375,-0.05615234375,0.978271484375,5.211334228515625,-4.56085205078125,0.366363525390625,1,1.0,1.0,1.0,1.0,100.00
2021-04-20 22:11:47.683,0.095126957,-0.111839512,0.207213733,-0.14995059,0.193973145,-0.207910225,-0.093402409999,0.0319177234999,0.37724651,0.28978834,-0.0350279065,0.337637685,0.1727234,1.035908,0.596159325,0.3051481499999,-0.19579424,0.90595388,0.348303825,0.142986655,896.52015000000,811.30036999999,822.78385,,,,,,,,,,,,,,,/muse/elements/blink
2021-04-20 22:11:47.940,0.044887234,-0.101560384,-0.084529154,-0.14627092,0.3084911,-0.06601933,-0.25452104,0.11672824,0.43864506,0.17020313,-0.038776513,0.34840807,0.1967946,1.0076579,0.6228312,0.3076386,-0.19805442,0.92846376,0.3746993,0.08465326,893.2967,820.3663,828.8278,875.56775,909.41394,0.2281494140625,-0.06329345703125,0.97686767578125,4.987030029296875,-4.53094482421875,0.575714111328125,1,1.0,1.0,1.0,1.0,100.00
2021-04-20 22:11:48.444,-0.057368025,-0.014419389,-0.310301,-0.24280497,0.22950898,-0.13510218,-0.36308914,0.022904344,0.44180372,0.24448018,-0.07213445,0.2935341,0.2556939,1.0447462,0.6373683,0.29979315,-0.21354139,0.8494467,0.34064457,0.056622673,755.09155,825.2015,817.5458,770.40295,660.40295,0.22528076171875,-0.06402587890625,0.970703125,4.628143310546875,-4.306640625,0.829925537109375,1,1.0,1.0,1.0,1.0,100.00
2021-04-20 22:11:48.906,-0.1948301625,-0.0604481745,-0.287258519999,-0.322452245,0.193343805,-0.26517595,-0.26365984,0.063683279,0.442222175,0.26878711,-0.009107219,0.2502044,0.28008895,1.0798919,0.6335643,0.326237915,-0.179759815,0.8327481999999,0.336080595,0.0426797114999,731.520125,807.06962,809.89012,,,,,,,,,,,,,,,/muse/elements/blink
2021-04-20 22:11:48.946,-0.3322923,-0.10647696,-0.26421604,-0.40209952,0.15717863,-0.39524972,-0.16423054,0.104462214,0.44264063,0.29309404,0.053920012,0.2068747,0.304484,1.1150376,0.6297603,0.35268268,-0.14597824,0.8160497,0.33151662,0.02873675,707.9487,788.93774,802.23444,732.9304,707.1429,0.23028564453125,-0.0574951171875,0.98095703125,3.132781982421875,-5.480499267578125,1.5850830078125,1,1.0,1.0,1.0,1.0,100.00
2021-04-20 22:11:49.455,-0.3016244,-0.18794973,-0.038618732,-0.07094326,-0.17211384,-0.4621595,-0.10345028,0.07264248,0.29347625,0.3723906,0.24324057,0.23934603,0.33211762,1.1646917,0.52509856,0.39138764,-0.055485275,0.779189,0.23444352,0.19234,797.3993,829.2308,825.2015,788.93774,793.36993,0.2156982421875,-0.05615234375,0.9737548828125,4.56085205078125,-5.45806884765625,2.953338623046875,1,1.0,1.0,1.0,1.0,100.00
2021-04-20 22:11:49.970,-0.17061082,-0.32039165,0.15126511,0.28779042,-0.16113664,-0.49451837,-0.109961405,0.068645954,0.3515223,0.368589,0.24954157,0.31756088,0.23592912,1.1616588,0.4572843,0.3870384,-0.02606605,0.85107464,0.28225836,0.22596833,743.8095,822.381,811.9048,745.0183,662.8205,0.22100830078125,-0.06182861328125,0.97216796875,4.433746337890625,-5.06927490234375,0.545806884765625,1,1.0,1.0,1.0,1.0,100.00
2021-04-20 22:11:50.106,-0.126790954999,-0.288238465,0.2252544550000,0.309752495,-0.036069448,-0.467832435,-0.08651562,0.1139762320000,0.40015685,0.43207338,0.260492335,0.4829688199999,0.20085153,1.1563817,0.4260943,0.3866625700000,-0.052343555,0.82028402,0.23999279,0.209556425,727.28935,802.03299999999,807.47255,,,,,,,,,,,,,,,/muse/elements/blink
2021-04-20 22:11:50.477,-0.08297109,-0.25608528,0.2992438,0.33171457,0.088997744,-0.4411465,-0.063069835,0.15930651,0.4487914,0.49555776,0.2714431,0.64837676,0.16577394,1.1511046,0.3949043,0.38628674,-0.07862106,0.7894934,0.19772722,0.19314452,710.7692,781.685,803.0403,734.94507,663.6264,0.217529296875,-0.051025390625,0.9810791015625,5.03936767578125,-4.852447509765625,0.179443359375,1,1.0,1.0,1.0,1.0,100.00
2021-04-20 22:11:50.979,-0.09283118,-0.2479266,0.28624925,0.29387936,0.12953526,-0.30818224,-0.11222182,0.27763,0.46427226,0.4727501,0.17561543,0.6316769,0.07040871,1.1081985,0.46127304,0.305974,-0.110933624,0.8019852,0.26862004,0.03568164,799.011,820.7692,812.3077,788.93774,728.49817,0.2281494140625,-0.05743408203125,0.9766845703125,4.91973876953125,-6.108551025390625,1.757049560546875,1,1.0,1.0,1.0,1.0,100.00
2021-04-20 22:11:51.435,-0.0614262205,-0.291977885,0.24951154,0.171242444,0.1417975650000,-0.210225085,-0.126026675,0.321076215,0.4831573799999,0.46698085,0.19117061,0.634990715,0.0763871399999,1.1121471500000,0.537859035,0.3077481,-0.129879512,0.75326195,0.228508055,0.027183988,787.12455,821.17215,812.3077,,,,,,,,,,,,,,,/muse/elements/blink
2021-04-20 22:11:51.502,-0.030021261,-0.33602917,0.21277383,0.048605528,0.15405987,-0.11226793,-0.13983153,0.36452243,0.5020425,0.4612116,0.20672579,0.63830453,0.08236557,1.1160958,0.61444503,0.3095222,-0.1488254,0.7045387,0.18839607,0.018686336,775.2381,821.5751,812.3077,786.1172,668.86444,0.220703125,-0.06640625,0.97332763671875,4.717864990234375,-3.69354248046875,1.45050048828125,1,1.0,1.0,1.0,1.0,100.00
2021-04-20 22:11:52.028,0.014964222,-0.5994015,0.18977566,0.011186275,0.050823454,-0.12381581,-0.33048132,0.27507815,0.4388448,0.36660343,0.13083932,0.51656425,0.09826608,1.1274914,0.6809277,0.26402432,-0.10743377,0.6806062,0.14991476,0.03790772,857.4359,825.2015,823.1868,865.09155,769.59705,0.234130859375,-0.06402587890625,0.97552490234375,4.1571044921875,-5.802001953125,1.099090576171875,1,1.0,1.0,1.0,1.0,100.00
2021-04-20 22:11:52.530,0.048809968,-0.5769786,0.22095278,-0.18603611,3.0372437E-4,-0.14319812,-0.3593562,0.021248294,0.43163466,0.4292525,0.3337835,0.5317789,0.29382473,1.124916,0.71318406,0.35651168,-0.15042548,0.6775221,0.063961804,0.11732126,731.7216,832.4542,813.1135,754.2857,597.5458,0.2266845703125,-0.0665283203125,0.98309326171875,4.11224365234375,-4.613189697265625,-1.637420654296875,1,1.0,1.0,1.0,1.0,100.00
2021-04-20 22:11:52.714,0.039944331,-0.48972084,0.29214661,-0.172243685,-0.011528388814,-0.262171845,-0.138741112,-0.081247413,0.39971177,0.40024702,0.3724788,0.49439533,0.335812895,1.1083159999999,0.6417946800000,0.43078759,-0.13730624,0.6856187149999,0.080761552,0.1058585270000,755.89742,799.010975,804.85345000000,,,,,,,,,,,,,,,/muse/elements/blink
2021-04-20 22:11:53.038,0.031078694,-0.40246308,0.36334044,-0.15845126,-0.023360502,-0.38114557,0.081873976,-0.18374312,0.36778888,0.37124154,0.4111741,0.45701176,0.37780106,1.091716,0.5704053,0.5050635,-0.124187,0.69371533,0.0975613,0.094395794,780.07324,765.56775,796.5934,803.8461,783.69965,0.23345947265625,-0.0712890625,0.97210693359375,3.1402587890625,-5.674896240234375,-0.620574951171875,1,1.0,1.0,1.0,1.0,100.00
2021-04-20 22:11:53.543,0.07987848,0.07376802,0.23961973,-0.09307305,-0.054571677,-0.14334586,0.07420539,-0.2885277,0.11858127,0.5396985,0.4111741,0.44537652,0.47504175,1.005893,0.46920305,0.5883872,-0.16574256,0.7987338,0.16092452,0.11867039,830.84247,800.6227,817.1429,818.3516,899.34064,0.2574462890625,-0.08001708984375,0.97039794921875,4.478607177734375,-4.83001708984375,1.727142333984375,1,1.0,1.0,1.0,1.0,100.00
2021-04-20 22:11:54.055,0.07771166,0.07376802,0.204341505,-0.003891253000,-0.0219759245,-0.14334586,0.0762702899999,-0.24241376,0.11200941,0.5396985,0.37538264,0.4013241250000,0.42214881,1.005893,0.4750113150000,0.63611185,-0.168804965,0.7987338,0.1735495,0.0931591,870.32965,816.13555,828.42495000000,,,,,,,,,,,,,,,/muse/elements/blink
2021-04-20 22:11:54.057,0.07554484,0.07376802,0.16906328,0.085290544,0.010619828,-0.14334586,0.07833519,-0.19629982,0.10543755,0.5396985,0.33959118,0.35727173,0.36925587,1.005893,0.48081958,0.6838365,-0.17186737,0.7987338,0.18617448,0.06764781,909.81683,831.6484,839.707,872.3443,847.76556,0.2470703125,-0.07806396484375,0.97344970703125,4.5758056640625,-3.12530517578125,1.12152099609375,1,1.0,1.0,1.0,1.0,100.00
2021-04-20 22:11:54.577,0.16657947,0.07376802,0.021875618,0.1456587,0.052372783,-0.14334586,-0.02903861,0.3937932,0.50865114,0.5396985,0.3242858,0.30282706,0.41815114,1.005893,0.4797269,0.4216296,-0.41714305,0.7987338,0.31613684,0.08396825,720.4396,783.69965,789.7436,739.3773,695.8608,0.23626708984375,-0.07586669921875,0.974853515625,5.271148681640625,-3.00567626953125,2.459869384765625,1,1.0,1.0,1.0,1.0,100.00
2021-04-20 22:11:55.104,0.20396481,0.07376802,0.10317239,0.043490585,0.06912779,-0.14334586,-0.026670989,0.23233505,0.530225,0.5396985,0.2473933,0.37709454,0.31887335,1.005893,0.56766576,0.3583313,-0.34079996,0.7987338,0.3321648,0.05886119,818.3516,815.12823,824.3956,802.23444,766.77655,0.21575927734375,-0.0650634765625,0.97833251953125,5.21881103515625,-2.9010009765625,1.95892333984375,1,1.0,1.0,1.0,1.0,100.00
2021-04-20 22:11:55.286,0.1809686400000,0.0187667685000,0.119886865,-0.020675094999,0.085667457,-0.019265749999,0.0382756655,0.1689375475,0.54802875,0.3577155199999,0.2385381200000,0.45377832,0.295827165,1.0421070000000,0.5645229549999,0.3671354,-0.307376965,0.831518515,0.35368063,0.082001515,866.703265,829.835165,835.8791,,,,,,,,,,,,,,,/muse/elements/blink
2021-04-20 22:11:55.630,0.15797247,-0.036234483,0.13660134,-0.084840775,0.102207124,0.10481436,0.10322232,0.105540045,0.5658325,0.17573254,0.22968294,0.5304621,0.27278098,1.078321,0.56138015,0.3759395,-0.27395397,0.86430323,0.37519646,0.10514184,915.05493,844.5421,847.3626,873.95605,778.46155,0.2017822265625,-0.06463623046875,0.978759765625,5.211334228515625,-4.224395751953125,2.1832275390625,1,1.0,1.0,1.0,1.0,100.00
2021-04-20 22:11:56.139,0.16128878,-0.07833105,0.13059524,-0.3196344,0.07151119,0.09944595,0.09314842,-0.22151048,0.51262635,0.4438301,0.15406366,0.49813965,0.22289774,1.0683068,0.5351004,0.38700202,-0.24337697,0.8535529,0.32395852,0.044844266,878.3883,816.7399,822.381,841.31866,869.92676,0.2020263671875,-0.060302734375,0.98126220703125,4.433746337890625,-4.792633056640625,0.55328369140625,1,1.0,1.0,1.0,1.0,100.00
2021-04-20 22:11:56.602,0.1076401774999,-0.029117959,0.020328918,-0.34512579,0.06699694,0.0756703765,0.0694632635,-0.261014555000,0.50591935,0.44356994,0.06474506,0.4725092349999,0.29770246,1.06686915,0.54461482,0.41332972,-0.231265275,0.84998765,0.32580281,0.0128518180000,885.2381,827.41755,827.4176,,,,,,,,,,,,,,,/muse/elements/blink
2021-04-20 22:11:56.645,0.053991575,0.020095132,-0.089937404,-0.37061718,0.06248269,0.051894803,0.045778107,-0.30051863,0.49921235,0.44330978,-0.02457354,0.44687882,0.37250718,1.0654315,0.55412924,0.43965742,-0.21915358,0.8464224,0.3276471,-0.01914063,892.0879,838.0952,832.4542,871.53845,750.65936,0.209228515625,-0.06829833984375,0.98004150390625,3.850555419921875,-5.24871826171875,1.368255615234375,1,1.0,1.0,1.0,1.0,100.00
2021-04-20 22:11:57.178,-0.05958013,-0.0456207,0.002295626,-0.040051162,0.03140965,-0.10363441,0.052921876,-0.053663142,0.57073087,0.45501187,0.13217394,0.4935286,0.41823065,1.04517,0.57151467,0.4604763,-0.24300155,0.7881748,0.28366846,0.008600167,785.31134,790.54944,807.0696,809.0842,795.38464,0.199951171875,-0.0755615234375,0.97674560546875,3.9776611328125,-5.166473388671875,1.278533935546875,1,1.0,1.0,1.0,1.0,100.00
2021-04-20 22:11:57.680,-0.17107607,0.07803,0.046825483,0.18991019,0.15765592,-0.14069629,0.087260984,0.14743078,0.5494241,0.3787433,0.34819904,0.4716617,0.41697136,1.0581441,0.60860825,0.5223962,-0.1667087,0.7673392,0.28127432,0.09731147,703.91943,799.41394,805.05493,732.9304,687.8022,0.19964599609375,-0.07342529296875,0.979248046875,5.1739501953125,-5.2935791015625,1.65985107421875,1,1.0,1.0,1.0,1.0,100.00
2021-04-20 22:11:57.905,-0.174179,0.071603005,0.0711412090000,0.198841345,0.138974817,-0.102664554999,0.145894977,0.2001683699999,0.599002115,0.36040481,0.37357922,0.492227235,0.354593755,1.0534404,0.595324695,0.5116178499999,-0.152901689999,0.77212988,0.258213735,0.113374965,739.17584,806.062285,815.934065,,,,,,,,,,,,,,,/muse/elements/blink
2021-04-20 22:11:58.213,-0.17728193,0.06517601,0.095456935,0.2077725,0.120293714,-0.06463282,0.20452897,0.25290596,0.64858013,0.34206632,0.3989594,0.51279277,0.29221615,1.0487367,0.58204114,0.5008395,-0.13909468,0.77692056,0.23515315,0.12943846,774.43225,812.71063,826.8132,770.0,724.87177,0.1973876953125,-0.07080078125,0.98260498046875,4.329071044921875,-4.42626953125,1.54022216796875,1,1.0,1.0,1.0,1.0,100.00
2021-04-20 22:11:58.737,-0.1387799,-0.054890238,-9.306202E-4,0.09859851,0.09665518,-0.03142102,0.10626821,0.24563037,0.64141816,0.5270768,0.36845845,0.5432148,0.19572268,1.1168727,0.5969605,0.47984692,-0.058415428,0.7936095,0.22726749,0.08810647,898.93774,759.92676,795.38464,876.77655,1081.8682,0.1934814453125,-0.07281494140625,0.97833251953125,4.314117431640625,-4.553375244140625,0.5084228515625,1,1.0,1.0,1.0,1.0,100.00
2021-04-20 22:11:59.265,-0.13417818,-0.2084725,0.02184135,-0.04047968,-0.075473465,-0.10747174,-0.003180604,0.19002046,0.6421304,0.61848426,0.45800334,0.556686,0.13767816,1.12226,0.6082914,0.4168981,-0.077295385,0.85911566,0.19921117,0.09609827,871.9414,840.5128,831.6484,859.85345,900.14655,0.19073486328125,-0.0760498046875,0.98577880859375,3.84307861328125,-4.41131591796875,0.64300537109375,1,1.0,1.0,1.0,1.0,100.00
2021-04-20 22:11:59.269,-0.157028349999,-0.14737763,0.00793831025,0.0036117200000,-0.001907267500,-0.069033908,-0.131988842,0.289792845,0.518430065,0.6491219100000,0.45870047,0.5814179500000,0.1319704500000,1.10959715,0.59535545,0.452609865,-0.1164624925,0.861949415,0.2336813,0.133948055,766.978025,811.0989,825.60439999999,,,,,,,,,,,,,,,/muse/elements/blink
2021-04-20 22:11:59.794,-0.17987852,-0.08628276,-0.0059647295,0.04770312,0.07165893,-0.030596076,-0.26079708,0.38956523,0.39472973,0.67975956,0.4593976,0.6061499,0.12626274,1.0969343,0.5824195,0.48832163,-0.1556296,0.86478317,0.26815143,0.17179784,662.01465,781.685,819.5604,688.20514,706.337,0.1929931640625,-0.07781982421875,0.9886474609375,5.076751708984375,-4.388885498046875,1.256103515625,1,1.0,1.0,1.0,1.0,100.00
2021-04-20 22:12:00.318,-0.19179004,0.167137,0.50767064,0.10362721,0.11083879,0.22903475,0.12025361,0.464657,0.20259646,0.6450218,0.4572666,0.5824767,0.12682174,1.0712351,0.5425191,0.48521256,-0.25319383,0.88887423,0.2941353,0.19206415,832.4542,820.7692,830.4396,840.9158,734.5421,0.185302734375,-0.06890869140625,0.98565673828125,4.493560791015625,-4.179534912109375,1.054229736328125,1,1.0,1.0,1.0,1.0,100.00
2021-04-20 22:12:00.352,-0.336503595,0.23477345,0.5590021000000,0.1029571099999,0.185040495,0.309395875,0.17793976,0.5663770699999,0.0256457300000,0.56608415,0.3928922999999,0.568478925,0.13201364,1.04247465,0.515995075,0.53120631,-0.328504354999,0.859661915,0.29115205,0.1946118299999,771.8132,819.7619,820.3663,,,,,,,,,,,,,,,/muse/elements/blink
2021-04-20 22:12:00.821,-0.48121715,0.3024099,0.61033356,0.10228701,0.2592422,0.389757,0.23562591,0.66809714,-0.151305,0.4871465,0.328518,0.55448115,0.13720554,1.0137142,0.48947105,0.57720006,-0.40381488,0.8304496,0.2881688,0.19715951,711.1722,818.7546,810.293,738.1685,571.75824,0.18280029296875,-0.06500244140625,0.984619140625,4.844970703125,-4.403839111328125,1.256103515625,1,1.0,1.0,1.0,1.0,100.00
2021-04-20 22:12:01.328,-0.48121715,0.21993981,0.63814753,0.10228701,0.2592422,0.30885702,0.30473566,0.66809714,-0.151305,0.37164232,0.35247445,0.55448115,0.13720554,1.0428474,0.56810045,0.57720006,-0.40381488,0.8063824,0.2959484,0.19715951,731.7216,755.89746,815.9341,774.0293,806.6667,0.1805419921875,-0.07135009765625,0.982666015625,5.86181640625,-3.521575927734375,3.050537109375,1,1.0,1.0,1.0,1.0,100.00
2021-04-20 22:12:01.727,0.1722534600000,0.1084243461000,0.4578222,0.581494705,0.48969887,0.1409940115,0.19184017,0.72124985,0.25851145,0.3014276250000,0.341750935,0.624582425,0.168504775,1.0465719500000,0.574535695,0.533730045,-0.291170165,0.7990567,0.28116987,0.063757135,792.76555,785.71428,815.9341,,,,,,,,,,,,,,,/muse/elements/blink
2021-04-20 22:12:01.838,0.82572407,-0.0030911178,0.27749687,1.0607024,0.72015554,-0.026868997,0.07894468,0.77440256,0.6683279,0.23121293,0.33102742,0.6946837,0.19980401,1.0502965,0.58097094,0.49026003,-0.17852545,0.791731,0.26639134,-0.06964524,853.8095,815.5311,815.9341,832.4542,883.6264,0.1612548828125,-0.05621337890625,0.9852294921875,7.424468994140625,-1.786956787109375,8.5833740234375,1,1.0,1.0,1.0,1.0,100.00
2021-04-20 22:12:02.358,0.7978738,-0.0030911178,0.28642145,1.1259996,0.6678176,-0.026868997,0.03344584,0.77536124,0.67961085,0.23121293,0.33102742,0.6989258,0.23384753,1.0502965,0.5716558,0.50832397,-0.17498802,0.791731,0.26902634,0.021618282,785.7143,800.2198,806.6667,780.4762,726.4835,0.0634765625,-0.01165771484375,0.992431640625,10.998382568359375,9.473114013671875,14.856414794921875,1,1.0,1.0,1.0,1.0,100.00
2021-04-20 22:12:02.885,0.65299565,-0.0030911178,0.27574235,1.0363994,0.40988398,-0.026868997,-0.2595401,0.70706636,0.6013417,0.23121293,0.18454084,0.70634717,0.32567915,1.0502965,0.54551476,0.5464151,-0.13629615,0.791731,0.41973364,0.20806403,790.14655,795.78754,811.0989,791.75824,718.4249,-0.01947021484375,0.05291748046875,0.99993896484375,4.9945068359375,-2.16827392578125,2.534637451171875,1,1.0,1.0,1.0,1.0,100.00
2021-04-20 22:12:03.017,0.4657661250000,-0.0030911178,0.323237875,0.8017549,0.317623505,-0.026868997,-0.075980340000,0.55048963,0.5857706,0.23121293,0.209140375,0.600170835,0.301958885,1.0502965,0.55728328,0.5899211,-0.128692645,0.791731,0.43743859,0.2534824650000,749.853475,801.025635,806.4652,,,,,,,,,,,,,,,/muse/elements/blink
2021-04-20 22:12:03.391,0.2785366,-0.0030911178,0.3707334,0.5671104,0.22536303,-0.026868997,0.10757942,0.3939129,0.5701995,0.23121293,0.23373991,0.4939945,0.27823862,1.0502965,0.5690518,0.6334271,-0.12108914,0.791731,0.45514354,0.2989009,709.5604,806.26373,801.8315,728.49817,649.92676,-0.01715087890625,0.04644775390625,1.00396728515625,4.5758056640625,-3.0804443359375,0.366363525390625,1,1.0,1.0,1.0,1.0,100.00
2021-04-20 22:12:03.920,0.59093565,-0.0030911178,0.3965968,0.7218352,0.4855568,-0.026868997,0.2513207,0.5001339,0.5122236,0.23121293,0.2499183,0.33818635,0.2777859,1.0502965,0.53054595,0.6770784,0.09212145,0.791731,0.4773518,0.26702717,790.9524,841.31866,766.77655,771.2088,672.49084,-0.0574951171875,0.0472412109375,0.99462890625,3.267364501953125,-7.85064697265625,-6.639404296875,1,1.0,1.0,1.0,1.0,100.00
2021-04-20 22:12:04.312,0.6600268499999,-0.0030911178,0.44135708,0.8480311650000,0.5427103,-0.026868997,0.299661165,0.57408972,0.513433215,0.23121293,0.24282174,0.315505445,0.30265887,1.0502965,0.501850425,0.678943085,0.1669206899999,0.791731,0.46841184,0.2488874199999,834.8718,839.10258,795.58607499999,,,,,,,,,,,,,,,/muse/elements/blink
2021-04-20 22:12:04.429,0.72911805,-0.0030911178,0.48611736,0.97422713,0.5998638,-0.026868997,0.34800163,0.64804554,0.51464283,0.23121293,0.23572518,0.29282454,0.32753184,1.0502965,0.4731549,0.68080777,0.24171993,0.791731,0.45947188,0.23074767,878.7912,836.8865,824.3956,855.42126,853.8095,0.01898193359375,0.01123046875,1.001220703125,0.979461669921875,-8.2843017578125,-11.544189453125,1,1.0,1.0,1.0,1.0,100.00
2021-04-20 22:12:04.935,0.85024154,-0.0030911178,0.45073414,1.0740403,0.6747053,-0.026868997,0.32887614,0.7568038,0.26974085,0.23121293,0.10854018,0.3090003,0.42530638,1.0502965,0.39430544,0.5832327,0.41783756,0.791731,0.45331588,0.16111284,884.0293,834.4689,837.28937,867.50916,823.1868,0.07147216796875,-0.0086669921875,0.998779296875,3.75335693359375,-7.065582275390625,-1.734619140625,1,1.0,1.0,1.0,1.0,100.00
2021-04-20 22:12:05.363,0.7515005699999,-0.0030911178,0.46079603,1.0531836,0.57290341,-0.026868997,0.3429962549999,0.76276612,0.226946345,0.23121293,0.047534351,0.3101655749999,0.44215536,1.0502965,0.49113677,0.535273165,0.44876571,0.791731,0.3197345550000,0.134636585,902.16115,804.85349999999,809.285705,,,,,,,,,,,,,,,/muse/elements/blink
2021-04-20 22:12:05.441,0.6527596,-0.0030911178,0.47085792,1.0323269,0.47110152,-0.026868997,0.35711637,0.76872844,0.18415184,0.23121293,-0.013471478,0.31133085,0.45900434,1.0502965,0.5879681,0.48731363,0.47969386,0.791731,0.18615323,0.10816033,920.293,775.2381,781.28204,948.9011,838.49817,0.0830078125,-0.00274658203125,1.00067138671875,4.852447509765625,-5.510406494140625,0.710296630859375,1,1.0,1.0,1.0,1.0,100.00
2021-04-20 22:12:05.729,0.6527596,-0.0030911178,0.4420534849999,1.02078125,0.47110152,-0.026868997,0.371420785,0.79452202,0.18415184,0.23121293,-0.0213096165,0.311216515,0.45900434,1.0502965,0.60421625,0.454597765,0.47969386,0.791731,0.179954815,0.07682519,893.09523,799.4139,801.22712,,,,,,,,,,,,,,,/muse/elements/blink
2021-04-20 22:12:05.961,0.6527596,-0.0030911178,0.41324905,1.0092356,0.47110152,-0.026868997,0.3857252,0.8203156,0.18415184,0.23121293,-0.029147755,0.31110218,0.45900434,1.0502965,0.6204644,0.4218819,0.47969386,0.791731,0.1737564,0.04549005,865.89746,823.5897,821.1722,828.8278,798.60803,0.1016845703125,-0.01434326171875,0.99884033203125,4.329071044921875,-4.957122802734375,0.73272705078125,1,1.0,1.0,1.0,1.0,100.00
2021-04-20 22:12:06.464,0.6527596,-0.0030911178,0.3603279,0.727539,0.47110152,-0.026868997,0.34547275,0.6727063,0.18415184,0.23121293,0.27716556,0.17262104,0.45900434,1.0502965,0.629855,0.43826026,0.47969386,0.791731,0.20839925,0.07028478,763.1502,803.0403,796.5934,770.40295,761.13556,0.10235595703125,-0.0157470703125,0.9927978515625,4.448699951171875,-4.0972900390625,0.59814453125,1,1.0,1.0,1.0,1.0,100.00
2021-04-20 22:12:06.762,0.6527596,0.0853252411,0.2129595879999,0.727539,0.47110152,0.0416141795,0.2469217699999,0.6727063,0.18415184,0.302913165,0.251038505,0.17262104,0.45900434,1.0443194999999,0.6022135,0.43826026,0.47969386,0.71811795,0.22212016,0.07028478,787.32601500000,792.96705,802.63736999999,,,,,,,,,,,,,,,/muse/elements/blink
2021-04-20 22:12:06.982,0.6527596,0.1737416,0.065591276,0.727539,0.47110152,0.110097356,0.14837079,0.6727063,0.18415184,0.3746134,0.22491145,0.17262104,0.45900434,1.0383425,0.574572,0.43826026,0.47969386,0.6445049,0.23584107,0.07028478,811.50183,782.8938,808.68134,828.4249,829.2308,0.0946044921875,-0.01385498046875,0.99658203125,4.486083984375,-3.267364501953125,0.418701171875,1,1.0,1.0,1.0,1.0,100.00
2021-04-20 22:12:07.497,-0.4869081,0.09838536,0.18824251,-0.11981246,0.16659923,0.054382242,0.052528147,0.4115338,0.60239345,0.69345707,0.22806196,0.5003482,0.38243297,0.9806975,0.5409248,0.53599244,-0.13584013,0.69536966,0.19000444,0.06619771,708.3516,809.4872,807.8755,736.9597,669.2674,0.0958251953125,-0.00543212890625,0.99957275390625,4.897308349609375,-4.0972900390625,1.2261962890625,1,1.0,1.0,1.0,1.0,100.00
2021-04-20 22:12:08.018,-0.30406198,0.079965316,0.27371848,-0.15813302,0.16816713,0.08569331,-0.022943405,0.38431326,0.6150428,0.70554584,0.28662485,0.51757604,0.3574661,1.0159086,0.5323532,0.4981553,-0.1668639,0.729079,0.20038635,0.051381484,765.16486,796.1905,814.7253,788.5348,709.15753,0.085205078125,-0.0142822265625,1.0059814453125,4.957122802734375,-4.7552490234375,1.577606201171875,1,1.0,1.0,1.0,1.0,100.00
2021-04-20 22:12:08.071,-0.136933306,0.077340726,0.27891125,-0.19319078,0.13054467,0.08175798,-0.0648334525,0.3399963099999,0.61393332,0.7053227200000,0.210366225,0.52721817,0.35367895,1.01900585,0.55081867,0.4933824850000,-0.203978715,0.75315385,0.23481785,0.02435542285,827.21613,807.47255,815.53115,,,,,,,,,,,,,,,/muse/elements/blink
2021-04-20 22:12:08.541,0.030195368,0.074716136,0.28410402,-0.22824854,0.09292221,0.07782265,-0.1067235,0.29567936,0.61282384,0.7050996,0.1341076,0.5368603,0.3498918,1.0221031,0.56928414,0.48860967,-0.24109353,0.7772287,0.26924935,-0.0026706383,889.2674,818.7546,816.337,853.4066,855.0183,0.08258056640625,-0.01275634765625,1.00177001953125,4.523468017578125,-4.882354736328125,1.487884521484375,1,1.0,1.0,1.0,1.0,100.00
2021-04-20 22:12:09.069,0.19779041,0.112162,0.3223314,-0.28726512,0.16373375,0.12466689,-0.03542418,0.18210757,0.5801013,0.3881675,0.21090524,0.35505623,0.294709,1.0780479,0.61889315,0.44986483,-0.18943474,0.7984836,0.2445998,-0.022588445,796.99634,826.8132,815.12823,780.4762,664.0293,0.09136962890625,-0.01824951171875,0.99932861328125,4.433746337890625,-4.5758056640625,0.88226318359375,1,1.0,1.0,1.0,1.0,100.00
2021-04-20 22:12:09.303,0.19453277,0.11152728,0.275628925,-0.22814686,0.151587105,0.066433396,-0.045354320000,0.1426540625,0.51689495,0.3319674900000,0.21899405,0.37725829,0.28752418,1.04557735,0.614001325,0.490164415,-0.170027890000,0.837821925,0.23942726,-0.0240642225,854.41392,819.56045,816.135565,,,,,,,,,,,,,,,/muse/elements/blink
2021-04-20 22:12:09.582,0.19127513,0.11089256,0.22892645,-0.1690286,0.13944046,0.008199902,-0.05528446,0.103200555,0.4536886,0.27576748,0.22708286,0.39946035,0.28033936,1.0131068,0.6091095,0.530464,-0.15062104,0.87716025,0.23425472,-0.02554,911.8315,812.3077,817.1429,875.56775,855.0183,0.08929443359375,-0.01837158203125,0.9971923828125,4.269256591796875,-4.62066650390625,0.58319091796875,1,1.0,1.0,1.0,1.0,100.00
2021-04-20 22:12:10.093,0.16028124,-0.026543526,0.105009764,0.21504226,0.26487303,-0.01086705,-0.09012151,0.21937677,0.39645982,0.1527951,0.22721358,0.48905936,0.3726955,0.97871256,0.58007455,0.5753613,-0.18238947,0.81475854,0.11058744,-0.034803506,846.55676,832.4542,819.5604,844.94507,907.8022,0.09197998046875,-0.01531982421875,0.99761962890625,4.553375244140625,-4.5458984375,1.09161376953125,1,1.0,1.0,1.0,1.0,100.00
2021-04-20 22:12:10.594,0.27312768,0.051956903,-0.113859564,0.29231104,0.28128332,0.025818529,-0.0847831,0.14902623,0.42555818,0.21460456,0.105424285,0.4958611,0.4464861,0.97032475,0.57250655,0.58442664,-0.17310193,0.82870793,0.20599297,-0.035466235,801.4286,832.8571,815.12823,787.72894,681.3553,0.087646484375,-0.01397705078125,1.00189208984375,4.77020263671875,-6.228179931640625,0.2392578125,1,1.0,1.0,1.0,1.0,100.00
2021-04-20 22:12:10.652,0.409065605,0.0833069565,-0.112682507,0.31046332,0.37198026,0.1130647895,-0.003077049999,0.2106064349999,0.61349824,0.302719995,-0.001516892499,0.7089259,0.46334236,0.988395525,0.58526075,0.5810757200000,-0.18530205,0.75452864,0.1744595099999,-0.035752421,851.7949,817.94869999999,811.904785,,,,,,,,,,,,,,,/muse/elements/blink
2021-04-20 22:12:11.109,0.54500353,0.11465701,-0.11150545,0.3286156,0.4626772,0.20031105,0.078629,0.27218664,0.8014383,0.39083543,-0.10845807,0.9219907,0.48019862,1.0064663,0.59801495,0.5777248,-0.19750217,0.68034935,0.14292605,-0.036038607,902.1612,803.0403,808.68134,866.7033,917.47253,0.12188720703125,-0.020263671875,0.99322509765625,3.0804443359375,-9.323577880859375,-0.471038818359375,1,1.0,1.0,1.0,1.0,100.00
2021-04-20 22:12:11.635,0.7346529,0.1615847,-0.058104377,0.24601781,0.59289175,0.20838155,0.14295155,0.597779,0.8722334,0.41390356,0.26154664,1.1122503,0.4311259,1.0268041,0.55328697,0.6085527,-0.15297729,0.7208232,0.15890506,-0.0027974371,858.24176,827.2161,825.2015,845.34796,741.39197,0.16949462890625,-0.04150390625,0.990478515625,4.134674072265625,-6.527252197265625,0.441131591796875,1,1.0,1.0,1.0,1.0,100.00
2021-04-20 22:12:11.804,0.7070863000000,0.1341197,-0.033585768,0.2280976900000,0.563932675,0.2015212049999,0.1036116,0.59625913,0.87361378,0.42172513,0.2795825600000,1.1122503,0.378250965,1.0371211,0.530266635,0.5949766999999,-0.182834394999,0.68721147,0.14344167,-0.005659673049,802.63736,816.13551499999,819.1575,,,,,,,,,,,,,,,/muse/elements/blink
2021-04-20 22:12:12.139,0.6795197,0.1066547,-0.009067159,0.21017757,0.5349736,0.19466086,0.06427165,0.59473926,0.87499416,0.4295467,0.29761848,1.1122503,0.32537603,1.0474381,0.5072463,0.5814007,-0.2126915,0.65359974,0.12797828,-0.008521909,747.03296,805.05493,813.1135,764.35895,675.31134,0.17083740234375,-0.0340576171875,0.99176025390625,4.643096923828125,-3.6785888671875,1.27105712890625,1,1.0,1.0,1.0,1.0,100.00
2021-04-20 22:12:12.660,0.4982638,-0.032670043,-0.13354017,0.2848357,0.431441,-0.028717073,-0.08156756,0.53616166,0.7169575,0.43092602,0.3307493,1.0900209,0.25140718,1.0399094,0.45277524,0.4659188,-0.19382,0.6533618,0.13261166,-0.058612034,723.663,750.2564,784.90845,756.7033,909.41394,0.16546630859375,-0.03167724609375,0.9918212890625,4.329071044921875,-4.224395751953125,0.456085205078125,1,1.0,1.0,1.0,1.0,100.00
2021-04-20 22:12:13.137,0.224886474,-0.1174598465,-0.065948371250,0.2472172550000,0.33174111,-0.147928226499,-0.126450975,0.276044166,0.6556100499999,0.39416675,0.279612375,0.8352372650000,0.23375576,1.0274854,0.49011609,0.3744828500000,-0.188265434999,0.6077767350000,0.147303295,-0.059149353,767.58241500000,780.879115,795.78757500000,,,,,,,,,,,,,,,/muse/elements/blink
2021-04-20 22:12:13.165,-0.048490852,-0.20224965,0.0016434275,0.20959881,0.23204122,-0.26713938,-0.17133439,0.015926672,0.5942626,0.35740748,0.22847545,0.58045363,0.21610434,1.0150614,0.52745694,0.2830469,-0.18271087,0.56219167,0.16199493,-0.059686672,811.50183,811.50183,806.6667,807.47253,736.1539,0.1822509765625,-0.0341796875,0.9879150390625,3.72344970703125,-4.725341796875,1.128997802734375,1,1.0,1.0,1.0,1.0,100.00
2021-04-20 22:12:13.691,-0.20781398,-0.35069105,0.13523273,0.093159676,0.1792686,-0.5526057,-0.1459476,0.12317328,0.58445406,0.42349184,0.36742163,0.5330755,0.16180517,1.0130855,0.5415649,0.2168232,-0.17764091,0.69051296,0.25607127,-0.055999998,899.34064,806.6667,803.44324,871.53845,882.4176,0.17218017578125,-0.04052734375,0.98834228515625,4.239349365234375,-4.179534912109375,1.65985107421875,1,1.0,1.0,1.0,1.0,100.00
2021-04-20 22:12:14.203,-0.25581604,-0.34526592,0.2209047,-0.013548207,-0.021573896,-0.29177517,-0.17616148,0.06825205,0.47041756,0.51425487,0.38666493,0.37409827,0.16456796,1.0313574,0.57289666,0.28495723,-0.29711738,0.85935783,0.3556652,-0.0095171565,835.2747,819.15753,811.9048,833.663,818.3516,0.17437744140625,-0.03839111328125,0.9876708984375,4.673004150390625,-4.987030029296875,-0.04486083984375,1,1.0,1.0,1.0,1.0,100.00
2021-04-20 22:12:14.370,-0.25437097,-0.364673285,0.156167275,-0.029200286,-0.049365877999,-0.300471185,-0.140616685000,0.10851785,0.48920211,0.575755585,0.417452025,0.4419226200000,0.17327933,1.0198339,0.54247098,0.32265219,-0.32249054,0.85195875,0.33871564,-0.03959363825,780.47620000000,823.992665,816.94139999999,,,,,,,,,,,,,,,/muse/elements/blink
2021-04-20 22:12:14.729,-0.2529259,-0.38408065,0.09142985,-0.044852365,-0.07715786,-0.3091672,-0.10507189,0.14878365,0.50798666,0.6372563,0.44823912,0.50974697,0.1819907,1.0083104,0.5120453,0.36034715,-0.3478637,0.84455967,0.32176608,-0.06967012,725.6777,828.8278,821.978,750.2564,609.2308,0.17578125,-0.04156494140625,0.9840087890625,4.59075927734375,-5.510406494140625,1.069183349609375,1,1.0,1.0,1.0,1.0,100.00
2021-04-20 22:12:15.235,-0.085642666,-0.26126087,-0.082205035,-0.013923871,0.013258571,-0.116515495,0.092205286,0.14496508,0.5347408,0.72128314,0.45318636,0.5438831,0.2965982,0.9994623,0.49802902,0.41353318,-0.3283226,0.7696416,0.23870222,-0.050767623,761.53845,789.7436,792.1612,775.64105,722.0513,0.18060302734375,-0.03973388671875,0.9814453125,4.23187255859375,-5.6524658203125,1.21124267578125,1,1.0,1.0,1.0,1.0,100.00
2021-04-20 22:12:15.699,-0.060884078000,-0.276370095,0.0652428375000,-0.1126611255,0.0799047105,-0.1411846975,0.207313093,0.2038865249999,0.48451647,0.69497887,0.3609622700000,0.5345272,0.3198181249999,0.9795192500000,0.45880981,0.4195492899999,-0.31112065,0.70262147,0.168139215,-0.0756372665,811.09890500000,803.0403,804.04765,,,,,,,,,,,,,,,/muse/elements/blink
2021-04-20 22:12:15.765,-0.03612549,-0.29147932,0.21269071,-0.21139838,0.14655085,-0.1658539,0.3224209,0.26280797,0.43429214,0.6686746,0.26873818,0.5251713,0.34303805,0.9595762,0.4195906,0.4255654,-0.2939187,0.63560134,0.09757621,-0.10050691,860.65936,816.337,815.9341,837.28937,853.00366,0.18023681640625,-0.0400390625,0.988037109375,4.568328857421875,-4.837493896484375,1.413116455078125,1,1.0,1.0,1.0,1.0,100.00
2021-04-20 22:12:16.289,0.08768387,-0.18940443,0.2761554,-0.31339437,0.13158017,-0.0186841,0.28649092,0.35188556,0.42482066,0.64128375,0.24976468,0.51311946,0.4123185,0.9692036,0.38984567,0.3600892,-0.21872036,0.59979254,0.064486094,-0.06770742,890.87915,847.3626,835.6777,863.8828,745.0183,0.187744140625,-0.0299072265625,0.98992919921875,4.3365478515625,-5.0543212890625,0.73272705078125,1,1.0,1.0,1.0,1.0,100.00
2021-04-20 22:12:16.796,0.15213595,-0.066281654,0.32470164,0.022693632,0.041750826,0.1748724,0.25819558,0.4563181,0.15311038,0.3020001,0.10070869,0.32029063,0.36582452,0.9380001,0.33979884,0.38445693,-0.299384,0.6073671,0.048105262,0.013271664,892.49084,811.0989,821.5751,855.82416,868.315,0.18267822265625,-0.0416259765625,0.98492431640625,3.686065673828125,-4.68048095703125,-2.19818115234375,1,1.0,1.0,1.0,1.0,100.00
2021-04-20 22:12:17.101,0.1159098279999,-0.078861799,0.213462343,0.075088611,0.053906385,0.12214508,0.143664816,0.36824105,0.20181651,0.3382200250000,0.135656595,0.3745522500000,0.39185396,0.95042903,0.3939997699999,0.419715315,-0.252901614999,0.6147483,0.083759099,0.012262862,875.76922,831.64834999999,828.02199999999,,,,,,,,,,,,,,,/muse/elements/blink
2021-04-20 22:12:17.316,0.079683706,-0.091441944,0.102223046,0.12748359,0.066061944,0.06941776,0.029134052,0.280164,0.25052264,0.37443995,0.1706045,0.42881387,0.4178834,0.96285796,0.4482007,0.4549737,-0.20641923,0.6221295,0.119412936,0.01125406,859.0476,852.1978,834.4689,838.49817,793.36993,0.18756103515625,-0.037109375,0.98760986328125,3.87298583984375,-5.921630859375,0.179443359375,1,1.0,1.0,1.0,1.0,100.00
2021-04-20 22:12:17.827,-0.023396159,-0.18987212,0.06969095,0.14633952,0.032481913,0.010403686,0.059450157,0.21394354,0.23289968,0.37443995,0.26595175,0.5800328,0.3670137,0.94467163,0.54583067,0.46642175,-0.2210665,0.7071651,0.25461423,-0.015424991,739.7802,792.1612,803.8461,761.53845,698.2784,0.20428466796875,-0.05560302734375,0.98345947265625,5.630035400390625,-5.226287841796875,3.4393310546875,1,1.0,1.0,1.0,1.0,100.00
2021-04-20 22:12:18.345,0.006560512,-0.30281115,0.08223275,0.22043206,0.035591193,-0.24648884,0.026819719,0.21649507,0.2185346,0.42047158,0.27904034,0.4615199,0.30596536,0.93386996,0.5647562,0.4383383,-0.18602161,0.7221249,0.2596342,0.023695266,805.4579,813.91943,829.2308,772.4176,841.7216,0.22418212890625,-0.04522705078125,0.98638916015625,6.422576904296875,-7.110443115234375,4.32159423828125,1,1.0,1.0,1.0,1.0,100.00
2021-04-20 22:12:18.348,0.0014051018,-0.36752494,0.254219875,0.21829079,0.0144420905000,-0.347420155,0.0665249195,0.275046285,0.1082971468,0.390118825,0.33072728,0.4615199,0.2335547300000,0.919882655,0.5732483,0.4032022,-0.206029085,0.73348585,0.25583235,0.021768298,814.92675,821.172165,822.179515,,,,,,,,,,,,,,,/muse/elements/blink
2021-04-20 22:12:18.849,-0.0037503084,-0.43223873,0.426207,0.21614952,-0.006707012,-0.44835147,0.10623012,0.3335975,-0.0019403064,0.35976607,0.38241422,0.4615199,0.1611441,0.90589535,0.5817404,0.3680661,-0.22603656,0.7448468,0.2520305,0.01984133,824.3956,828.4249,815.12823,810.293,714.7985,0.18414306640625,-0.04705810546875,0.9796142578125,4.747772216796875,-4.6954345703125,1.83929443359375,1,1.0,1.0,1.0,1.0,100.00
2021-04-20 22:12:19.356,0.2409982,-0.4139526,0.6310248,0.29912525,0.041238997,-0.7910954,0.24535388,0.50969976,-0.073413126,0.2894917,0.38577953,0.2062336,0.106696256,0.9303985,0.5625923,0.21978746,-0.18288623,0.6515959,0.22219218,0.13483869,911.8315,811.9048,818.3516,880.80585,946.08057,0.181884765625,-0.05572509765625,0.98052978515625,4.35150146484375,-4.65057373046875,4.62066650390625,1,1.0,1.0,1.0,1.0,100.00
2021-04-20 22:12:19.548,0.2409982,-0.385873600000,0.612614075,0.29912525,0.041238997,-0.7910817,0.19828872,0.50969976,-0.073413126,0.28863459,0.399286265,0.2062336,0.106696256,0.9407250149999,0.5627045500000,0.21978746,-0.18288623,0.6406887800000,0.23766734,0.13483869,812.30770000000,801.83152,810.4945,,,,,,,,,,,,,,,/muse/elements/blink
2021-04-20 22:12:19.877,0.2409982,-0.3577946,0.59420335,0.29912525,0.041238997,-0.791068,0.15122356,0.50969976,-0.073413126,0.28777748,0.412793,0.2062336,0.106696256,0.95105153,0.5628168,0.21978746,-0.18288623,0.62978166,0.2531425,0.13483869,712.7839,791.75824,802.6374,734.94507,669.2674,0.2020263671875,-0.05615234375,0.9842529296875,4.942169189453125,-4.94964599609375,-0.142059326171875,1,1.0,1.0,1.0,1.0,100.00
2021-04-20 22:12:20.379,0.3846833,-0.4019164,0.344015,0.3290135,0.13193783,-0.09123054,-0.005453305,-0.10114543,0.31573832,0.47001183,0.3599704,0.10809241,0.33429292,0.94098854,0.5599672,0.45464998,-0.070486285,0.7393144,0.25468966,0.14554724,799.81683,807.8755,816.337,784.10254,693.44324,0.2073974609375,-0.0618896484375,0.981201171875,3.701019287109375,-4.987030029296875,-0.291595458984375,1,1.0,1.0,1.0,1.0,100.00
2021-04-20 22:12:20.885,0.31782196,-0.396304285000,0.11464335,0.2930153749999,0.12299547,-0.1325144,-0.2034855425,-0.114944584999,0.40275924,0.473085715,0.3561340600000,0.2051157250000,0.3257955,0.97385902,0.55557415,0.455035655,-0.062920589,0.7076493,0.23446506,0.1292883699999,857.23443500000,802.83885,813.71795,,,,,,,,,,,,,,,/muse/elements/blink
2021-04-20 22:12:20.886,0.25096062,-0.39069217,-0.1147283,0.25701725,0.11405311,-0.17379826,-0.40151778,-0.12874374,0.48978016,0.4761596,0.35229772,0.30213904,0.31729808,1.0067295,0.5511811,0.45542133,-0.055354893,0.6759842,0.21424046,0.1130295,914.65204,797.8022,811.0989,885.2381,995.2381,0.1873779296875,-0.06005859375,0.98089599609375,4.6356201171875,-4.14215087890625,-0.7177734375,1,1.0,1.0,1.0,1.0,100.00
2021-04-20 22:12:21.396,0.1276957,-0.35233673,-0.038615882,0.008256617,0.08552379,-0.29183593,-0.32424366,-0.14087215,0.58481693,0.17937264,0.046811026,0.3522724,0.26770675,1.032542,0.55500835,0.38975796,-0.07474207,0.6030772,0.20306052,0.073963955,846.1539,833.663,830.0366,841.7216,753.47986,0.20013427734375,-0.056396484375,0.9827880859375,4.852447509765625,-3.835601806640625,2.818756103515625,1,1.0,1.0,1.0,1.0,100.00
2021-04-20 22:12:21.908,-0.034967348,-0.31021422,-0.010774754,-0.0022543443,0.15196174,-0.37581235,-0.1542199,0.025278514,0.5510633,0.1644221,0.10277146,0.47097456,0.23167476,1.0734484,0.5379497,0.4314414,-0.06500746,0.5751672,0.21153481,0.03299036,793.36993,830.84247,819.9634,780.87915,761.53845,0.204833984375,-0.06756591796875,0.97723388671875,4.14215087890625,-4.47113037109375,-0.785064697265625,1,1.0,1.0,1.0,1.0,100.00
2021-04-20 22:12:22.091,0.0625238759999,-0.236091135,0.0034769514999,0.10182784785,0.15862756,-0.363598940000,-0.117522211999,0.1402310769999,0.53676078,0.139646115,0.12047991,0.4789373999999,0.228431945,1.0521147499999,0.553560775,0.4287417999999,-0.106045645,0.62466955,0.20566012,0.0314899575,761.73989499999,808.076905,804.45057,,,,,,,,,,,,,,,/muse/elements/blink
2021-04-20 22:12:22.423,0.1600151,-0.16196805,0.017728657,0.20591004,0.16529338,-0.35138553,-0.080824524,0.25518364,0.52245826,0.11487013,0.13818836,0.48690024,0.22518913,1.0307811,0.56917185,0.4260422,-0.14708383,0.6741719,0.19978543,0.029989555,730.10986,785.31134,788.93774,749.85345,724.0659,0.2020263671875,-0.05914306640625,0.984375,5.046844482421875,-4.42626953125,2.953338623046875,1,1.0,1.0,1.0,1.0,100.00
2021-04-20 22:12:22.932,0.19060755,-0.18007408,-0.071757846,0.2049185,0.20772414,-0.23430875,0.017878423,0.42135948,0.5288144,0.24936607,0.23023753,0.44584835,0.23644172,0.9863352,0.53557837,0.41952422,-0.13273485,0.7546762,0.25029394,0.013578003,856.63007,831.6484,821.978,842.52747,738.5714,0.1903076171875,-0.06744384765625,0.97833251953125,6.003875732421875,-8.336639404296875,8.785247802734375,1,1.0,1.0,1.0,1.0,100.00
2021-04-20 22:12:23.401,0.1381428,-0.185364655,-0.106417108000,0.13571726,0.15531849,-0.208870525,0.0103008556500,0.42365065,0.44592305,0.4965506,0.277091415,0.459108775,0.23143084,0.983001135,0.524458855,0.45347342,-0.148719025,0.7648649700000,0.27477737,0.014221839,877.17950500000,825.80590000000,820.1648,,,,,,,,,,,,,,,/muse/elements/blink
2021-04-20 22:12:23.441,0.08567805,-0.19065523,-0.14107637,0.06651602,0.10291284,-0.1834323,0.0027232883,0.42594182,0.3630317,0.74373513,0.3239453,0.4723692,0.22641996,0.97966707,0.51333934,0.48742262,-0.1647032,0.77505374,0.2992608,0.014865675,897.72894,819.9634,818.3516,869.12085,855.42126,0.16357421875,-0.0496826171875,0.98931884765625,4.702911376953125,-2.85614013671875,-0.10467529296875,1,1.0,1.0,1.0,1.0,100.00
2021-04-20 22:12:23.957,-0.15094507,-0.247221,-0.07125503,-0.1957707,0.14232264,-0.20668447,0.0022246982,0.31202915,0.34442475,0.74373513,0.3260088,0.54914325,0.2622067,0.95477664,0.43606418,0.5538539,-0.07867623,0.7065615,0.2804451,1.2953542E-4,714.7985,788.93774,806.26373,730.9158,681.75824,0.17364501953125,-0.05670166015625,0.990478515625,5.450592041015625,-4.613189697265625,2.0037841796875,1,1.0,1.0,1.0,1.0,100.00
2021-04-20 22:12:24.460,-0.17383604,-0.19682951,0.011490144,-0.1302552,0.25197026,-0.19378768,-0.012658375,0.08068512,0.6310187,0.7743038,0.4538181,0.5560503,0.31667528,0.95278674,0.45237687,0.5616978,-0.13356884,0.64040375,0.20636334,-0.0024868562,712.7839,809.89014,811.0989,736.1539,620.9158,0.17718505859375,-0.05401611328125,0.985595703125,5.3533935546875,-5.2337646484375,1.62994384765625,1,1.0,1.0,1.0,1.0,100.00
2021-04-20 22:12:24.699,-0.116282984,-0.179370120000,0.050077622,-0.073668895,0.2676306950000,-0.166296705,0.0045834935000,-0.03204516,0.64424187,0.6841918,0.4104393349999,0.5402954799999,0.363824625,0.93559302,0.48171286,0.513068285,-0.15456056,0.64423114,0.1792530749999,-0.004133019349,814.32235,818.15022,815.128215,,,,,,,,,,,,,,,/muse/elements/blink
2021-04-20 22:12:24.966,-0.058729928,-0.16191073,0.0886651,-0.01708259,0.28329113,-0.13880573,0.021825362,-0.14477544,0.65746504,0.5940798,0.36706057,0.52454066,0.41097397,0.9183993,0.51104885,0.46443877,-0.17555228,0.64805853,0.15214281,-0.0057791825,915.8608,826.4103,819.15753,883.6264,854.21246,0.19879150390625,-0.055908203125,0.984130859375,4.71038818359375,-4.673004150390625,0.657958984375,1,1.0,1.0,1.0,1.0,100.00
2021-04-20 22:12:25.487,0.015605128,-0.25659114,0.22189634,-0.063339375,0.28120852,-0.051356222,0.042071056,0.007571489,0.69473565,0.5966719,0.36537454,0.5025489,0.41802332,0.9092813,0.56436694,0.35626885,-0.28193074,0.71151066,0.24305277,-0.0023082492,821.978,808.68134,814.3223,822.7839,789.34064,0.18701171875,-0.059326171875,0.98016357421875,4.53094482421875,-5.15899658203125,0.665435791015625,1,1.0,1.0,1.0,1.0,100.00
2021-04-20 22:12:25.848,0.0395546065,-0.255803255,0.30108408,-0.0527511025,0.21890545,-0.075921271,0.0371076655,0.028667778,0.599124525,0.61926792,0.3181365000000,0.48109263,0.415167825,0.91168655,0.57114687,0.33693695,-0.2855663,0.7270356149999,0.266898375,0.0148911704,776.2454,804.45057,809.89010000000,,,,,,,,,,,,,,,/muse/elements/blink
2021-04-20 22:12:26.007,0.063504085,-0.25501537,0.38027182,-0.04216283,0.15660238,-0.10048632,0.032144275,0.049764067,0.5035134,0.64186394,0.27089846,0.45963636,0.41231233,0.9140918,0.5779268,0.31760505,-0.28920186,0.74256057,0.29074398,0.03209059,730.5128,800.2198,805.4579,768.7912,646.7033,0.19769287109375,-0.057861328125,0.98236083984375,4.5458984375,-4.658050537109375,-0.13458251953125,1,1.0,1.0,1.0,1.0,100.00
2021-04-20 22:12:26.514,0.06964334,-0.11652345,0.72543174,0.005838516,0.18545924,-0.07817721,0.092084385,0.18642563,0.27040803,0.63587284,0.42061976,0.22425686,0.3747693,0.9675038,0.57937145,0.30975887,-0.25261793,0.7188343,0.33356798,0.0481106,776.04395,804.65204,812.71063,793.7729,708.7546,0.2132568359375,-0.05584716796875,0.97216796875,4.5159912109375,-5.2337646484375,1.233673095703125,1,1.0,1.0,1.0,1.0,100.00
2021-04-20 22:12:27.031,0.011349868,-0.039976403,0.67533565,0.0218514,0.16229732,-0.056407854,0.05669103,0.17494388,0.24619927,0.4655752,0.46139184,0.21028233,0.3724385,0.98727816,0.63698125,0.27543435,-0.2574441,0.65176404,0.2306086,0.043683328,841.31866,772.01465,792.96704,850.18317,967.8388,0.21527099609375,-0.04766845703125,0.98529052734375,4.1571044921875,-4.015045166015625,1.1962890625,1,1.0,1.0,1.0,1.0,100.00
2021-04-20 22:12:27.297,-0.0067893545,-0.0537348985,0.627978895,-0.023517925,0.189066455,-0.0359816565,0.01001163,0.13793369,0.163166682,0.41775735,0.466901305,0.208825075,0.27842852,0.98733541,0.63413796,0.29874261,-0.184415875,0.6868438699999,0.22386507,0.094324114,869.72528,806.868125,813.11357,,,,,,,,,,,,,,,/muse/elements/blink
2021-04-20 22:12:27.559,-0.024928577,-0.067493394,0.58062214,-0.06888725,0.21583559,-0.015555459,-0.03666777,0.1009235,0.080134094,0.3699395,0.47241077,0.20736782,0.18441854,0.98739266,0.63129467,0.32205087,-0.11138765,0.7219237,0.21712154,0.1449649,898.1319,841.7216,833.2601,878.3883,802.6374,0.23211669921875,-0.0701904296875,0.97406005859375,4.837493896484375,-5.78704833984375,-1.7047119140625,1,1.0,1.0,1.0,1.0,100.00
2021-04-20 22:12:28.069,0.14979751,-0.14064081,-0.26120836,0.1235488,0.11870714,-0.100032985,-0.2161916,0.026730044,0.14202815,0.45620164,0.5155844,0.33370066,0.21821178,0.9768254,0.61059105,0.35487142,-0.083140865,0.78184515,0.15348631,0.07960182,780.07324,803.8461,805.8608,797.3993,691.8315,0.22589111328125,-0.05987548828125,0.9779052734375,3.252410888671875,-4.6954345703125,-0.5682373046875,1,1.0,1.0,1.0,1.0,100.00
2021-04-20 22:12:28.512,0.097363875,-0.148993164999,-0.333120005,0.108292915,0.12614646,-0.1493583975,-0.26468306,0.0134199945650,0.2587430599999,0.341644495,0.43005695,0.33370066,0.2474472999999,1.0043906,0.55518904,0.3671019199999,-0.0972599825,0.79228374,0.1875744300000,0.06711979,742.39927,810.4945,806.062265,,,,,,,,,,,,,,,/muse/elements/blink
2021-04-20 22:12:28.577,0.04493024,-0.15734552,-0.40503165,0.09303703,0.13358578,-0.19868381,-0.31317452,1.0994513E-4,0.37545797,0.22708735,0.3445295,0.33370066,0.27668282,1.0319558,0.49978703,0.37933242,-0.1113791,0.80272233,0.22166255,0.05463776,704.7253,817.1429,806.26373,729.304,690.6227,0.21246337890625,-0.0616455078125,0.9810791015625,4.687957763671875,-3.409423828125,0.530853271484375,1,1.0,1.0,1.0,1.0,100.00
2021-04-20 22:12:29.087,0.06303649,-0.11181773,-0.33886394,0.23114368,0.11337793,-0.32572025,-0.15895678,-0.050135974,0.5668882,0.21056832,0.33525032,0.3850816,0.3774266,1.0489558,0.52501756,0.5116251,-0.12060595,0.69747525,0.16371757,0.028261157,772.8205,806.26373,812.3077,764.7619,718.022,0.2047119140625,-0.0655517578125,0.973876953125,5.136566162109375,-5.196380615234375,2.908477783203125,1,1.0,1.0,1.0,1.0,100.00
2021-04-20 22:12:29.603,-0.15197979,-0.068485126,-0.16337176,0.11354071,0.07306201,-0.18008134,0.02706029,-0.14147624,0.5280497,0.1319406,0.055923916,0.38581714,0.41058648,1.0587602,0.5009909,0.5246504,-0.1398268,0.5917974,0.04026909,0.008587726,893.69965,818.7546,823.5897,865.4945,802.6374,0.226806640625,-0.06402587890625,0.97900390625,4.119720458984375,-3.9776611328125,1.016845703125,1,1.0,1.0,1.0,1.0,100.00
2021-04-20 22:12:29.822,-0.122528735,-0.033725775549,-0.110560499,0.1211625500000,-0.005163207500,-0.194812255,0.0502778150000,-0.130166305,0.5193272,0.1613165,0.0560483029999,0.45890237,0.40312174,1.0554551,0.529472725,0.5460039,-0.041115047,0.56574663,-0.00978047,0.065707628,898.53478999999,816.13555,825.80585,,,,,,,,,,,,,,,/muse/elements/blink
2021-04-20 22:12:30.117,-0.09307768,0.0010335749,-0.057749238,0.12878439,-0.083388425,-0.20954317,0.07349534,-0.11885637,0.5106047,0.1906924,0.05617269,0.5319876,0.395657,1.05215,0.55795455,0.5673574,0.057596706,0.53969586,-0.05983003,0.12282753,903.36993,813.5165,828.022,884.83514,810.293,0.22021484375,-0.064453125,0.9774169921875,6.736602783203125,-3.760833740234375,2.056121826171875,1,1.0,1.0,1.0,1.0,100.00
2021-04-20 22:12:30.634,-0.068556935,0.027968274,-0.0128145395,0.09084198,-0.21471578,-0.102414906,0.0478937,-0.03146496,0.22658834,0.22359122,0.07236306,0.5304733,0.3531584,1.0228586,0.5564122,0.45847064,0.16393359,0.5633959,-0.0062661837,0.22824687,784.90845,803.44324,802.23444,796.5934,771.2088,0.1944580078125,-0.038330078125,0.98577880859375,4.972076416015625,-4.104766845703125,3.54400634765625,1,1.0,1.0,1.0,1.0,100.00
2021-04-20 22:12:30.948,0.1706679475,-0.0234885955,0.07141969025,0.300866115,-0.035978145,-0.120038973,0.042377731,0.140789885,0.246170595,0.42287446,0.211274195,0.5320248350000,0.36586059,1.0128658,0.580629725,0.45960162,0.1572650649999,0.61736235,0.09579745815,0.22593716,755.091575,812.10621999999,805.86082,,,,,,,,,,,,,,,/muse/elements/blink
2021-04-20 22:12:31.146,0.40989283,-0.074945465,0.15565392,0.51089025,0.14275949,-0.13766304,0.036861762,0.31304473,0.26575285,0.6221577,0.35018533,0.53357637,0.37856278,1.002873,0.60484725,0.4607326,0.15059654,0.6713288,0.1978611,0.22362745,725.2747,820.7692,809.4872,745.82416,643.0769,0.19561767578125,-0.05126953125,0.98065185546875,4.38140869140625,-2.213134765625,0.216827392578125,1,1.0,1.0,1.0,1.0,100.00
2021-04-20 22:12:31.655,0.7909388,-0.1707268,0.41033897,0.7139626,0.5634293,-0.034565363,0.19215964,0.54798704,1.0306867,0.64089054,0.6593756,0.92614657,0.4375771,0.9529614,0.563108,0.46946985,0.0015604841,0.7398196,0.24087578,0.10217693,749.85345,788.93774,798.20514,771.6117,742.1978,0.1785888671875,-0.02532958984375,0.976806640625,12.09747314453125,-3.297271728515625,5.600128173828125,1,1.0,1.0,1.0,1.0,100.00
2021-04-20 22:12:32.166,1.2806444,-0.36898568,0.83625543,0.97446,0.9379144,-0.043424092,0.34861526,0.82892865,1.0737325,0.63730216,0.733726,0.9411721,0.5873243,0.97448635,0.5715737,0.57320654,-0.16148831,0.8097862,0.20947985,-0.08802674,848.1685,801.02563,810.696,837.6923,855.42126,0.22955322265625,0.04925537109375,0.98516845703125,9.45068359375,-7.245025634765625,8.89739990234375,1,1.0,1.0,1.0,1.0,100.00
2021-04-20 22:12:32.246,1.2827719499999,-0.33502959,0.859627365,0.9643819499999,0.923156215,-0.037819741000,0.36314954,0.8184030950000,1.1048999,0.63730216,0.733726,0.963822235,0.67732435,0.9817000899999,0.577488225,0.60293182,-0.053338457,0.7850667250000,0.136673933,-0.082188125,864.285725,812.307665,822.783885,,,,,,,,,,,,,,,/muse/elements/blink
2021-04-20 22:12:32.691,1.2848995,-0.3010735,0.8829993,0.9543039,0.90839803,-0.03221539,0.37768382,0.80787754,1.1360673,0.63730216,0.733726,0.98647237,0.7673244,0.98891383,0.58340275,0.6326571,0.054811396,0.76034725,0.063868016,-0.07634951,880.40295,823.5897,834.87177,871.53845,842.9304,0.1829833984375,0.09454345703125,0.981201171875,6.168365478515625,0.40374755859375,4.553375244140625,1,1.0,1.0,1.0,1.0,100.00
2021-04-20 22:12:33.214,1.2407731,-0.3010735,0.9420774,0.95236224,0.8255866,-0.03221539,0.5074928,0.7762131,1.1345288,0.63730216,0.80369955,0.92418385,0.8374519,0.98891383,0.5574706,0.6278307,0.12181621,0.76034725,0.10683426,0.030712634,781.28204,791.75824,800.2198,793.7729,739.7802,0.16021728515625,0.03643798828125,0.9835205078125,2.691650390625,-2.594451904296875,1.9439697265625,1,1.0,1.0,1.0,1.0,100.00
2021-04-20 22:12:33.464,1.034152665,-0.3010735,0.9000832999999,0.90881642,0.6694422499999,-0.03221539,0.52445052,0.6874285,1.1089613,0.63730216,0.77442476,0.927282325,0.8594512750000,0.98891383,0.55380565,0.5858087,0.184297275,0.76034725,0.13019222,0.0633082869999,743.40657000000,798.60807,801.63005,,,,,,,,,,,,,,,/muse/elements/blink
2021-04-20 22:12:33.740,0.82753223,-0.3010735,0.8580892,0.8652706,0.5132979,-0.03221539,0.54140824,0.5986439,1.0833938,0.63730216,0.74514997,0.9303808,0.88145065,0.98891383,0.5501407,0.5437867,0.24677834,0.76034725,0.15355018,0.09590394,705.5311,805.4579,803.0403,717.2161,638.6447,0.07080078125,0.00482177734375,0.9969482421875,2.19818115234375,0.814971923828125,0.082244873046875,1,1.0,1.0,1.0,1.0,100.00
2021-04-20 22:12:34.243,0.87215066,-0.3010735,0.9145402,0.9171573,0.71818584,-0.03221539,0.5641188,0.746602,1.2298467,0.63730216,0.7110856,0.84821415,0.7439417,0.98891383,0.53785175,0.47129372,0.13047498,0.76034725,0.1881766,0.124286845,770.80585,805.05493,804.2491,773.6264,687.8022,-0.00250244140625,0.0106201171875,0.9920654296875,7.2674560546875,3.865509033203125,7.94036865234375,1,1.0,1.0,1.0,1.0,100.00
2021-04-20 22:12:34.781,0.7944987,-0.31654218,0.7757377,0.7581411,0.7561145,-0.07158363,0.36653307,0.689305,1.1987817,0.3038792,0.5969733,0.7123413,0.6038024,0.9823879,0.5606061,0.34053823,0.082847714,0.5255307,0.13285962,0.06558357,896.9231,772.01465,795.78754,884.83514,1116.9231,-0.0377197265625,-0.00567626953125,1.0067138671875,3.4393310546875,-2.5421142578125,-0.31402587890625,1,1.0,1.0,1.0,1.0,100.00
2021-04-20 22:12:34.811,0.7099984500000,-0.2013578125,0.61967675,0.56262143,0.68921358,-0.097576575,0.2187426125000,0.6365413,1.1738840000000,0.3416893,0.4182853250000,0.7155046,0.49238936,0.971369175,0.550567825,0.3387105,0.010885082,0.5516719,0.1158176200000,0.0430249235,875.9707,799.816825,814.52382,,,,,,,,,,,,,,,/muse/elements/blink
2021-04-20 22:12:35.287,0.6254982,-0.086173445,0.4636158,0.36710176,0.62231266,-0.12356952,0.070952155,0.5837776,1.1489863,0.3794994,0.23959735,0.7186679,0.38097632,0.96035045,0.54052955,0.33688277,-0.06107755,0.5778131,0.09877562,0.020466277,855.0183,827.619,833.2601,834.4689,761.9414,-0.07257080078125,0.0079345703125,1.00640869140625,6.1309814453125,-0.142059326171875,3.70849609375,1,1.0,1.0,1.0,1.0,100.00
2021-04-20 22:12:35.816,0.6883926,-0.088074,-0.055284172,0.3823878,0.4995867,-0.18008481,-0.31371284,0.4383678,1.0413586,0.37017125,0.21123074,0.65372163,0.32586437,0.9574751,0.43387964,0.37856978,-0.109770894,0.68849015,0.13630842,0.101305515,799.41394,799.011,807.0696,825.6044,676.1172,-0.068359375,0.04071044921875,0.98486328125,7.559051513671875,-0.874786376953125,16.860198974609375,1,1.0,1.0,1.0,1.0,100.00
2021-04-20 22:12:35.917,0.763032835,0.0028177799999,0.0566919240000,0.473824075,0.48522988,-0.141640842,-0.19807142,0.46442797,0.80886845,0.29490591,0.130471332,0.601021815,0.3066029249999,0.9519362,0.45964772,0.420102075,-0.134371827,0.723126675,0.15499349,0.1231052825,782.89377,803.84617,807.271065,,,,,,,,,,,,,,,/muse/elements/blink
2021-04-20 22:12:36.323,0.83767307,0.09370956,0.16866802,0.56526035,0.47087306,-0.103196874,-0.08243,0.49048814,0.5763783,0.21964057,0.049711924,0.548322,0.28734148,0.9463973,0.4854158,0.46163437,-0.15897276,0.7577632,0.17367856,0.14490505,766.3736,808.68134,807.47253,770.40295,643.47986,-0.01800537109375,0.16143798828125,0.9786376953125,5.196380615234375,-6.347808837890625,60.345306396484375,1,1.0,1.0,1.0,1.0,100.00
2021-04-20 22:12:36.827,1.085682,-0.021476107,0.47374326,0.8923263,0.7643252,0.07483511,-0.055182893,0.67628276,0.8091077,0.3147782,0.257579,0.62525266,0.3418683,1.0109427,0.5352471,0.45291668,-0.088726945,0.7346632,0.20451516,0.20081861,789.34064,804.65204,811.0989,800.2198,674.10254,-0.008056640625,0.07080078125,0.96905517578125,3.775787353515625,3.887939453125,50.9320068359375,1,1.0,1.0,1.0,1.0,100.00
2021-04-20 22:12:37.345,1.1310052,-0.036956437,0.44894603,1.152823,0.8089405,0.22357619,0.04351201,0.8998852,0.817124,0.30643043,0.35932225,0.780267,0.377166,1.035348,0.5864994,0.36774504,-0.09345417,0.64394534,0.13814436,0.088721246,786.52014,803.0403,812.71063,865.4945,861.06226,-0.05865478515625,0.055419921875,1.01507568359375,-2.594451904296875,0.097198486328125,10.467529296875,1,1.0,1.0,1.0,1.0,100.00
2021-04-20 22:12:37.853,1.0026953,-0.12189816,0.37086707,0.9207168,0.69592196,0.23082918,-0.12607293,0.713011,0.817124,0.30426708,0.35774428,0.88745564,0.34154895,1.0465821,0.61977506,0.45121607,-0.1773314,0.6366578,0.055238623,0.09876531,793.36993,824.7985,813.5165,814.7253,780.07324,0.01531982421875,0.05950927734375,1.008544921875,4.32159423828125,-1.92901611328125,9.3310546875,1,1.0,1.0,1.0,1.0,100.00
2021-04-20 22:12:38.366,0.7836085,-0.070323326,0.011552687,0.76212764,0.5768577,0.29778743,-0.18407534,0.5789232,0.74061453,0.30052918,0.33777347,0.8901665,0.3117876,1.056956,0.6104275,0.5120542,-0.36993563,0.64879966,-0.009678632,0.16702604,835.6777,828.4249,811.0989,744.61536,638.6447,-0.11090087890625,0.095947265625,0.98199462890625,10.706787109375,2.878570556640625,10.21331787109375,1,1.0,1.0,1.0,1.0,100.00
2021-04-20 22:12:38.889,0.4948375,-0.070323326,0.09827199,0.47468334,0.44262302,0.29778743,-0.20062764,0.19200408,0.55899453,0.30052918,0.2842429,0.819413,0.37538987,1.056956,0.6231058,0.59631306,-0.3516968,0.64879966,0.051962804,0.23348421,760.32965,807.0696,794.9817,850.58606,921.50183,-0.09130859375,0.1339111328125,0.9315185546875,3.476715087890625,-0.007476806640625,3.409423828125,1,1.0,1.0,1.0,1.0,100.00
2021-04-20 22:12:39.421,0.5219214,-0.070323326,0.4802722,0.46785775,0.50801265,0.29778743,0.21760233,0.09934917,0.5935761,0.30052918,0.6498272,0.7616821,0.4266462,1.056956,0.54910344,0.6432453,-0.26883298,0.64879966,0.18606922,0.36915386,816.7399,826.8132,804.65204,780.87915,839.707,-0.17449951171875,0.10931396484375,0.99505615234375,2.51220703125,-1.577606201171875,6.616973876953125,1,1.0,1.0,1.0,1.0,100.00
2021-04-20 22:12:39.925,0.5880093,-0.070323326,0.56410384,0.4728124,0.5047404,0.29778743,0.22640501,0.20146145,0.61503816,0.30052918,0.65306836,0.6511515,0.3912244,1.056956,0.47163564,0.5958604,-0.13611199,0.64879966,0.26931167,0.30020556,769.59705,803.44324,805.05493,885.64105,955.34796,-0.12335205078125,0.0567626953125,0.966064453125,2.743988037109375,-0.949554443359375,-1.607513427734375,1,1.0,1.0,1.0,1.0,100.00
2021-04-20 22:12:40.428,0.55868393,0.47026697,0.7178404,0.44798273,0.43302545,0.34259385,0.25242707,0.288967,0.67610484,0.6424018,0.65379626,0.6209156,0.26224563,0.828209,0.46118638,0.4581539,-0.10621062,0.6217635,0.2929753,0.19802192,850.989,790.14655,770.80585,717.619,902.1612,-0.1580810546875,0.0853271484375,1.0023193359375,1.51031494140625,-5.854339599609375,4.83001708984375,1,1.0,1.0,1.0,1.0,100.00
2021-04-20 22:12:40.944,0.44914192,0.47702762,0.7318634,0.71415925,0.43413833,0.37311965,0.06239729,0.46609813,0.7373382,0.643842,0.42535198,0.73854244,0.18871966,0.84089226,0.44426173,0.3957067,-0.13546787,0.5689271,0.3003563,-3.3946816E-4,801.02563,829.6337,813.91943,732.1245,637.8388,-0.162353515625,0.0450439453125,0.98394775390625,4.164581298828125,-3.4393310546875,-3.289794921875,1,1.0,1.0,1.0,1.0,100.00
2021-04-20 22:12:41.057,0.41469971,0.47702762,0.79458465,0.785767925,0.4287930749999,0.37311965,0.242946485,0.484424615,0.7365687000000,0.643842,0.4408816100000,0.7378925199999,0.187656455,0.84089226,0.5034553150000,0.387852825,-0.176897189999,0.5689271,0.29264795,0.01876451942,829.432215,815.93407,805.860815,,,,,,,,,,,,,,,/muse/elements/blink
