TimeStamp,Delta_TP9,Delta_AF7,Delta_AF8,Delta_TP10,Theta_TP9,Theta_AF7,Theta_AF8,Theta_TP10,Alpha_TP9,Alpha_AF7,Alpha_AF8,Alpha_TP10,Beta_TP9,Beta_AF7,Beta_AF8,Beta_TP10,Gamma_TP9,Gamma_AF7,Gamma_AF8,Gamma_TP10,RAW_TP9,RAW_AF7,RAW_AF8,RAW_TP10,AUX_RIGHT,Accelerometer_X,Accelerometer_Y,Accelerometer_Z,Gyro_X,Gyro_Y,Gyro_Z,HeadBandOn,HSI_TP9,HSI_AF7,HSI_AF8,HSI_TP10,Battery,Elements
2021-04-12 22:25:36.280,0.7904882,0.5313702,0.76241803,0.6697936,0.7220284,0.03384248,0.29990277,0.56766367,0.49529424,0.2803409,0.22913422,0.7261303,0.74345225,0.24895382,0.36090994,0.8112118,0.09451962,-0.41634253,-0.05038539,0.3607793,805.05493,759.92676,788.93774,811.9048,738.5714,0.37261962890625,0.04241943359375,0.93011474609375,4.6356201171875,-4.83001708984375,0.70281982421875,1,1.0,1.0,1.0,1.0,60.00
2021-04-12 22:25:36.788,0.7120415,0.50341916,0.34267,0.4981797,0.6484693,0.074266344,-0.019595316,0.44047156,0.5112552,0.20725988,0.13024764,0.7279811,0.69406724,0.15297301,0.31121966,0.7496757,0.16294633,-0.41102415,-0.14971326,0.36578295,785.31134,758.71796,778.86444,788.1319,708.3516,0.39251708984375,0.0377197265625,0.93365478515625,4.673004150390625,-5.615081787109375,2.504730224609375,1,1.0,1.0,1.0,1.0,60.00
2021-04-12 22:25:37.298,0.13807158,0.30512884,-0.06281459,0.4801157,0.0806524,0.15108664,-0.26001707,0.3544341,0.27954054,0.27362674,0.17464405,0.8362077,0.42477956,0.031353887,0.25673836,0.6717827,0.3743311,-0.44549865,-0.228547,0.33299014,791.3553,776.4469,766.77655,794.17584,673.69965,0.41131591796875,0.0389404296875,0.96710205078125,-0.097198486328125,-0.28411865234375,1.667327880859375,1,1.0,1.0,1.0,1.0,60.00
2021-04-12 22:25:37.808,0.8432238,0.72747403,0.0964257,0.60195976,0.59356016,0.14907572,-0.28578553,0.37156218,1.0196958,0.29844978,0.459379,0.9787313,0.5068502,0.022175819,0.33237836,0.60762495,0.30311337,-0.4199194,-0.22246964,0.32859722,812.71063,754.68866,787.72894,805.8608,721.2454,0.286376953125,-0.0130615234375,0.951904296875,0.8074951171875,2.489776611328125,6.57958984375,1,1.0,1.0,1.0,1.0,60.00
2021-04-12 22:25:38.315,0.88566095,0.9106379,0.24566366,0.80687267,0.6289509,0.3213346,0.029447211,0.4996453,1.0215627,0.3424608,0.53630143,0.9425162,0.5656301,0.010365984,0.39049557,0.68271774,0.2800047,-0.5016687,-0.2823092,0.29700443,798.60803,752.27106,790.14655,807.8755,777.25275,0.20819091796875,-0.0941162109375,0.96734619140625,5.63751220703125,1.248626708984375,11.544189453125,1,1.0,1.0,1.0,1.0,60.00
2021-04-12 22:25:38.822,1.0308053,1.0946653,0.81302005,0.77278376,0.7712268,0.5168618,0.38197953,0.47843018,1.0225302,0.37585503,0.69027066,0.9469138,0.6469749,0.036055103,0.4175624,0.8769872,0.23445623,-0.4980645,-0.2704727,0.45279858,812.3077,763.95605,796.1905,821.1722,913.0403,0.0931396484375,-0.0999755859375,0.9705810546875,6.841278076171875,7.8955078125,16.86767578125,1,1.0,1.0,1.0,1.0,60.00
2021-04-12 22:25:39.327,0.7169368,1.064704,0.93814826,0.49802166,0.4938851,0.5912012,0.49162665,0.3565465,0.6885005,0.36520875,0.6193174,0.6110234,0.58598834,-0.0032958423,0.35725853,0.8294276,0.37882924,-0.52606946,-0.27831006,0.50989914,799.011,765.9707,782.0879,792.1612,843.73627,0.03594970703125,-0.102783203125,0.98046875,5.510406494140625,2.6019287109375,9.3609619140625,1,1.0,1.0,1.0,1.0,60.00
2021-04-12 22:25:39.829,0.6527785,1.1382946,0.8792305,0.5432402,0.37710598,0.6873021,0.35584894,0.30790913,0.6428588,0.35777792,0.5840758,0.67714787,0.52174294,-0.019612702,0.25533816,0.825144,0.27994144,-0.5472669,-0.22270077,0.47992903,793.36993,834.87177,794.57874,804.2491,769.19415,-0.0511474609375,-0.03826904296875,1.01025390625,6.766510009765625,2.190704345703125,0.1495361328125,1,1.0,1.0,1.0,1.0,60.00
2021-04-12 22:25:40.332,0.5601313,1.1382946,0.30642664,0.5603278,0.4789049,0.6873021,-0.091674775,0.30628115,0.7843199,0.35777792,0.098164774,0.6849034,0.46651152,-0.019612702,0.2894473,0.76149863,0.24711783,-0.5472669,-0.30923495,0.39070633,796.1905,845.7509,793.7729,804.65204,745.42126,-0.1439208984375,0.0062255859375,1.00140380859375,4.179534912109375,-2.67669677734375,0.94207763671875,1,1.0,1.0,1.0,1.0,60.00
2021-04-12 22:25:40.841,0.35784256,1.348722,0.2557449,0.48204264,0.5102878,0.5974765,-0.1103481,0.22485463,0.7559862,0.67352057,0.12186648,0.6584282,0.42213163,0.32280865,0.29323748,0.7196939,0.10314371,-0.37415364,-0.31211013,0.19380346,810.696,804.65204,784.10254,793.7729,924.3223,-0.1170654296875,-0.0098876953125,0.99652099609375,3.386993408203125,-6.50482177734375,-0.0897216796875,1,1.0,1.0,1.0,1.0,60.00
2021-04-12 22:25:41.362,0.22247583,1.348722,0.37252668,0.31728262,0.53151,0.5974765,-0.0583855,0.29374424,0.7799124,0.67352057,0.083938435,0.67587864,0.40542462,0.32280865,0.2549601,0.5873346,0.15436706,-0.37415364,-0.22453412,0.09083242,794.9817,751.4652,781.685,785.31134,698.68134,-0.07574462890625,-0.00128173828125,0.99322509765625,7.46185302734375,-8.231964111328125,-8.25439453125,1,1.0,1.0,1.0,1.0,60.00
2021-04-12 22:25:41.864,0.18168016,1.348722,0.47601354,0.23808481,0.40425956,0.5974765,0.13825731,0.3138119,0.6694365,0.67352057,0.5056343,0.78662133,0.39595225,0.32280865,0.1836029,0.5632315,0.09955857,-0.37415364,-0.26415566,0.10098191,801.02563,744.61536,786.9231,791.75824,788.93774,-0.0030517578125,0.03631591796875,1.00177001953125,11.5740966796875,-8.71795654296875,-25.2117919921875,1,1.0,1.0,1.0,1.0,60.00
2021-04-12 22:25:42.372,0.30665222,1.348722,0.7139465,0.32237262,0.26603308,0.5974765,0.35909846,0.3788774,0.36243385,0.67352057,0.5984692,0.78662133,0.3810567,0.32280865,0.1484468,0.54644567,0.12901874,-0.37415364,-0.27512154,0.14268725,788.1319,782.0879,785.31134,792.5641,747.03296,0.02459716796875,0.0279541015625,0.98883056640625,2.489776611328125,2.691650390625,38.662567138671875,1,1.0,1.0,1.0,1.0,60.00
2021-04-12 22:25:42.905,0.40806177,1.348722,0.8549713,0.47527057,0.26489237,0.5974765,0.53620476,0.24527253,0.31164017,0.67352057,0.5984692,0.70161426,0.24129683,0.32280865,0.17429356,0.53190196,0.06675687,-0.37415364,-0.533864,0.07499009,784.90845,766.3736,770.80585,767.5824,756.30035,0.03607177734375,0.0137939453125,0.97698974609375,3.611297607421875,-1.742095947265625,19.5294189453125,1,1.0,1.0,1.0,1.0,60.00
2021-04-12 22:25:43.417,0.40806177,1.348722,0.9993125,0.6407658,0.26489237,0.5974765,0.68023425,0.2408739,0.31164017,0.67352057,0.5885174,0.27229926,0.24129683,0.32280865,0.2409486,0.4725344,0.06675687,-0.37415364,-0.53937,-0.1090338,798.20514,829.2308,783.69965,804.65204,799.41394,-0.12969970703125,0.10308837890625,1.0389404296875,5.151519775390625,2.071075439453125,12.942352294921875,1,1.0,1.0,1.0,1.0,60.00
2021-04-12 22:25:43.920,0.07485187,1.348722,0.038688127,0.63780415,0.11166319,0.5974765,-0.34371674,0.22752838,0.4972496,0.67352057,0.1072501,0.29283708,0.45252138,0.32280865,0.18037163,0.50123495,-0.05352362,-0.37415364,-0.34155393,-0.06985933,792.96704,844.94507,775.64105,803.8461,774.43225,-0.22003173828125,0.06732177734375,0.94879150390625,7.8955078125,-1.03179931640625,12.329254150390625,1,1.0,1.0,1.0,1.0,60.00
2021-04-12 22:25:44.430,0.44097516,1.348722,0.14378907,0.6202268,0.117791004,0.5974765,-0.32877117,0.2516771,0.55886686,0.67352057,0.1473415,0.40710095,0.5119389,0.32280865,0.24468482,0.5575705,-0.036740653,-0.37415364,-0.3553869,0.06945959,718.4249,705.5311,846.55676,755.89746,703.1135,-0.14630126953125,0.07958984375,0.9979248046875,1.413116455078125,2.624359130859375,31.2530517578125,1,1.0,1.0,1.0,1.0,60.00
2021-04-12 22:25:44.939,0.50563645,1.348722,0.3135394,0.5253445,0.025612492,0.5974765,-0.3197265,0.15364076,0.47213507,0.67352057,0.10242551,0.2924379,0.544708,0.32280865,0.2647174,0.55096585,-0.03308772,-0.37415364,-0.33836135,0.202875,800.2198,764.7619,787.72894,816.7399,801.4286,-0.14739990234375,0.09698486328125,1.02276611328125,6.639404296875,0.321502685546875,13.869476318359375,1,1.0,1.0,1.0,1.0,60.00
2021-04-12 22:25:45.443,0.6671921,1.348722,0.3803316,0.5076048,0.12503204,0.5974765,-0.23614141,0.16853322,0.4273499,0.67352057,0.030289391,0.1599554,0.5739343,0.32280865,0.29700857,0.5492084,-0.017421415,-0.37415364,-0.37138525,0.22577098,797.3993,782.8938,783.69965,798.60803,686.99634,-0.07940673828125,0.1536865234375,1.0009765625,11.005859375,-10.863800048828125,30.7147216796875,1,1.0,1.0,1.0,1.0,60.00
2021-04-12 22:25:45.955,0.6832004,1.348722,0.46607602,0.5076048,0.16055742,0.5974765,-0.009775463,0.16853322,0.375298,0.67352057,0.0634798,0.1599554,0.5601285,0.32280865,0.3692423,0.5492084,-0.005621894,-0.37415364,-0.1731085,0.22577098,810.696,761.9414,795.78754,789.34064,625.34796,-0.1827392578125,0.1153564453125,0.978271484375,12.36663818359375,-1.86920166015625,-8.65814208984375,1,1.0,1.0,1.0,1.0,60.00
2021-04-12 22:25:46.475,1.215272,1.348722,0.48047853,1.3239715,0.97680694,0.5974765,-0.09220223,1.2169217,1.0289047,0.67352057,0.13382241,1.0427346,0.8207682,0.32280865,0.31657735,1.0238786,0.3841252,-0.37415364,-0.015727632,0.37358055,791.75824,756.7033,792.5641,799.011,816.337,-0.1351318359375,0.05487060546875,0.977783203125,-0.73272705078125,-8.41888427734375,-10.21331787109375,1,1.0,1.0,1.0,1.0,60.00
2021-04-12 22:25:46.997,1.0754898,1.348722,0.48195967,1.0168971,0.85508966,0.5974765,0.10103287,0.8612485,1.0346305,0.67352057,0.31364965,1.0427346,0.7434193,0.32280865,0.36858737,0.7796585,0.36033556,-0.37415364,-0.05823989,0.32584727,798.60803,751.8681,782.49084,807.47253,768.7912,-0.1373291015625,-0.01898193359375,1.00262451171875,2.03369140625,-4.358978271484375,-0.829925537109375,1,1.0,1.0,1.0,1.0,60.00
2021-04-12 22:25:47.501,0.9195918,0.9022328,0.51052994,0.55333817,0.67324346,0.5838193,0.18455505,0.061665818,0.8164937,0.55307806,0.43042403,0.52019995,0.63571674,-0.011601562,0.36189064,0.48166275,0.36868912,-0.29409972,-0.048473693,0.28820145,637.03296,748.6447,795.38464,636.63007,728.0952,-0.07318115234375,-0.024169921875,0.99822998046875,4.94964599609375,-8.7628173828125,-3.45428466796875,1,1.0,1.0,1.0,1.0,60.00
2021-04-12 22:25:47.703,0.8932867499999,0.9037903,0.5593889949999,0.535542585,0.642116455,0.59618087,0.233101185,0.041990186,0.7420108999999,0.62162178,0.4844252650000,0.52019995,0.610553145,0.0396805190000,0.37773475,0.48051676,0.36375596,-0.30892071,-0.0520622745,0.2807576750000,723.46155,754.89013,784.10257,,,,,,,,,,,,,,,/muse/elements/blink
2021-04-12 22:25:48.007,0.8669817,0.9053478,0.60824805,0.517747,0.61098945,0.60854244,0.28164732,0.022314554,0.6675281,0.6901655,0.5384265,0.52019995,0.58538955,0.0909626,0.39357886,0.47937077,0.3588228,-0.3237417,-0.055650856,0.2733139,809.89014,761.13556,772.8205,797.3993,700.293,-0.0614013671875,-0.02484130859375,0.998291015625,2.811279296875,-6.160888671875,-0.246734619140625,1,1.0,1.0,1.0,1.0,60.00
2021-04-12 22:25:48.516,0.892516,0.9524519,0.69152296,0.47298607,0.5216731,0.62625664,0.31324548,-0.051754832,0.51833934,0.6873926,0.55418134,0.4850853,0.54910856,0.16358392,0.3867767,0.4771129,0.40714157,-0.42675924,0.10825876,0.2380042,794.17584,756.30035,786.9231,798.20514,686.5934,-0.04736328125,-0.03466796875,1.00341796875,3.9776611328125,-5.14404296875,0.16448974609375,1,1.0,1.0,1.0,1.0,60.00
2021-04-12 22:25:49.038,0.892516,0.87533134,0.64899635,0.47298607,0.5216731,0.5259082,0.26784664,-0.051754832,0.51833934,0.57608014,0.44387498,0.4850853,0.54910856,0.21559927,0.3288434,0.4771129,0.40714157,-0.5355081,0.1290151,0.2380042,809.89014,755.89746,789.34064,821.1722,794.57874,-0.0445556640625,-0.038818359375,1.00054931640625,4.53094482421875,-4.5159912109375,0.49346923828125,1,1.0,1.0,1.0,1.0,60.00
2021-04-12 22:25:49.543,0.32879448,0.7388188,0.54386556,0.6647339,0.10583123,0.34056592,0.15248483,0.42642403,0.40794227,0.4282687,0.38833234,0.39537844,0.48103452,0.18494909,0.26970285,0.5151955,0.19807982,-0.5776916,0.1195833,0.41881892,774.0293,791.75824,754.2857,762.74725,851.39197,-0.07171630859375,-0.05078125,0.9912109375,5.615081787109375,-0.007476806640625,-4.658050537109375,1,1.0,1.0,1.0,1.0,60.00
2021-04-12 22:25:49.643,0.70932094,0.70627085,0.59015873,0.9768741000000,0.739037615,0.31155482,0.2072025499999,0.971398615,0.8683014849999,0.4172144100000,0.30373147,0.94590727,0.6000654599999,0.1471472350000,0.23616465,0.64443273,0.1835457449999,-0.51159665,0.05994529095,0.38293621,785.91575,774.029295,768.1868,,,,,,,,,,,,,,,/muse/elements/blink
2021-04-12 22:25:50.052,1.0898474,0.6737229,0.6364519,1.2890143,1.372244,0.28254372,0.26192027,1.5163732,1.3286607,0.40616012,0.2191306,1.4964361,0.7190964,0.10934538,0.20262645,0.77366996,0.16901167,-0.4455017,3.072819E-4,0.3470535,797.8022,756.30035,782.0879,805.05493,707.1429,-0.1214599609375,-0.019287109375,0.99578857421875,10.42266845703125,6.512298583984375,-3.96270751953125,1,1.0,1.0,1.0,1.0,60.00
2021-04-12 22:25:50.561,1.3031539,0.87197775,0.77237797,1.4291596,1.4629229,0.41262093,0.2840016,1.5932803,1.3860189,0.4253245,0.23558432,1.5130029,0.73393273,0.039102986,0.23222458,0.84381425,0.13721472,-0.39208293,-0.091653585,0.3078461,814.7253,787.326,797.8022,821.1722,945.2747,-0.2493896484375,0.07647705078125,0.979736328125,8.082427978515625,0.5084228515625,0.73272705078125,1,1.0,1.0,1.0,1.0,60.00
2021-04-12 22:25:51.063,1.2447078,0.97629696,0.70882773,1.3611268,1.4019145,0.48506358,0.26966798,1.5267311,1.3860189,0.37674132,0.34174666,1.5130029,0.6856487,0.027234074,0.2315707,0.7789948,0.054914035,-0.38648254,-0.2070699,0.15608676,789.7436,807.47253,781.685,799.81683,954.5421,-0.23785400390625,0.0596923828125,0.9764404296875,7.484283447265625,-4.20196533203125,3.81317138671875,1,1.0,1.0,1.0,1.0,60.00
2021-04-12 22:25:51.590,1.0490216,1.0260111,0.49228665,1.0298709,1.0277218,0.47360513,-0.075264126,1.0374699,1.0141436,0.5591744,0.4113941,1.2217593,0.5801341,0.103925705,0.2600055,0.6303949,0.14098966,-0.39579973,-0.26399496,0.21427588,790.9524,804.65204,766.3736,787.326,628.1685,-0.24658203125,0.09503173828125,0.96917724609375,11.013336181640625,-4.762725830078125,-5.555267333984375,1,1.0,1.0,1.0,1.0,60.00
2021-04-12 22:25:52.109,0.7231886,1.3598272,0.7476767,0.50208694,0.64514464,0.48386756,0.24411628,0.62084556,0.5686046,0.5714047,0.7575437,0.60953015,0.5383853,0.25855085,0.32223287,0.5425045,0.20242424,-0.39817378,-0.13906169,0.2921436,796.5934,792.1612,796.1905,785.7143,657.5824,-0.2720947265625,0.09710693359375,0.9342041015625,1.54022216796875,-0.530853271484375,3.925323486328125,1,1.0,1.0,1.0,1.0,55.00
2021-04-12 22:25:52.623,0.6094196,1.3598272,0.82069963,0.39253297,0.48222595,0.48386756,0.27625436,0.49257106,0.42170283,0.5714047,0.7575437,0.5847196,0.5572209,0.25855085,0.33634523,0.5358539,0.25897923,-0.39817378,-0.0682404,0.32923105,796.5934,826.4103,805.4579,794.57874,833.2601,-0.35003662109375,0.14385986328125,0.9383544921875,6.018829345703125,-0.994415283203125,15.185394287109375,1,1.0,1.0,1.0,1.0,55.00
2021-04-12 22:25:53.129,0.6530178,1.4097549,0.8835174,0.4636957,0.49900913,0.464573,0.37404695,0.463116,0.38408592,0.5580682,0.72003454,0.6369647,0.5111707,0.2578127,0.30545026,0.52135646,0.18555874,-0.4268656,-0.05525289,0.3013512,795.38464,811.50183,788.1319,809.0842,898.1319,-0.25970458984375,0.14886474609375,0.94317626953125,1.07666015625,-5.988922119140625,3.66363525390625,1,1.0,1.0,1.0,1.0,55.00
2021-04-12 22:25:53.644,0.5640081,1.4097549,0.6607047,0.47710454,0.29492438,0.464573,0.1898854,0.18698865,0.27018324,0.5580682,0.48916572,0.6005296,0.50642353,0.2578127,0.23507689,0.44781315,0.08750602,-0.4268656,-0.096421115,0.21116745,792.96704,766.3736,789.7436,780.87915,646.7033,-0.23028564453125,0.1324462890625,0.96142578125,2.213134765625,-10.220794677734375,1.592559814453125,1,1.0,1.0,1.0,1.0,55.00
2021-04-12 22:25:54.160,0.5262205,1.4097549,0.48757562,0.36415455,0.27438012,0.464573,0.13580242,0.12858692,0.6299475,0.5580682,0.3667948,0.5228994,0.4903695,0.2578127,0.2803141,0.47125188,0.030749813,-0.4268656,-0.0034489462,0.15107325,797.3993,764.35895,788.1319,814.7253,819.15753,-0.23187255859375,0.13763427734375,0.966796875,5.1739501953125,-4.71038818359375,-4.044952392578125,1,1.0,1.0,1.0,1.0,55.00
2021-04-12 22:25:54.664,0.5034534,1.4097549,0.36108467,0.26371637,0.29404455,0.464573,0.103842966,0.16523734,0.66043055,0.5580682,0.50809926,0.48763895,0.46456283,0.2578127,0.23610006,0.45235315,0.026258184,-0.4268656,-0.017625708,0.13808738,819.15753,758.71796,793.7729,788.93774,669.67035,-0.2918701171875,0.08905029296875,0.9527587890625,1.7645263671875,-3.476715087890625,-2.3626708984375,1,1.0,1.0,1.0,1.0,55.00
2021-04-12 22:25:55.172,0.80900806,0.8653449,0.37377092,0.21966359,0.42044088,0.8515285,0.11624061,0.16715743,0.7779025,0.8113335,0.49520728,0.038558606,0.42040214,0.23422964,0.24048911,0.47092786,0.059878603,-0.43682933,-0.033781253,0.044880982,777.25275,751.06226,796.99634,799.011,909.011,-0.2889404296875,0.161376953125,0.9478759765625,6.280517578125,-4.673004150390625,8.456268310546875,1,1.0,1.0,1.0,1.0,55.00
2021-04-12 22:25:55.677,0.8518282,0.8653449,0.48063195,0.31538713,0.36840698,0.8515285,0.14786366,0.0064990027,0.77055866,0.8113335,0.49684238,0.35402837,0.43285543,0.23422964,0.27081057,0.564034,0.10390123,-0.43682933,-0.085688025,0.065839745,793.36993,774.43225,792.5641,819.5604,852.1978,-0.26336669921875,0.1473388671875,0.94537353515625,4.366455078125,-6.81884765625,1.263580322265625,1,1.0,1.0,1.0,1.0,55.00
2021-04-12 22:25:56.186,0.89171886,0.8653449,0.43666434,0.30775383,0.3792697,0.8515285,-0.1469259,0.028436033,0.6783309,0.8113335,0.39526096,0.35402837,0.42537433,0.23422964,0.2938784,0.5624265,0.13218239,-0.43682933,-0.16343671,0.043008655,801.02563,787.72894,783.69965,801.8315,823.9927,-0.2763671875,0.12310791015625,0.956787109375,3.12530517578125,-5.921630859375,-2.609405517578125,1,1.0,1.0,1.0,1.0,55.00
2021-04-12 22:25:56.599,0.751741765,0.8470533499999,0.46125318,0.278843715,0.300501175,0.77747758,-0.03601381,0.0504522565,0.66751507,0.70818482,0.39807907,0.373911485,0.44419749,0.21527262,0.28749995,0.54266053,0.129049615,-0.41285394,-0.200275195000,0.021557667375,815.329665,790.14652,783.498175,,,,,,,,,,,,,,,/muse/elements/blink
2021-04-12 22:25:56.695,0.61176467,0.8287618,0.48584202,0.2499336,0.22173265,0.70342666,0.07489828,0.07246848,0.65669924,0.60503614,0.40089718,0.3937946,0.46302065,0.1963156,0.2811215,0.52289456,0.12591684,-0.38887855,-0.23711368,1.0667975E-4,829.6337,792.5641,783.2967,839.707,880.0,-0.26373291015625,0.09442138671875,0.958740234375,0.052337646484375,-6.280517578125,-0.575714111328125,1,1.0,1.0,1.0,1.0,55.00
2021-04-12 22:25:57.197,0.646159,1.1807628,0.546112,0.29145738,0.31800446,0.6864292,0.14512205,0.12484423,0.51422393,0.60503614,0.37707037,0.23150119,0.43905163,0.21534142,0.2680333,0.5032509,0.088639885,-0.39937258,-0.35380587,-0.042590003,794.17584,770.40295,776.04395,816.7399,877.98535,-0.277099609375,0.06231689453125,0.96478271484375,3.850555419921875,-4.6954345703125,-1.77947998046875,1,1.0,1.0,1.0,1.0,55.00
2021-04-12 22:25:57.721,0.5514199,1.2162899,0.46724865,0.29145738,0.27524728,0.6127929,0.20429802,0.12484423,0.4149811,0.60297346,0.31900457,0.23150119,0.43819293,0.18378621,0.29037908,0.5032509,0.06264228,-0.4076229,-0.1649536,-0.042590003,805.4579,778.0586,788.5348,809.0842,844.5421,-0.27032470703125,0.04022216796875,0.9659423828125,5.405731201171875,-5.166473388671875,-3.51409912109375,1,1.0,1.0,1.0,1.0,55.00
2021-04-12 22:25:58.224,0.41602257,1.2960452,0.73732907,1.0281268,0.65336996,0.7402058,0.56598437,0.95784414,0.3299402,0.6949013,0.43943042,0.8065849,0.27888831,0.16212268,0.34736916,0.411038,0.18991879,-0.43983832,-0.0077773263,0.15590763,796.99634,763.5531,781.685,790.54944,580.6227,-0.2763671875,0.04931640625,0.9671630859375,4.14215087890625,-4.306640625,2.250518798828125,1,1.0,1.0,1.0,1.0,55.00
2021-04-12 22:25:58.734,0.49173287,1.1283582,0.6908755,0.86193347,0.44254267,0.6995933,0.5082234,0.7606725,0.40331137,0.6969639,0.4828856,0.83707553,0.3927999,0.12475735,0.31130844,0.43551126,0.07549958,-0.4170752,-0.0047058724,0.15438563,799.011,771.2088,799.41394,799.41394,721.2454,-0.306884765625,-0.0234375,0.94879150390625,1.682281494140625,-8.17962646484375,-3.895416259765625,1,1.0,1.0,1.0,1.0,55.00
2021-04-12 22:25:59.257,0.4623045,1.148842,0.62044704,0.8176976,0.3342362,0.7247294,0.46631944,0.69496375,0.4227795,0.7038515,0.4828856,0.83707553,0.40503067,0.19836052,0.30612728,0.43595,0.0104546435,-0.27238154,-0.02557689,0.14589493,818.3516,772.4176,816.7399,836.4835,1196.3004,-0.26898193359375,-0.01239013671875,0.96856689453125,5.914154052734375,-6.57958984375,1.57012939453125,1,1.0,1.0,1.0,1.0,55.00
2021-04-12 22:25:59.769,0.4793721,0.8972876,0.1256386,0.47738445,0.34205508,0.5386929,-0.11394562,0.62872934,0.34281546,0.51037854,0.20472006,0.64356935,0.45686504,0.18268335,0.27615777,0.54966915,0.023857597,-0.1440808,-0.0046674036,0.242693,790.54944,770.80585,786.52014,801.8315,784.5055,-0.28125,0.00457763671875,0.95770263671875,5.1141357421875,-5.7122802734375,2.13836669921875,1,1.0,1.0,1.0,1.0,55.00
2021-04-12 22:26:00.285,0.38428032,0.6779259,0.09718027,0.41824177,0.34477597,0.4543204,0.028762085,0.64705586,0.3249301,0.3648551,0.14571828,0.6530544,0.45535108,0.1056505,0.32419774,0.59100115,0.062679894,-0.21095721,-0.023456506,0.31224993,746.63007,761.9414,807.8755,742.1978,656.77655,-0.282470703125,0.005859375,0.9622802734375,4.837493896484375,-5.734710693359375,1.009368896484375,1,1.0,1.0,1.0,1.0,55.00
2021-04-12 22:26:00.498,0.37358047,0.65805995,0.321034685,0.41447705,0.375912885,0.414786085,0.1986875575,0.66485336,0.256649575,0.36328605,0.1590654650000,0.650915825,0.4534271800000,0.1135552599999,0.32127797,0.598086475,0.0989256370000,-0.257520935,0.0215259969999,0.323317415,777.655705,769.19415,800.622715,,,,,,,,,,,,,,,/muse/elements/blink
2021-04-12 22:26:00.808,0.36288062,0.638194,0.5448891,0.41071233,0.4070498,0.37525177,0.36861303,0.68265086,0.18836905,0.361717,0.17241265,0.64877725,0.45150328,0.12146002,0.3183582,0.6051718,0.13517138,-0.30408466,0.0665085,0.3343849,808.68134,776.4469,793.36993,805.4579,697.0696,-0.27496337890625,0.00665283203125,0.96038818359375,4.78515625,-6.168365478515625,-1.8243408203125,1,1.0,1.0,1.0,1.0,55.00
2021-04-12 22:26:01.315,0.15010543,0.63263196,0.8668673,0.28011876,-0.036636483,0.21653064,0.5390534,0.1806809,0.16032942,0.06843901,0.16780438,0.5891858,0.4573913,0.07345657,0.2866745,0.5592461,0.08736487,-0.4580697,0.043607965,0.30574092,843.73627,813.5165,759.12085,811.9048,693.44324,-0.269287109375,-0.01190185546875,0.9588623046875,3.81317138671875,-4.658050537109375,-0.9271240234375,1,1.0,1.0,1.0,1.0,55.00
2021-04-12 22:26:01.832,0.09308411,0.73920447,1.0470684,0.2112036,-0.14394028,0.20431355,0.65947664,0.036950007,0.15795565,-0.03861692,0.13924846,0.47341415,0.44680825,0.12303025,0.24583618,0.5443965,0.07929521,-0.45723492,0.09006246,0.2814205,816.337,1243.4432,816.337,818.7546,961.39197,-0.23211669921875,0.01495361328125,0.9764404296875,8.1646728515625,-5.884246826171875,-5.405731201171875,1,1.0,1.0,1.0,1.0,55.00
2021-04-12 22:26:02.358,0.09308411,0.7639725,1.2480102,0.2112036,-0.14394028,0.047954395,0.76578677,0.036950007,0.15795565,-0.16525416,0.012451126,0.47341415,0.44680825,-0.0801761,0.1325606,0.5443965,0.07929521,-0.5939011,-0.0048485543,0.2814205,775.64105,778.46155,793.36993,790.14655,900.14655,-0.22314453125,0.0030517578125,0.97918701171875,4.97955322265625,-5.203857421875,0.919647216796875,1,1.0,1.0,1.0,1.0,60.00
2021-04-12 22:26:02.791,0.09308411,0.7639725,1.2480102,0.2112036,-0.14394028,0.047954395,0.76578677,0.036950007,0.15795565,-0.16525416,0.012451126,0.47341415,0.44680825,-0.0801761,0.1325606,0.5443965,0.07929521,-0.5939011,-0.0048485543,0.2814205,800.219775,778.058625,784.50549,,,,,,,,,,,,,,,/muse/elements/blink
2021-04-12 22:26:02.885,0.09308411,0.7639725,1.2480102,0.2112036,-0.14394028,0.047954395,0.76578677,0.036950007,0.15795565,-0.16525416,0.012451126,0.47341415,0.44680825,-0.0801761,0.1325606,0.5443965,0.07929521,-0.5939011,-0.0048485543,0.2814205,824.7985,777.6557,775.64105,819.15753,572.96704,-0.2149658203125,0.0274658203125,0.97900390625,5.7720947265625,-10.609588623046875,13.600311279296875,1,1.0,1.0,1.0,1.0,60.00
2021-04-12 22:26:03.413,0.09308411,0.7639725,1.2480102,0.2112036,-0.14394028,0.047954395,0.76578677,0.036950007,0.15795565,-0.16525416,0.012451126,0.47341415,0.44680825,-0.0801761,0.1325606,0.5443965,0.07929521,-0.5939011,-0.0048485543,0.2814205,826.0073,777.6557,800.6227,824.7985,958.97437,-0.18988037109375,0.06640625,0.960205078125,8.912353515625,-5.016937255859375,11.64886474609375,1,2.0,1.0,1.0,2.0,60.00
2021-04-12 22:26:03.939,0.09308411,0.7639725,1.2480102,0.2112036,-0.14394028,0.047954395,0.76578677,0.036950007,0.15795565,-0.16525416,0.012451126,0.47341415,0.44680825,-0.0801761,0.1325606,0.5443965,0.07929521,-0.5939011,-0.0048485543,0.2814205,810.293,778.86444,781.28204,806.26373,764.7619,-0.1884765625,0.070068359375,0.9718017578125,4.94964599609375,-1.981353759765625,-35.589599609375,1,2.0,1.0,1.0,2.0,60.00
2021-04-12 22:26:04.442,0.09308411,0.7639725,1.2480102,1.2850161,-0.14394028,0.047954395,0.76578677,0.9046596,0.15795565,-0.16525416,0.012451126,0.5280737,0.44680825,-0.0801761,0.1325606,0.6403448,0.07929521,-0.5939011,-0.0048485543,0.2377347,799.81683,745.0183,799.41394,778.0586,816.337,-0.15362548828125,0.02520751953125,0.99676513671875,14.90875244140625,-6.631927490234375,-22.751922607421875,1,1.0,1.0,1.0,1.0,60.00
2021-04-12 22:26:04.956,0.09308411,0.7639725,1.2535324,1.2850161,-0.14394028,0.047954395,0.66287243,0.9046596,0.15795565,-0.16525416,0.3512192,0.5280737,0.44680825,-0.0801761,0.3330266,0.6403448,0.07929521,-0.5939011,-0.22195624,0.2377347,797.3993,742.6007,782.8938,798.20514,779.2674,-0.1134033203125,0.02105712890625,0.99163818359375,1.293487548828125,-4.867401123046875,8.770294189453125,1,1.0,1.0,1.0,1.0,60.00
2021-04-12 22:26:05.238,0.09308411,0.9744569000000,1.16785835,1.2850161,-0.14394028,0.2828555975,0.5703902949999,0.9046596,0.15795565,-0.014937855,0.353379035,0.5280737,0.44680825,0.06461983,0.29994995,0.6403448,0.07929521,-0.50451855,-0.156261780000,0.2377347,804.85349999999,759.926725,783.69965,,,,,,,,,,,,,,,/muse/elements/blink
2021-04-12 22:26:05.470,0.09308411,1.1849413,1.0821843,1.2850161,-0.14394028,0.5177568,0.47790816,0.9046596,0.15795565,0.13537845,0.35553887,0.5280737,0.44680825,0.20941576,0.2668733,0.6403448,0.07929521,-0.415136,-0.09056732,0.2377347,812.3077,777.25275,784.5055,683.7729,733.73627,-0.20587158203125,0.08056640625,0.97247314453125,-2.452392578125,-4.59075927734375,34.37835693359375,1,1.0,1.0,1.0,1.0,60.00
2021-04-12 22:26:05.976,0.09308411,1.1849413,0.83482045,1.2850161,-0.14394028,0.5177568,0.22586626,0.9046596,0.15795565,0.13537845,0.12578338,0.5280737,0.44680825,0.20941576,0.20970473,0.6403448,0.07929521,-0.415136,0.00436895,0.2377347,790.54944,782.49084,788.5348,724.87177,783.2967,-0.2138671875,0.13299560546875,0.94415283203125,8.590850830078125,-2.093505859375,11.12548828125,1,1.0,1.0,1.0,1.0,60.00
2021-04-12 22:26:06.500,0.09308411,1.1849413,0.83482045,1.2850161,-0.14394028,0.5177568,0.22586626,0.9046596,0.15795565,0.13537845,0.12578338,0.5280737,0.44680825,0.20941576,0.20970473,0.6403448,0.07929521,-0.415136,0.00436895,0.2377347,803.44324,790.54944,783.2967,741.79486,990.0,-0.17901611328125,0.10882568359375,0.952880859375,4.3365478515625,0.680389404296875,0.299072265625,1,1.0,1.0,1.0,1.0,60.00
2021-04-12 22:26:07.012,0.21578681,0.9349147,0.7774286,1.2850161,0.38493475,0.40232608,0.58790344,0.9046596,0.5091165,0.47671282,0.32780552,0.5280737,0.5197914,0.11621553,0.40975744,0.6403448,-0.17397027,-0.40107775,0.09249423,0.2377347,806.26373,765.9707,799.011,751.06226,762.3443,-0.2396240234375,0.12738037109375,0.980224609375,9.22637939453125,3.955230712890625,2.788848876953125,1,1.0,1.0,1.0,1.0,60.00
2021-04-12 22:26:07.517,0.25709128,0.8746209,0.61602336,1.2850161,0.31454477,0.26034567,0.4176239,0.9046596,0.54561555,0.47671282,0.3642167,0.5280737,0.47145903,0.014343585,0.35342836,0.6403448,-0.023832906,-0.35814816,0.05244662,0.2377347,801.4286,797.8022,786.9231,785.7143,738.5714,-0.23211669921875,0.1373291015625,0.98577880859375,-2.91595458984375,-12.359161376953125,0.0299072265625,1,1.0,1.0,1.0,1.0,60.00
2021-04-12 22:26:08.026,0.21214767,1.0707192,0.5006733,1.2850161,0.22053587,0.30773473,0.3330221,0.9046596,0.55121064,0.49151164,0.45400736,0.5280737,0.43390137,-0.020459734,0.31985185,0.6403448,0.03424722,-0.38094217,-7.227305E-4,0.2377347,798.20514,791.75824,777.25275,761.53845,676.1172,-0.2725830078125,0.029541015625,0.92633056640625,-7.955322265625,-2.355194091796875,1.398162841796875,1,1.0,1.0,1.0,1.0,60.00
2021-04-12 22:26:08.556,0.28097406,1.0001572,0.24764788,1.2850161,0.067400366,0.46878654,0.106163196,0.9046596,0.50824076,0.66261476,0.24720894,0.5280737,0.32478714,0.010401994,0.22372676,0.6403448,0.08886759,-0.39167172,-0.097270094,0.2377347,795.78754,774.83514,804.65204,848.97437,799.41394,-0.30126953125,0.05975341796875,0.95684814453125,5.106658935546875,-12.209625244140625,-1.517791748046875,1,1.0,1.0,1.0,1.0,60.00
2021-04-12 22:26:09.085,0.37685442,0.956049,0.31029055,1.2850161,0.07728703,0.5480015,0.13601285,0.9046596,0.36350676,0.640182,0.19878365,0.5280737,0.3261669,0.016206218,0.1585198,0.6403448,0.024353426,-0.4684749,-0.24950254,0.2377347,796.5934,786.1172,801.8315,787.72894,953.73627,-0.25531005859375,0.04254150390625,0.966552734375,5.121612548828125,-4.9346923828125,-0.964508056640625,1,1.0,1.0,1.0,1.0,60.00
2021-04-12 22:26:09.588,0.47437996,0.55065215,0.4877763,1.2850161,0.1739181,0.58938175,0.13582106,0.9046596,0.38996634,0.74475145,0.41177166,0.5280737,0.4261038,0.04126781,0.147589,0.6403448,-0.10354121,-0.50028193,-0.32397866,0.2377347,791.3553,779.2674,776.8498,769.59705,707.1429,-0.258056640625,0.040771484375,0.96783447265625,3.910369873046875,-5.764617919921875,2.280426025390625,1,1.0,1.0,1.0,1.0,60.00
2021-04-12 22:26:10.104,0.5237703,0.8759189,0.8406205,1.2850161,0.3060628,0.73695904,0.4171035,0.9046596,0.43805313,0.7457884,0.5816867,0.5280737,0.5179051,0.047766395,0.170227,0.6403448,-0.12747037,-0.48291388,-0.16991417,0.2377347,665.2381,753.8828,827.2161,649.12085,715.6044,-0.2589111328125,0.03399658203125,0.96820068359375,3.476715087890625,-4.882354736328125,3.596343994140625,1,1.0,1.0,1.0,1.0,60.00
2021-04-12 22:26:10.238,0.50702594,0.9290134999999,0.89426575,1.2850161,0.309060325,0.77723257,0.501328,0.9046596,0.43150063,0.745520175,0.603783085,0.5280737,0.5285645999999,0.0872506674999,0.1976874599999,0.6403448,-0.1210604925,-0.481432109999,-0.057162580000,0.2377347,733.5348,758.919425,810.69597,,,,,,,,,,,,,,,/muse/elements/blink
2021-04-12 22:26:10.630,0.49028158,0.9821081,0.947911,1.2850161,0.31205785,0.8175061,0.5855525,0.9046596,0.42494813,0.74525195,0.62587947,0.5280737,0.5392241,0.12673494,0.22514792,0.6403448,-0.114650615,-0.47995034,0.05558901,0.2377347,801.8315,763.95605,794.17584,788.93774,682.96704,-0.251708984375,0.03302001953125,0.9716796875,5.061798095703125,-4.598236083984375,-0.067291259765625,1,1.0,1.0,1.0,1.0,60.00
2021-04-12 22:26:11.154,0.5829621,0.9895738,1.0319455,1.2850161,0.38689914,0.808212,0.71089596,0.9046596,0.36442754,0.74525195,0.62837994,0.5280737,0.53367513,0.14496124,0.2556117,0.6403448,-0.006442737,-0.47931617,0.15825082,0.2377347,806.26373,775.64105,795.38464,809.4872,769.59705,-0.26025390625,0.0380859375,0.9658203125,4.687957763671875,-3.267364501953125,1.6448974609375,1,1.0,1.0,1.0,1.0,60.00
2021-04-12 22:26:11.670,0.043225504,0.4457857,0.8022598,1.2850161,0.163702,0.30651045,0.5800363,0.9046596,0.34514105,0.46052036,0.5508578,0.5280737,0.4582729,0.058610983,0.2838139,0.6403448,-0.2185396,-0.50625974,0.07900444,0.2377347,801.02563,769.19415,786.1172,785.7143,766.3736,-0.269775390625,0.04144287109375,0.96697998046875,5.016937255859375,-4.56085205078125,1.07666015625,1,1.0,1.0,1.0,1.0,60.00
2021-04-12 22:26:12.180,0.40720293,0.3557748,0.43722168,0.63731474,0.27822253,0.28069893,0.26253036,0.18617524,0.73723155,0.38036036,0.4548823,0.48556128,0.5003006,0.02373192,0.3354472,0.4454655,-0.049477097,-0.39532682,-0.017199893,0.092153564,790.14655,772.01465,782.0879,803.8461,810.696,-0.27337646484375,0.042236328125,0.9656982421875,4.26177978515625,-4.74029541015625,0.785064697265625,1,1.0,1.0,1.0,1.0,60.00
2021-04-12 22:26:12.686,0.4520219,0.44117647,0.094567485,0.55769396,0.39161307,0.29244706,0.34188488,0.2497385,0.77263707,0.38122037,0.21826269,0.5091984,0.5496524,0.13129109,0.42848885,0.4936751,0.06626585,-0.2897286,-0.028232634,0.14868173,790.9524,776.8498,792.5641,809.89014,845.34796,-0.2723388671875,0.04046630859375,0.96490478515625,5.001983642578125,-5.196380615234375,0.91217041015625,1,1.0,1.0,1.0,1.0,60.00
2021-04-12 22:26:13.214,0.45378393,0.6807938,0.45092842,0.5916989,0.3655328,0.3651845,0.57237655,0.3412832,0.83133787,0.37979925,0.19999805,0.54431856,0.5970957,0.19977553,0.41165888,0.49652803,0.183803,-0.22628267,-0.024517883,0.12981161,809.89014,805.4579,764.35895,780.4762,737.3626,-0.2672119140625,0.0433349609375,0.9617919921875,4.9346923828125,-5.226287841796875,0.216827392578125,1,1.0,1.0,1.0,1.0,60.00
2021-04-12 22:26:13.715,0.348048,0.8210501,0.7779924,0.59642535,0.2924788,0.48669356,0.6947897,0.52453315,0.7084619,0.5942523,0.57665056,0.55555385,0.5688824,0.21618061,0.3439302,0.4802896,0.18536842,-0.2644506,-0.026449153,0.17001948,809.89014,787.326,800.6227,792.5641,648.315,-0.2655029296875,0.0401611328125,0.97210693359375,4.433746337890625,-4.6954345703125,0.5084228515625,1,1.0,1.0,1.0,1.0,60.00
2021-04-12 22:26:14.222,0.40081623,1.0104748,0.8943312,0.66975033,0.06993958,0.53284234,0.6740349,0.5314747,0.5976705,0.6038938,0.57566917,0.5931235,0.48279855,0.15211976,0.17371023,0.42139298,0.08474898,-0.38270354,-0.067758754,0.078647174,812.71063,781.28204,798.60803,830.0366,1019.81683,-0.3876953125,0.031982421875,0.9400634765625,3.895416259765625,1.203765869140625,2.1533203125,1,1.0,1.0,1.0,1.0,60.00
2021-04-12 22:26:14.735,0.5924026,1.0218539,0.8878386,0.7372696,0.13869621,0.56373507,0.5211986,0.5261566,0.5390612,0.5447046,0.57033956,0.659733,0.38749534,0.14875938,0.17946136,0.44257236,0.030288842,-0.53468895,-0.09425327,0.0573998,806.26373,810.293,804.2491,823.1868,827.619,-0.37939453125,0.02130126953125,0.92230224609375,2.863616943359375,-9.876861572265625,3.372039794921875,1,1.0,1.0,1.0,1.0,60.00
2021-04-12 22:26:15.242,0.60427684,0.9992757,0.9401725,0.69990176,0.14825743,0.43354866,0.32633996,0.39602706,0.6840247,0.5993821,0.4778391,0.6615627,0.35614577,0.22826236,0.23108658,0.41415963,0.07546085,-0.58977324,-0.09841339,0.059541777,796.1905,788.1319,806.26373,803.0403,574.9817,-0.3271484375,0.0411376953125,0.93670654296875,4.74029541015625,-7.917938232421875,2.250518798828125,1,1.0,1.0,1.0,1.0,60.00
2021-04-12 22:26:15.502,0.5907315200000,0.94631753,0.96960565,0.702118605,0.182308315,0.377614605,0.240608455,0.40826298,0.68740702,0.58392483,0.4487965000000,0.6138163299999,0.350947545,0.217758275,0.240387865,0.424834895,0.112497695,-0.571923519999,-0.0909314475,0.0957303735,802.033,787.12455,801.630035,,,,,,,,,,,,,,,/muse/elements/blink
2021-04-12 22:26:15.759,0.5771862,0.89335936,0.9990388,0.70433545,0.2163592,0.32168055,0.15487695,0.4204989,0.69078934,0.56846756,0.4197539,0.56606996,0.34574932,0.20725419,0.24968915,0.43551016,0.14953454,-0.5540738,-0.083449505,0.13191897,807.8755,786.1172,796.99634,832.8571,865.4945,-0.28277587890625,0.03582763671875,0.95855712890625,4.007568359375,-7.274932861328125,-0.58319091796875,1,1.0,1.0,1.0,1.0,60.00
2021-04-12 22:26:16.287,0.3423112,0.8039334,1.1089234,0.6546187,0.17315386,0.349473,0.31312847,0.460692,0.6342774,0.57231486,0.35792926,0.37964502,0.3080317,0.13310422,0.26112813,0.37267202,0.15918216,-0.48475578,4.6339617E-4,0.26445076,786.9231,789.7436,798.60803,819.15753,931.978,-0.28399658203125,0.0418701171875,0.96380615234375,4.605712890625,-6.078643798828125,0.88226318359375,1,1.0,1.0,1.0,1.0,60.00
2021-04-12 22:26:16.718,0.240855195,0.7988756,0.999079625,0.6546187,0.2140953599999,0.35793361,0.342677595,0.460692,0.6285264749999,0.53625618,0.32137689,0.37964502,0.2812742700000,0.0736257255,0.258831545,0.37267202,0.151472575,-0.41699014,-0.044177931914,0.26445076,803.64470000000,787.32602500000,789.74359,,,,,,,,,,,,,,,/muse/elements/blink
2021-04-12 22:26:16.816,0.13939919,0.7938178,0.88923585,0.6546187,0.25503686,0.36639422,0.37222672,0.460692,0.62277555,0.5001975,0.28482452,0.37964502,0.25451684,0.014147231,0.25653496,0.37267202,0.14376299,-0.3492245,-0.08881926,0.26445076,820.3663,784.90845,780.87915,834.4689,749.0476,-0.27947998046875,0.03704833984375,0.96209716796875,5.121612548828125,-4.628143310546875,0.04486083984375,1,1.0,1.0,1.0,1.0,60.00
2021-04-12 22:26:17.325,0.13939919,0.6935182,0.7729608,0.6546187,0.25503686,0.42722425,0.5222382,0.460692,0.62277555,0.47004145,0.5054612,0.37964502,0.25451684,0.01606799,0.26932216,0.37267202,0.14376299,-0.36308977,-0.057437547,0.26445076,811.0989,793.7729,801.4286,809.4872,674.90845,-0.27484130859375,0.03851318359375,0.95721435546875,4.747772216796875,-5.211334228515625,-0.201873779296875,1,1.0,1.0,1.0,1.0,60.00
2021-04-12 22:26:17.852,0.13939919,0.8302751,0.5740299,0.6546187,0.25503686,0.37315765,0.46994987,0.460692,0.62277555,0.4582495,0.5287183,0.37964502,0.25451684,0.18772152,0.22957394,0.37267202,0.14376299,-0.38126037,-0.0097088795,0.26445076,805.05493,798.20514,763.95605,776.04395,674.90845,-0.27978515625,0.03704833984375,0.9599609375,4.5458984375,-4.673004150390625,-0.441131591796875,1,1.0,1.0,1.0,1.0,60.00
2021-04-12 22:26:18.359,0.13939919,1.0524898,0.6336462,0.6546187,0.25503686,0.68506557,0.50868624,0.460692,0.62277555,0.8537473,0.53182226,0.37964502,0.25451684,0.28460157,0.15643433,0.37267202,0.14376299,-0.59080017,0.08645488,0.26445076,801.8315,780.4762,794.9817,794.57874,710.3663,-0.2783203125,0.03167724609375,0.96435546875,5.031890869140625,-4.912261962890625,0.9869384765625,1,2.0,1.0,1.0,2.0,60.00
2021-04-12 22:26:18.862,0.66876274,1.098783,0.521239,0.6546187,0.60749984,0.673989,0.3924244,0.460692,0.2768829,0.8441152,0.5331358,0.37964502,0.37222207,0.31865048,0.07639753,0.37267202,0.03419702,-0.47622,0.080127746,0.26445076,789.7436,790.14655,789.7436,825.2015,728.9011,-0.2725830078125,0.0330810546875,0.96484375,4.568328857421875,-4.508514404296875,1.2261962890625,1,1.0,1.0,1.0,1.0,60.00
2021-04-12 22:26:19.374,0.4967866,0.99472857,0.24211833,0.94689417,0.53000265,0.64788854,0.27145696,0.56141776,0.48874292,0.798635,0.40310252,0.5238886,0.48987952,0.21843484,0.09345711,0.44241598,0.0317654,-0.42828962,-0.1260083,-0.011926496,788.5348,790.54944,787.326,798.20514,608.4249,-0.27264404296875,0.03521728515625,0.964111328125,6.878662109375,-4.5758056640625,2.953338623046875,1,1.0,1.0,1.0,1.0,60.00
2021-04-12 22:26:19.595,0.42976128,0.7949128350000,0.2887480249999,0.928180985,0.497012475,0.4933892949999,0.28548181,0.55101475,0.48102326,0.66861415,0.36642109,0.5238886,0.51859566,0.16332631,0.08973035,0.45699904,0.04031662,-0.38662478,-0.14357755,-0.011300431,796.59342,789.13919,785.512825,,,,,,,,,,,,,,,/muse/elements/blink
2021-04-12 22:26:19.884,0.36273596,0.5950971,0.33537772,0.9094678,0.4640223,0.33889005,0.29950666,0.54061174,0.4733036,0.5385933,0.32973966,0.5238886,0.5473118,0.10821778,0.08600359,0.4715821,0.04886784,-0.34495994,-0.1611468,-0.010674366,804.65204,787.72894,783.69965,788.93774,614.0659,-0.2642822265625,0.1395263671875,0.96337890625,7.633819580078125,-6.519775390625,8.83758544921875,1,1.0,1.0,1.0,1.0,60.00
2021-04-12 22:26:20.391,-0.08197835,0.564583,0.5062391,0.80983835,0.40082696,0.31612423,0.3108239,0.4757496,0.46806693,0.2835911,0.11804843,0.38977587,0.61816007,0.059952542,0.11568781,0.5189797,-0.039732277,-0.3433331,-0.10608553,-0.01231024,800.2198,790.54944,796.5934,813.91943,681.3553,-0.29510498046875,-0.04010009765625,0.9205322265625,-17.80975341796875,4.344024658203125,-1.435546875,1,1.0,1.0,1.0,1.0,60.00
2021-04-12 22:26:20.909,-0.09707748,0.7423839,0.5106658,0.8112354,0.3994014,0.29564002,0.3093356,0.4699065,0.46803808,0.3763785,0.15709448,0.33735153,0.6118028,0.083824016,0.12686692,0.54591876,-0.07593251,-0.3250436,-0.016878055,-0.0022164874,792.1612,790.14655,788.5348,789.7436,649.92676,-0.23602294921875,0.02392578125,0.97637939453125,4.762725830078125,-2.75146484375,3.581390380859375,1,1.0,1.0,1.0,1.0,60.00
2021-04-12 22:26:21.428,0.7174959,0.74695945,0.4487971,0.8225747,0.52495784,0.25050157,0.2820639,0.40438172,0.6718318,0.48688388,0.27564365,0.24029675,0.63250387,0.09339038,0.21593203,0.48107415,0.036923368,-0.3248684,-0.043274466,0.049589895,801.8315,798.60803,786.1172,827.2161,876.3736,-0.24957275390625,0.01556396484375,0.97161865234375,6.422576904296875,1.248626708984375,2.878570556640625,1,1.0,1.0,1.0,1.0,60.00
2021-04-12 22:26:21.946,0.63731074,0.94423854,0.60247594,0.78798866,0.5778963,0.6480669,0.5014055,0.72225267,0.67473185,0.52201134,0.47593242,0.36655715,0.56915826,0.18093702,0.269436,0.52726537,0.0071499525,-0.41823408,-0.10901259,0.015422972,654.7619,774.43225,795.78754,645.89746,603.5897,-0.25177001953125,0.01324462890625,0.96502685546875,4.284210205078125,-4.9945068359375,-0.127105712890625,1,1.0,1.0,1.0,1.0,60.00
2021-04-12 22:26:22.097,0.6365529,0.94128067,0.63459414,0.7994253600000,0.598335685,0.69513165,0.518367035,0.7769136350000,0.61085576,0.54296862,0.46181989,0.364755795,0.55157608,0.204127625,0.26777148,0.5379529,-0.009817966749,-0.46607606,-0.132393150000,-0.0147092705,736.15384999999,775.64102499999,799.21246999999,,,,,,,,,,,,,,,/muse/elements/blink
2021-04-12 22:26:22.455,0.63579506,0.9383228,0.66671234,0.81086206,0.61877507,0.7421964,0.53532857,0.8315746,0.54697967,0.5639259,0.44770736,0.36295444,0.5339939,0.22731823,0.26610696,0.54864043,-0.026785886,-0.51391804,-0.15577371,-0.044841513,817.5458,776.8498,802.6374,806.6667,680.54944,-0.25927734375,0.015869140625,0.968994140625,4.478607177734375,-2.684173583984375,1.62994384765625,1,1.0,1.0,1.0,1.0,60.00
2021-04-12 22:26:22.980,0.44696462,0.93940234,0.63318425,0.7092649,0.6573771,0.7377733,0.50908756,1.0314645,0.3020311,0.5427935,0.48292932,0.31989375,0.4296118,0.22633927,0.21527036,0.6070964,-0.050435543,-0.54674035,-0.0512382,-0.0622146,795.38464,775.2381,790.54944,809.4872,823.9927,-0.2674560546875,0.01983642578125,0.961669921875,5.450592041015625,-5.031890869140625,2.31781005859375,1,1.0,1.0,1.0,1.0,50.00
2021-04-12 22:26:23.492,0.44696462,0.5665801,0.21386981,0.7092649,0.6573771,0.40281793,0.18280207,1.0314645,0.3020311,0.5358485,0.3840777,0.31989375,0.4296118,0.09883233,0.13269764,0.6070964,-0.050435543,-0.5229494,0.015180414,-0.0622146,782.49084,774.43225,792.1612,818.7546,859.85345,-0.26654052734375,0.0211181640625,0.96710205078125,5.091705322265625,-5.151519775390625,0.04486083984375,1,1.0,1.0,1.0,1.0,50.00
2021-04-12 22:26:23.992,0.07595439,0.30926532,-0.050198972,0.2324621,0.09229428,0.202339,0.043271847,0.21555682,0.34367704,0.42356315,0.31956702,0.26288027,0.48658195,-0.032779165,0.122528024,0.45320654,0.14163616,-0.43757862,0.043116465,0.34205946,810.696,786.1172,794.57874,819.15753,843.73627,-0.25543212890625,0.0379638671875,0.96636962890625,5.084228515625,-5.27862548828125,2.97576904296875,1,1.0,1.0,1.0,1.0,50.00
2021-04-12 22:26:24.500,0.03598488,0.91192365,0.39551604,0.54908705,0.15512514,0.5700037,0.19232683,0.5607311,0.38811454,0.8083573,0.34065923,0.5331151,0.49211437,-0.04822933,0.15637985,0.6284545,0.07750126,-0.4277289,-0.028349482,0.30663347,725.2747,779.67035,792.5641,716.8132,611.2454,-0.25848388671875,0.05450439453125,0.9659423828125,6.41510009765625,-4.0673828125,4.254302978515625,1,1.0,1.0,1.0,1.0,50.00
2021-04-12 22:26:24.726,0.0270455555,0.9972342750000,0.4986709350000,0.5833223750000,0.152370705,0.6548321500000,0.250862315,0.5966872000000,0.38789424,0.8083573,0.322089415,0.5331151,0.4962354850000,0.0064286659999,0.179071195,0.6445164999999,0.0516936585,-0.43101958,-0.068439156,0.294982895,759.5238,793.36997500000,789.13920000000,,,,,,,,,,,,,,,/muse/elements/blink
2021-04-12 22:26:25.005,0.018106231,1.0825449,0.60182583,0.6175577,0.14961627,0.7396606,0.3093978,0.6326433,0.38767394,0.8083573,0.3035196,0.5331151,0.5003566,0.061086662,0.20176254,0.6605785,0.025886057,-0.43431026,-0.10852883,0.28333232,793.7729,807.0696,785.7143,815.5311,807.47253,-0.25518798828125,0.07666015625,0.97119140625,4.41131591796875,-4.35150146484375,1.136474609375,1,1.0,1.0,1.0,1.0,50.00
2021-04-12 22:26:25.512,-0.036768984,1.2519028,0.79647183,0.81111485,0.23988448,0.8871914,0.4897117,0.8342696,0.07029378,0.79903936,0.31302366,0.52966464,0.50082225,0.111913584,0.21363495,0.81350344,-0.050120883,-0.49131504,-0.1935867,0.24315473,813.1135,815.12823,805.05493,819.15753,781.685,-0.2587890625,0.06719970703125,0.9647216796875,3.6785888671875,-4.852447509765625,0.351409912109375,1,1.0,1.0,1.0,1.0,50.00
2021-04-12 22:26:26.023,-0.013963697,0.89070994,0.69021714,0.8831304,0.25115272,0.67579365,0.38378406,0.90434664,-0.08353266,0.7745788,0.27059954,0.52556527,0.52220654,0.11281618,0.26000947,0.83930457,-0.09734404,-0.5206272,-0.13567115,0.19548133,796.99634,805.05493,796.5934,798.20514,649.92676,-0.25628662109375,0.06243896484375,0.96563720703125,4.613189697265625,-4.7552490234375,1.06170654296875,1,1.0,1.0,1.0,1.0,50.00
2021-04-12 22:26:26.527,-0.07475062,0.8456862,0.61027646,0.21407844,0.16587697,0.3801853,0.33901995,0.2567032,0.5589215,0.77691466,0.35575345,0.448606,0.24230541,0.014232884,0.26522803,0.4274282,0.051692795,-0.5183785,-0.13054939,0.24064851,818.3516,802.23444,797.8022,819.15753,677.72894,-0.25689697265625,0.06036376953125,0.969970703125,4.194488525390625,-5.510406494140625,-0.11962890625,1,1.0,1.0,1.0,1.0,50.00
2021-04-12 22:26:27.061,-0.053991385,0.98571754,0.86060256,0.9025883,0.21926706,0.7549898,0.3979578,0.6031449,0.71994597,1.0919002,0.78652984,0.99883026,0.2783483,0.0064202244,0.3118901,0.43439648,0.16282673,-0.49196184,-0.05644974,0.32927945,780.4762,807.8755,799.011,803.44324,934.3956,-0.25299072265625,0.05419921875,0.9669189453125,5.12908935546875,-5.121612548828125,-1.996307373046875,1,1.0,1.0,1.0,1.0,50.00
2021-04-12 22:26:27.343,-0.050930556,1.05243652,0.902750405,0.9025883,0.226696965,0.79210035,0.47109148,0.6031449,0.71994597,1.09165425,0.78596252,0.99883026,0.27690155,0.0051154088,0.2964576650000,0.43439648,0.17532744,-0.49102004,-0.0461465525,0.32927945,787.93041999999,830.64105,789.34067499999,,,,,,,,,,,,,,,/muse/elements/blink
2021-04-12 22:26:27.572,-0.047869727,1.1191555,0.94489825,0.9025883,0.23412687,0.8292109,0.54422516,0.6031449,0.71994597,1.0914083,0.7853952,0.99883026,0.2754548,0.0038105932,0.28102523,0.43439648,0.18782815,-0.49007824,-0.035843365,0.32927945,795.38464,853.4066,779.67035,788.1319,854.61536,-0.2427978515625,0.0380859375,0.9730224609375,4.246826171875,-2.968292236328125,-2.7215576171875,1,1.0,1.0,1.0,1.0,50.00
2021-04-12 22:26:28.077,-0.03032312,1.1780552,0.9863524,1.1566828,0.27572018,1.0209011,0.6566184,0.7933761,0.718061,1.0336778,0.78524274,0.99883026,0.31798825,-0.0144027,0.28842,0.4412547,0.26694918,-0.456006,0.036417294,0.40285233,826.0073,837.6923,792.1612,842.1245,755.09155,-0.24481201171875,0.03582763671875,0.97216796875,5.510406494140625,-4.26177978515625,1.727142333984375,1,1.0,1.0,1.0,1.0,50.00
2021-04-12 22:26:28.606,0.013227609,1.2530489,0.58345413,1.2075034,0.22222744,1.0523866,0.4644619,0.84262145,0.7060092,1.0161072,0.43155196,0.99776745,0.30979586,-0.011956781,0.22924921,0.45536634,0.26004082,-0.47799456,0.02673904,0.39412367,796.1905,788.5348,787.72894,782.0879,693.44324,-0.24658203125,0.0361328125,0.96929931640625,4.658050537109375,-4.598236083984375,1.79443359375,1,1.0,1.0,1.0,1.0,50.00
2021-04-12 22:26:29.132,0.013227609,1.2530489,0.4491254,0.46931005,0.22222744,1.0523866,0.35695803,0.3175801,0.7060092,1.0161072,0.46197549,0.9411471,0.30979586,-0.011956781,0.28117585,0.4478484,0.26004082,-0.47799456,0.04281254,0.5190423,788.5348,792.96704,788.1319,828.022,832.0513,-0.244873046875,0.03460693359375,0.96923828125,4.433746337890625,-4.77020263671875,0.91217041015625,1,1.0,1.0,1.0,1.0,50.00
2021-04-12 22:26:29.656,0.36653504,1.1450847,0.2259159,0.5491136,-0.008202554,0.43645504,0.079982296,0.32121307,0.6111444,0.27930737,0.33642504,0.9544389,0.5368544,0.16735403,0.30381075,0.49663118,0.24385108,-0.24847905,0.04172322,0.34441337,801.4286,781.685,783.2967,792.5641,717.619,-0.24224853515625,0.03118896484375,0.97161865234375,4.583282470703125,-4.777679443359375,1.016845703125,1,1.0,1.0,1.0,1.0,50.00
2021-04-12 22:26:30.182,0.47595683,1.1654464,0.73447096,0.5491136,0.1468602,0.6654419,0.36955154,0.32121307,0.6778839,0.5213796,0.4974683,0.9544389,0.5703409,0.10806481,0.35409817,0.49663118,0.16047557,-0.30453408,-0.039461218,0.34441337,781.685,749.0476,794.9817,803.44324,837.6923,-0.23687744140625,0.03277587890625,0.9744873046875,4.478607177734375,-4.8150634765625,1.92901611328125,1,1.0,1.0,1.0,1.0,50.00
2021-04-12 22:26:30.219,0.470751495,1.1686126,0.812174705,0.5630335,0.16835149,0.6599781650000,0.418267505,0.306886825,0.627973425,0.5213884150000,0.44710939,0.6916054,0.58420302,0.10054428,0.348479135,0.50841979,0.1505679,-0.312311189999,-0.053482242,0.24923651,790.750915,756.30035,801.83152,,,,,,,,,,,,,,,/muse/elements/blink
2021-04-12 22:26:30.711,0.46554616,1.1717788,0.88987845,0.5769534,0.18984278,0.65451443,0.46698347,0.29256058,0.57806295,0.52139723,0.39675048,0.4287719,0.59806514,0.09302375,0.3428601,0.5202084,0.14066023,-0.3200883,-0.067503266,0.15405965,799.81683,763.5531,808.68134,825.6044,846.55676,-0.24456787109375,0.0355224609375,0.97235107421875,4.94964599609375,-4.254302978515625,1.712188720703125,1,1.0,1.0,1.0,1.0,50.00
2021-04-12 22:26:31.217,0.61889595,1.0895284,0.9082005,0.5538427,0.33025914,0.6770277,0.46716017,0.26612228,0.30405518,0.55493563,0.41073266,0.3864151,0.62336683,-0.01838478,0.29608852,0.5076087,-0.040445484,-0.40749702,-0.148936,0.13208534,800.2198,767.5824,790.14655,796.5934,754.68866,-0.23309326171875,0.03802490234375,0.970703125,4.687957763671875,-4.658050537109375,0.829925537109375,1,1.0,1.0,1.0,1.0,50.00
2021-04-12 22:26:31.723,0.36363497,0.9305082,0.38723662,0.5538427,-0.23563083,0.4673471,0.06807353,0.26612228,0.45087078,0.39735106,0.19972563,0.3864151,0.349481,-0.011743107,0.27496925,0.5076087,0.10786867,-0.4117346,-0.031681705,0.13208534,793.36993,774.83514,778.0586,779.2674,611.2454,-0.2274169921875,0.0418701171875,0.97882080078125,4.478607177734375,-4.6356201171875,0.635528564453125,1,1.0,1.0,1.0,1.0,50.00
2021-04-12 22:26:32.241,0.15053591,0.7156886,0.3390747,0.21702984,-0.3644328,0.40595064,-0.025342843,0.10252928,0.4908438,0.4156328,0.31268698,0.35533494,0.27596214,-0.011877251,0.29595587,0.5849534,0.011651501,-0.3583261,-0.04178277,-0.07771469,819.9634,778.46155,807.0696,813.5165,854.61536,-0.234619140625,0.03680419921875,0.9739990234375,5.091705322265625,-4.179534912109375,1.256103515625,1,1.0,1.0,1.0,1.0,50.00
2021-04-12 22:26:32.748,0.04317473,0.5400235,0.419393,0.18154185,-0.35868886,0.45382994,0.22100799,0.11461962,0.49900663,0.48102224,0.47849092,0.50512373,0.3143057,0.03621471,0.34157136,0.60885936,0.069412075,-0.30111364,-0.012889145,0.011981041,798.20514,784.90845,790.54944,812.3077,834.87177,-0.234130859375,0.03973388671875,0.975830078125,4.68048095703125,-4.844970703125,1.4654541015625,1,1.0,1.0,1.0,1.0,50.00
2021-04-12 22:26:33.251,-0.25263864,0.4516401,0.4339966,0.099326275,-0.20835464,0.55128306,0.2453756,0.059659965,0.39830485,0.5225897,0.45729837,0.51433796,0.36967918,0.054926287,0.31440657,0.6178212,0.012118682,-0.3514914,-0.06548919,0.07096966,787.72894,779.2674,788.93774,778.0586,604.3956,-0.23907470703125,0.04217529296875,0.973876953125,4.56085205078125,-4.643096923828125,1.368255615234375,1,1.0,1.0,1.0,1.0,60.00
2021-04-12 22:26:33.768,-0.16585302,0.5352597,0.46193984,0.20873588,-0.12885989,0.57904387,0.31225562,0.20444715,0.38301578,0.5256615,0.5749477,0.5146364,0.39627254,0.113782845,0.2562265,0.5997662,0.02254922,-0.40604082,-0.11901468,0.13664132,811.9048,769.19415,791.3553,807.0696,898.1319,-0.2266845703125,0.04278564453125,0.97357177734375,4.732818603515625,-6.033782958984375,1.009368896484375,1,1.0,1.0,1.0,1.0,60.00
2021-04-12 22:26:34.281,-0.07156434,0.57150733,0.35798907,0.2909997,-0.028400557,0.44408616,0.17062163,0.2391704,0.39336795,0.41084984,0.5561184,0.33472222,0.40899494,0.124590516,0.22120771,0.5421472,-0.06886199,-0.51098895,-0.22209607,0.1372498,791.75824,772.4176,788.93774,807.8755,821.5751,-0.23028564453125,0.044189453125,0.97320556640625,4.508514404296875,-4.97955322265625,1.24114990234375,1,1.0,1.0,1.0,1.0,60.00
2021-04-12 22:26:34.803,0.054995026,0.48139924,0.2488454,0.28087616,0.035526715,0.25197875,0.14058822,0.22678807,0.3458188,0.39494926,0.5544668,0.27206224,0.3924954,0.15463862,0.24773887,0.46497372,-0.0886366,-0.49676222,-0.31743273,0.055236787,805.4579,788.5348,796.99634,817.9487,819.5604,-0.2281494140625,0.03790283203125,0.97686767578125,4.239349365234375,-4.403839111328125,0.4486083984375,1,1.0,1.0,1.0,1.0,60.00
2021-04-12 22:26:35.327,0.06064911,0.5170843,0.40255463,0.26939422,0.17945787,0.066546515,0.16905685,0.08407323,0.3810544,0.3274891,0.5052041,0.5292481,0.42398098,0.15616025,0.3127284,0.4268503,-0.14011922,-0.6090755,-0.33819604,-0.030401235,794.57874,774.83514,786.9231,791.3553,635.82416,-0.2147216796875,0.0440673828125,0.97869873046875,4.314117431640625,-3.289794921875,1.86920166015625,1,1.0,1.0,1.0,1.0,60.00
2021-04-12 22:26:35.826,0.1318722,0.6972178200000,0.737505665,0.56445214,0.2492675750000,0.2980502574999,0.29969875,0.26000499,0.42959891,0.48870515,0.61816443,0.70831165,0.44497131,0.13506626,0.338931365,0.46968608,-0.119287179999,-0.59860552,-0.310112744999,-0.0334878495,803.644685,781.48352,785.311375,,,,,,,,,,,,,,,/muse/elements/blink
2021-04-12 22:26:35.851,0.20309529,0.87735134,1.0724567,0.85951006,0.31907728,0.529554,0.43034065,0.43593675,0.47814342,0.6499212,0.73112476,0.8873752,0.46596164,0.11397227,0.36513433,0.51252186,-0.09845514,-0.58813554,-0.28202945,-0.036574464,812.71063,788.1319,783.69965,830.84247,749.0476,-0.23095703125,0.047119140625,0.9716796875,4.20196533203125,-4.5458984375,0.61309814453125,1,1.0,1.0,1.0,1.0,60.00
2021-04-12 22:26:36.363,0.25119975,1.0212755,1.1161187,1.051701,0.38558164,0.76767,0.60476136,0.60638946,0.44835767,0.6573454,0.76797986,0.8869311,0.48934227,0.14805275,0.38928327,0.5620985,-0.04628504,-0.5759001,-0.115190305,0.031713843,802.23444,779.2674,798.60803,808.2784,732.1245,-0.234375,0.04547119140625,0.97406005859375,4.433746337890625,-4.299163818359375,1.18133544921875,1,1.0,1.0,1.0,1.0,60.00
2021-04-12 22:26:36.891,0.3925383,1.0227622,1.0857581,1.293877,0.43486685,0.7672763,0.60523087,0.82843286,0.39647058,0.6573454,0.76797986,0.88391393,0.5450552,0.15300217,0.33402547,0.6736688,0.051529273,-0.4412366,-0.051608626,0.1059727,785.7143,777.25275,790.54944,802.6374,873.5531,-0.23052978515625,0.0445556640625,0.9708251953125,4.747772216796875,-4.5758056640625,1.4056396484375,1,1.0,1.0,1.0,1.0,60.00
2021-04-12 22:26:37.416,0.3925383,0.8397266,0.64559937,1.293877,0.43486685,0.52057976,0.47032723,0.82843286,0.39647058,0.44180074,0.57706004,0.88391393,0.5450552,0.17994003,0.27810568,0.6736688,0.051529273,-0.45912072,0.014055558,0.1059727,840.9158,794.9817,786.9231,844.94507,758.315,-0.228271484375,0.04608154296875,0.9722900390625,4.972076416015625,-5.256195068359375,0.82244873046875,1,1.0,1.0,1.0,1.0,60.00
2021-04-12 22:26:37.420,0.3925383,0.8030355499999,0.688214085,1.293877,0.43486685,0.483303805,0.47558929,0.82843286,0.39647058,0.519528105,0.4063543149999,0.88391393,0.5450552,0.166363165,0.2600868600000,0.6736688,0.051529273,-0.4550125,0.009356132,0.1059727,825.2015,791.35532,790.9524,,,,,,,,,,,,,,,/muse/elements/blink
2021-04-12 22:26:37.944,0.3925383,0.7663445,0.7308288,1.293877,0.43486685,0.44602785,0.48085135,0.82843286,0.39647058,0.59725547,0.23564859,0.88391393,0.5450552,0.1527863,0.24206804,0.6736688,0.051529273,-0.45090428,0.004656706,0.1059727,809.4872,787.72894,794.9817,827.619,871.9414,-0.2318115234375,0.04296875,0.97576904296875,4.3963623046875,-5.076751708984375,0.97198486328125,1,1.0,1.0,1.0,1.0,60.00
2021-04-12 22:26:38.471,0.3925383,0.8647433,0.7199694,1.293877,0.43486685,0.43045408,0.4982747,0.82843286,0.39647058,0.59725547,0.0957358,0.88391393,0.5450552,0.28410238,0.23607635,0.6736688,0.051529273,-0.35178953,-0.011864195,0.1059727,796.99634,786.9231,793.36993,803.8461,738.97437,-0.22564697265625,0.04193115234375,0.97662353515625,4.583282470703125,-5.1141357421875,0.994415283203125,1,2.0,1.0,1.0,2.0,60.00
2021-04-12 22:26:38.987,0.41167733,0.75657284,0.70349616,1.293877,0.310852,0.40444016,0.47898576,0.82843286,0.5244674,0.59725547,0.22422206,0.88391393,0.20649554,0.2775352,0.22433896,0.6736688,0.053123105,-0.38505223,-0.05872425,0.1059727,809.0842,790.14655,794.9817,828.8278,853.00366,-0.22357177734375,0.04071044921875,0.97491455078125,4.628143310546875,-4.822540283203125,0.635528564453125,1,1.0,1.0,1.0,1.0,60.00
2021-04-12 22:26:39.507,0.30193442,0.9701552,0.48732457,1.293877,0.38136947,0.41885138,0.2317462,0.82843286,0.5912237,0.5748908,0.17558494,0.88391393,0.23304845,0.2663623,0.18522635,0.6736688,-0.002079012,-0.33324584,-0.08771926,0.1059727,796.99634,776.04395,796.99634,798.20514,768.3883,-0.22271728515625,0.04217529296875,0.972412109375,4.59075927734375,-4.85992431640625,0.11962890625,1,1.0,1.0,1.0,1.0,60.00
2021-04-12 22:26:40.023,0.3244393,0.9910201,0.36948016,0.24338014,0.38293687,0.43801582,0.08779913,0.11105584,0.6362261,0.53367734,0.20724112,0.3417338,0.32121074,0.14439103,0.304852,0.38410762,0.054496326,-0.4520667,-0.14271949,0.12773418,798.20514,778.0586,787.72894,793.7729,792.96704,-0.22149658203125,0.04425048828125,0.97625732421875,4.74029541015625,-4.149627685546875,1.293487548828125,1,1.0,1.0,1.0,1.0,60.00
2021-04-12 22:26:40.536,0.25932497,0.96918815,0.01594807,0.34789756,0.29456782,0.38859418,-0.17762265,0.12529798,0.5821763,0.5336973,0.1476151,0.35923156,0.3281761,0.1354795,0.3168958,0.4513444,0.122041784,-0.4428873,-0.15746737,0.19717881,795.78754,786.1172,806.6667,808.68134,754.68866,-0.22723388671875,0.040283203125,0.97930908203125,4.83001708984375,-4.65057373046875,0.85235595703125,1,1.0,1.0,1.0,1.0,60.00
2021-04-12 22:26:41.044,0.2147496,0.686848,0.04296548,0.27832898,0.081842504,0.41302958,1.444751E-4,0.10947869,0.58174384,0.67245495,0.16200967,0.4042365,0.2996656,0.1325571,0.34746453,0.52780545,0.18437812,-0.53915507,-0.041727927,0.28287014,795.78754,795.38464,786.9231,818.3516,838.9011,-0.22601318359375,0.04058837890625,0.97503662109375,4.62066650390625,-4.583282470703125,1.24114990234375,1,1.0,1.0,1.0,1.0,60.00
2021-04-12 22:26:41.565,0.23660937,0.66546375,0.24285957,0.3091445,0.11978313,0.5730179,0.009471642,0.25708506,0.77926695,0.6457546,0.060671646,0.6254399,0.41457722,0.15354198,0.38075823,0.5871985,0.22761552,-0.4558342,0.068074994,0.3398573,795.78754,776.4469,799.41394,786.9231,611.6484,-0.224853515625,0.04156494140625,0.9776611328125,4.822540283203125,-4.5758056640625,0.889739990234375,1,1.0,1.0,1.0,1.0,60.00
2021-04-12 22:26:42.003,0.257190885,0.7248078,0.27864447,0.30269258,0.193686605,0.6037139,0.078065076,0.315909255,0.781191525,0.6457546,0.173752073,0.6173772500000,0.46092261,0.182412505,0.37611264,0.61575325,0.214005895,-0.433706115,0.0707963319999,0.3526493699999,808.07692,781.0806,792.56412,,,,,,,,,,,,,,,/muse/elements/blink
2021-04-12 22:26:42.081,0.2777724,0.78415185,0.31442937,0.29624066,0.26759008,0.6344099,0.14665851,0.37473345,0.7831161,0.6457546,0.2868325,0.6093146,0.507268,0.21128303,0.37146705,0.644308,0.20039627,-0.41157803,0.07351767,0.36544144,820.3663,785.7143,785.7143,808.2784,677.72894,-0.2275390625,0.04498291015625,0.9822998046875,4.807586669921875,-2.2430419921875,0.0897216796875,1,1.0,1.0,1.0,1.0,60.00
2021-04-12 22:26:42.590,0.43026802,0.78454,0.6197721,0.3738163,0.44200447,0.67113745,0.38538253,0.503978,0.7831161,0.5656294,0.57119346,0.5734006,0.65031314,0.18671973,0.33125815,0.6632645,0.21557738,-0.46294233,0.04605547,0.35472,789.34064,792.1612,786.52014,779.2674,686.99634,-0.2349853515625,0.0462646484375,0.9715576171875,5.00946044921875,-4.732818603515625,0.560760498046875,1,1.0,1.0,1.0,1.0,60.00
2021-04-12 22:26:43.108,0.45992374,0.83690476,0.6638524,0.4631838,0.5352876,0.61355615,0.44944653,0.6193967,0.7831161,0.48915517,0.57119346,0.5734006,0.71407044,0.14069535,0.31308785,0.6943927,0.18795413,-0.46943012,0.011631929,0.3484878,803.44324,801.02563,796.5934,823.5897,774.0293,-0.224853515625,0.045654296875,0.974853515625,4.792633056640625,-6.2506103515625,1.27105712890625,1,1.0,1.0,1.0,1.0,60.00
2021-04-12 22:26:43.635,0.45992374,0.83690476,0.6638524,0.4631838,0.5352876,0.61355615,0.44944653,0.6193967,0.7831161,0.48915517,0.57119346,0.5734006,0.71407044,0.14069535,0.31308785,0.6943927,0.18795413,-0.46943012,0.011631929,0.3484878,826.0073,776.04395,815.9341,825.2015,994.0293,-0.21832275390625,0.050537109375,0.97808837890625,4.852447509765625,-5.286102294921875,1.62994384765625,1,1.0,1.0,1.0,1.0,50.00
2021-04-12 22:26:44.161,0.81327962,0.9792550799999,0.618941875,0.8703955499999,1.0067914999999,0.614037725,0.35996063,0.573372965,0.8586214,0.5961835849999,0.690220805,0.6216348,0.76710637,0.294122435,0.600957825,0.92862895,0.3015461299999,-0.322227755,0.2633955145,0.4473437,818.35165000000,898.937725,813.91945,794.17584,675.31134,-0.2108154296875,0.04400634765625,0.98046875,4.777679443359375,-4.015045166015625,0.291595458984375,0,4.0,4.0,4.0,4.0,50.00
2021-04-12 22:26:44.664,0.9899575599999,1.0504302399999,0.5964866125,1.0740014249999,1.2425434499999,0.6142785125,0.31521768,0.5503610975,0.8963740499999,0.6496977924999,0.7497344775000,0.6457519,0.7936243350000,0.3708359774999,0.7448928125,1.045747075,0.3583421299999,-0.2486265725,0.38927730725,0.49677165,814.523825,960.3846125,812.91212500000,800.6227,632.6007,-0.2098388671875,0.04571533203125,0.9779052734375,4.47113037109375,-5.390777587890625,1.1065673828125,0,4.0,4.0,4.0,4.0,50.00
2021-04-12 22:26:45.198,1.0782965299999,1.0860178199999,0.58525898125,1.1758043624999,1.3604194249999,0.6143989062499,0.292846205,0.53885516375,0.9152503749999,0.6764548962499,0.77949131375,0.65781045,0.8068833175,0.4091927487499,0.81686030625,1.1043061375,0.3867401299999,-0.211825981250,0.452218203625,0.521485625,812.60991250000,991.10805625,812.4084625,785.31134,802.6374,-0.21319580078125,0.04449462890625,0.979736328125,4.62066650390625,-4.972076416015625,1.24114990234375,0,4.0,4.0,4.0,4.0,50.00
2021-04-12 22:26:45.721,1.1224660149999,1.1038116099999,0.579645165625,1.2267058312499,1.4193574124999,0.6144591031249,0.2816604675,0.533102196875,0.9246885374999,0.6898334481249,0.794369731875,0.6638397250000,0.81351280875,0.4283711343749,0.8528440531249,1.1335856687499,0.4009391299999,-0.193425685625,0.4836886518125,0.5338426125,811.65295625,1006.469778125,812.15663125,806.26373,789.7436,-0.20977783203125,0.044921875,0.98065185546875,4.897308349609375,-4.493560791015625,0.680389404296875,0,4.0,4.0,4.0,4.0,50.00
2021-04-12 22:26:46.248,1.1445507574999,1.1127085049999,0.5768382578125,1.2521565656249,1.4488264062499,0.6144892015624,0.27606759875,0.5302257134375,0.9294076187499,0.6965227240624,0.8018089409375,0.6668543625000,0.816827554375,0.4379603271874,0.8708359265624,1.1482254343749,0.4080386299999,-0.184225537812,0.4994238759062,0.54002110625,811.174478125,1014.1506390625,812.03071562500,816.7399,964.61536,-0.20947265625,0.043701171875,0.98101806640625,4.78515625,-4.628143310546875,1.667327880859375,0,4.0,4.0,4.0,4.0,50.00
2021-04-12 22:26:46.773,1.1555931287499,1.1171569524999,0.5754348039062,1.2648819328124,1.4635609031249,0.6145042507812,0.273271164375,0.5287874717187,0.9317671593749,0.6998673620311,0.8055285454687,0.66836168125,0.8184849271875,0.4427549235937,0.8798318632812,1.1555453171874,0.4115883799999,-0.179625463905,0.5072914879531,0.543110353125,810.93523906249,1017.9910695312,811.96775781249,789.34064,711.978,-0.212890625,0.048828125,0.98211669921875,5.00946044921875,-5.0543212890625,0.605621337890625,0,4.0,4.0,4.0,4.0,50.00
2021-04-12 22:26:47.300,1.1611143143749,1.1193811762499,0.5747330769531,1.2712446164062,1.4709281515624,0.6145117753906,0.2718729471875,0.5280683508593,0.9329469296874,0.7015396810155,0.8073883477343,0.669115340625,0.8193136135937,0.4451522217968,0.8843298316406,1.1592052585936,0.4133632549999,-0.177325426952,0.5112252939765,0.5446549765625,810.81561953124,1019.9112847655,811.93627890624,811.50183,827.2161,-0.19683837890625,0.04571533203125,0.9827880859375,4.725341796875,-5.674896240234375,0.740203857421875,0,4.0,4.0,4.0,4.0,50.00
2021-04-12 22:26:47.824,1.1638749071874,1.1204932881249,0.5743822134765,1.2744259582031,1.4746117757812,0.6145155376953,0.2711738385937,0.5277087904296,0.9335368148437,0.7023758405077,0.8083182488671,0.6694921703125,0.8197279567968,0.4463508708984,0.8865788158203,1.1610352292967,0.4142506924999,-0.176175408476,0.5131921969882,0.5454272882812,810.75580976562,1020.8713923827,811.92053945312,798.60803,834.4689,-0.1986083984375,0.04736328125,0.9779052734375,4.762725830078125,-4.0673828125,0.91217041015625,0,4.0,4.0,4.0,4.0,50.00
2021-04-12 22:26:48.331,1.1652552035936,1.1210493440624,0.5742067817382,1.2760166291015,1.4764535878906,0.6145174188476,0.2708242842968,0.5275290102148,0.9338317574218,0.7027939202538,0.8087831994335,0.6696805851562,0.8199351283984,0.4469501954492,0.8877033079101,1.1619502146483,0.4146944112499,-0.175600399238,0.5141756484941,0.5458134441406,810.72590488281,1021.3514461913,811.91266972656,810.696,660.0,-0.20355224609375,0.05059814453125,0.9798583984375,4.702911376953125,-4.269256591796875,1.1962890625,0,4.0,4.0,4.0,4.0,50.00
2021-04-12 22:26:48.862,1.1659453517968,1.1213273720312,0.5741190658691,1.2768119645507,1.4773744939453,0.6145183594238,0.2706495071483,0.5274391201074,0.9339792287109,0.7030029601269,0.8090156747167,0.6697747925781,0.8200387141992,0.4472498577246,0.8882655539550,1.1624077073241,0.4149162706249,-0.175312894619,0.5146673742470,0.5460065220703,810.71095244140,1021.5914730956,811.90873486328,836.08057,777.6557,-0.20758056640625,0.070556640625,0.98016357421875,4.83001708984375,-4.6356201171875,1.5850830078125,0,4.0,4.0,4.0,4.0,50.00
2021-04-12 22:26:49.364,1.1662904258984,1.1214663860156,0.5740752079345,1.2772096322753,1.4778349469726,0.6145188297119,0.2705621185741,0.5273941750537,0.9340529643554,0.7031074800634,0.8091319123583,0.6698218962890,0.8200905070996,0.4473996888622,0.8885466769774,1.1626364536620,0.4150272003124,-0.175169142309,0.5149132371235,0.5461030610351,810.70347622069,1021.7114865478,811.90676743164,804.65204,673.2967,-0.20025634765625,0.06640625,0.97802734375,4.8150634765625,-5.061798095703125,1.084136962890625,0,4.0,4.0,4.0,4.0,50.00
2021-04-12 22:26:49.876,1.1664629629492,1.1215358930077,0.5740532789672,1.2774084661376,1.4780651734863,0.6145190648559,0.2705184242870,0.5273717025268,0.9340898321777,0.7031597400317,0.8091900311791,0.6698454481445,0.8201164035498,0.4474746044311,0.8886872384886,1.162750826831,0.4150826651561,-0.175097266154,0.5150361685617,0.5461513305175,810.69973811034,1021.7714932739,811.90578371582,811.9048,728.49817,-0.19219970703125,0.06732177734375,0.97772216796875,4.5758056640625,-5.66741943359375,0.351409912109375,0,4.0,4.0,4.0,4.0,50.00
2021-04-12 22:26:50.384,1.1665492314746,1.1215706465038,0.5740423144836,1.2775078830687,1.4781802867431,0.6145191824279,0.2704965771435,0.5273604662633,0.9341082660888,0.7031858700158,0.8092190905895,0.6698572240722,0.8201293517749,0.4475120622155,0.8887575192443,1.1628080134154,0.4151103975780,-0.175061328077,0.5150976342808,0.5461754652587,810.69786905517,1021.8014966369,811.90529185791,794.57874,682.96704,-0.20098876953125,0.065185546875,0.98126220703125,4.553375244140625,-4.463653564453125,0.725250244140625,0,4.0,4.0,4.0,4.0,50.00
2021-04-12 22:26:50.894,1.1665923657373,1.1215880232519,0.5740368322418,1.2775575915343,1.4782378433715,0.6145192412139,0.2704856535717,0.5273548481316,0.9341174830444,0.7031989350079,0.8092336202947,0.6698631120361,0.8201358258874,0.4475307911077,0.8887926596221,1.1628366067077,0.415124263789,-0.175043359038,0.5151283671404,0.5461875326293,810.69693452758,1021.8164983184,811.90504592895,800.6227,918.2784,-0.18890380859375,0.05780029296875,0.97705078125,4.17205810546875,-5.360870361328125,0.8673095703125,0,4.0,4.0,4.0,4.0,50.00
2021-04-12 22:26:51.408,1.1666139328686,1.1215967116259,0.5740340911209,1.2775824457671,1.4782666216857,0.6145192706069,0.2704801917858,0.5273520390658,0.9341220915221,0.7032054675039,0.8092408851473,0.6698660560180,0.8201390629437,0.4475401555538,0.8888102298110,1.1628509033538,0.4151311968945,-0.175034374519,0.5151437335702,0.5461935663146,810.69646726379,1021.8239991592,811.90492296447,817.5458,994.0293,-0.193115234375,0.05230712890625,0.98150634765625,5.031890869140625,-4.05242919921875,0.770111083984375,0,4.0,4.0,4.0,4.0,50.00
2021-04-12 22:26:51.915,1.1666247164343,1.1216010558129,0.5740327205604,1.2775948728835,1.4782810108428,0.6145192853034,0.2704774608929,0.5273506345329,0.9341243957610,0.7032087337519,0.8092445175736,0.6698675280090,0.8201406814718,0.4475448377769,0.8888190149055,1.1628580516769,0.4151346634472,-0.175029882259,0.5151514167851,0.5461965831573,810.69623363189,1021.8277495796,811.90486148223,797.8022,703.5165,-0.20635986328125,0.13702392578125,0.9771728515625,11.43951416015625,-3.058013916015625,1.562652587890625,0,4.0,4.0,4.0,4.0,50.00
2021-04-12 22:26:52.422,1.1666301082171,1.1216032279064,0.5740320352802,1.2776010864417,1.4782882054214,0.6145192926517,0.2704760954464,0.5273499322664,0.9341255478805,0.7032103668759,0.8092463337868,0.6698682640045,0.8201414907358,0.4475471788884,0.8888234074527,1.1628616258384,0.4151363967236,-0.175027636129,0.5151552583925,0.5461980915786,810.69611681594,1021.8296247897,811.90483074111,784.90845,717.2161,-0.186279296875,0.1541748046875,0.9720458984375,3.940277099609375,-6.59454345703125,6.1309814453125,0,4.0,4.0,4.0,4.0,50.00
2021-04-12 22:26:52.932,1.1666328041085,1.1216043139532,0.5740316926401,1.2776041932208,1.4782918027107,0.6145192963258,0.2704754127231,0.5273495811332,0.9341261239402,0.7032111834379,0.8092472418934,0.6698686320022,0.8201418953679,0.4475483494441,0.8888256037263,1.1628634129192,0.4151372633618,-0.175026513064,0.5151571791962,0.5461988457893,810.69605840797,1021.8305623948,811.90481537055,803.44324,832.0513,-0.17718505859375,0.13494873046875,0.976806640625,3.6785888671875,-5.839385986328125,2.452392578125,0,4.0,4.0,4.0,4.0,50.00
2021-04-12 22:26:53.442,1.1666341520542,1.1216048569766,0.5740315213200,1.2776057466104,1.4782936013553,0.6145192981629,0.2704750713615,0.5273494055665,0.9341264119701,0.7032115917189,0.8092476959467,0.6698688160011,0.8201420976839,0.4475489347220,0.8888267018631,1.1628643064595,0.4151376966809,-0.175025951532,0.5151581395981,0.5461992228946,810.69602920398,1021.8310311974,811.90480768527,818.3516,777.25275,-0.17413330078125,0.12921142578125,0.97796630859375,4.717864990234375,-4.6954345703125,-0.052337646484375,0,4.0,4.0,4.0,4.0,50.00
2021-04-12 22:26:53.951,1.1666348260271,1.1216051284883,0.57403143566,1.2776065233052,1.4782945006776,0.6145192990814,0.2704749006807,0.5273493177832,0.9341265559850,0.7032117958594,0.8092479229733,0.6698689080005,0.8201421988419,0.447549227361,0.8888272509315,1.1628647532297,0.4151379133404,-0.175025670766,0.5151586197990,0.5461994114473,810.69601460199,1021.8312655986,811.90480384263,801.02563,647.9121,-0.180419921875,0.1290283203125,0.9786376953125,4.44122314453125,-4.015045166015625,0.2691650390625,0,4.0,4.0,4.0,4.0,60.00
2021-04-12 22:26:54.462,1.1666351630135,1.1216052642441,0.57403139283,1.2776069116526,1.4782949503388,0.6145192995407,0.2704748153403,0.5273492738916,0.9341266279925,0.7032118979297,0.8092480364866,0.6698689540002,0.8201422494209,0.4475493736804,0.8888275254657,1.1628649766148,0.4151380216702,-0.175025530383,0.5151588598995,0.5461995057236,810.69600730099,1021.8313827993,811.90480192131,794.9817,641.06226,-0.18115234375,0.12744140625,0.973876953125,3.656158447265625,-3.96270751953125,-1.353302001953125,0,4.0,4.0,4.0,4.0,60.00
2021-04-12 22:26:54.969,1.1666353315067,1.1216053321220,0.574031371415,1.2776071058262,1.4782951751694,0.6145192997703,0.2704747726701,0.5273492519458,0.9341266639962,0.7032119489648,0.8092480932433,0.6698689770001,0.8201422747104,0.4475494468402,0.8888276627328,1.1628650883074,0.4151380758351,-0.175025460191,0.5151589799497,0.5461995528618,810.69600365049,1021.8314413996,811.90480096065,687.3993,793.7729,-0.17913818359375,0.125244140625,0.9793701171875,4.68048095703125,-5.03936767578125,0.934600830078125,0,4.0,4.0,4.0,4.0,60.00
2021-04-12 22:26:55.480,1.1666354157533,1.121605366061,0.5740313607075,1.2776072029130,1.4782952875847,0.6145192998851,0.2704747513350,0.5273492409728,0.9341266819981,0.7032119744823,0.8092481216216,0.6698689885000,0.8201422873552,0.4475494834201,0.8888277313663,1.1628651441537,0.4151381029175,-0.175025425095,0.5151590399748,0.5461995764309,810.69600182524,1021.8314706998,811.90480048032,830.84247,825.2015,-0.18890380859375,0.115966796875,0.9775390625,3.69354248046875,-3.54400634765625,0.40374755859375,0,4.0,4.0,4.0,4.0,60.00
2021-04-12 22:26:55.993,1.1666354578766,1.1216053830305,0.5740313553537,1.2776072514564,1.4782953437923,0.6145192999425,0.2704747406675,0.5273492354864,0.9341266909990,0.7032119872411,0.8092481358108,0.66986899425,0.8201422936775,0.4475495017100,0.8888277656831,1.1628651720768,0.4151381164587,-0.175025407547,0.5151590699874,0.5461995882154,810.69600091262,1021.8314853499,811.90480024016,818.3516,780.4762,-0.19451904296875,0.10955810546875,0.9801025390625,4.14215087890625,-4.149627685546875,0.785064697265625,0,4.0,4.0,4.0,4.0,60.00
2021-04-12 22:26:56.500,1.1666354789383,1.1216053915152,0.5740313526768,1.2776072757282,1.4782953718961,0.6145192999712,0.2704747353337,0.5273492327432,0.9341266954995,0.7032119936205,0.8092481429054,0.669868997125,0.8201422968387,0.447549510855,0.8888277828415,1.1628651860383,0.4151381232293,-0.175025398773,0.5151590849937,0.5461995941077,810.69600045631,1021.8314926749,811.90480012007,794.9817,801.4286,-0.193603515625,0.11029052734375,0.9794921875,4.32159423828125,-4.912261962890625,0.7177734375,0,4.0,4.0,4.0,4.0,60.00
2021-04-12 22:26:57.010,1.1666354894691,1.1216053957576,0.5740313513384,1.2776072878640,1.4782953859480,0.6145192999856,0.2704747326668,0.5273492313716,0.9341266977497,0.7032119968102,0.8092481464527,0.6698689985625,0.8201422984193,0.4475495154275,0.8888277914207,1.1628651930191,0.4151381266146,-0.175025394386,0.5151590924968,0.5461995970538,810.69600022815,1021.8314963374,811.90480006003,829.2308,805.8608,-0.192626953125,0.10693359375,0.97930908203125,4.673004150390625,-4.852447509765625,1.57012939453125,0,4.0,4.0,4.0,4.0,60.00
2021-04-12 22:26:57.519,1.1666354947345,1.1216053978787,0.5740313506692,1.2776072939319,1.478295392974,0.6145192999928,0.2704747313334,0.5273492306858,0.9341266988748,0.7032119984051,0.8092481482263,0.6698689992812,0.8201422992096,0.4475495177137,0.8888277957103,1.1628651965095,0.4151381283073,-0.175025392193,0.5151590962484,0.5461995985268,810.69600011407,1021.8314981687,811.90480003001,825.6044,761.9414,-0.19268798828125,0.10595703125,0.97991943359375,4.448699951171875,-4.42626953125,1.712188720703125,0,4.0,4.0,4.0,4.0,60.00
2021-04-12 22:26:58.029,1.1666354973672,1.1216053989393,0.5740313503346,1.2776072969659,1.4782953964869,0.6145192999964,0.2704747306667,0.5273492303428,0.9341266994374,0.7032119992025,0.8092481491131,0.6698689996406,0.8201422996048,0.4475495188568,0.8888277978551,1.1628651982547,0.4151381291536,-0.175025391096,0.5151590981242,0.5461995992634,810.69600005703,1021.8314990843,811.90480001500,784.5055,663.22345,-0.18505859375,0.1058349609375,0.97552490234375,4.747772216796875,-4.8150634765625,0.88226318359375,0,4.0,4.0,4.0,4.0,60.00
2021-04-12 22:26:58.541,1.1666354986836,1.1216053994696,0.5740313501673,1.2776072984829,1.4782953982434,0.6145192999982,0.2704747303333,0.5273492301714,0.9341266997187,0.7032119996012,0.8092481495565,0.6698689998203,0.8201422998023,0.4475495194284,0.8888277989275,1.1628651991273,0.4151381295767,-0.175025390547,0.5151590990621,0.5461995996317,810.69600002851,1021.8314995421,811.9048000075,801.8315,716.8132,-0.185546875,0.1038818359375,0.97833251953125,5.301055908203125,-4.68048095703125,1.143951416015625,0,4.0,4.0,4.0,4.0,60.00
2021-04-12 22:26:59.085,1.1666354993418,1.1216053997348,0.5740313500836,1.2776072992414,1.4782953991216,0.6145192999991,0.2704747301666,0.5273492300857,0.9341266998593,0.7032119998005,0.8092481497782,0.6698689999101,0.8201422999011,0.4475495197142,0.8888277994637,1.1628651995636,0.4151381297883,-0.175025390273,0.5151590995310,0.5461995998158,810.69600001425,1021.8314997710,811.90480000375,803.8461,767.5824,-0.18524169921875,0.107421875,0.9774169921875,4.149627685546875,-5.9515380859375,1.502838134765625,0,4.0,4.0,4.0,4.0,60.00
2021-04-12 22:26:59.595,1.1666354996709,1.1216053998673,0.5740313500418,1.2776072996207,1.4782953995608,0.6145192999995,0.2704747300833,0.5273492300428,0.9341266999296,0.7032119999002,0.8092481498891,0.6698689999550,0.8201422999505,0.4475495198571,0.8888277997318,1.1628651997818,0.4151381298941,-0.175025390136,0.5151590997655,0.5461995999079,810.69600000712,1021.8314998855,811.90480000187,711.5751,758.315,-0.18243408203125,0.1058349609375,0.9774169921875,4.403839111328125,-4.149627685546875,0.201873779296875,0,4.0,4.0,4.0,4.0,60.00
2021-04-12 22:27:00.096,1.1666354998354,1.1216053999336,0.5740313500209,1.2776072998103,1.4782953997804,0.6145192999997,0.2704747300416,0.5273492300214,0.9341266999647,0.7032119999501,0.8092481499445,0.6698689999775,0.8201422999752,0.4475495199285,0.8888277998659,1.1628651998908,0.4151381299470,-0.175025390068,0.5151590998827,0.5461995999539,810.69600000356,1021.8314999427,811.90480000093,813.1135,743.4066,-0.18548583984375,0.10540771484375,0.982421875,4.17205810546875,-4.792633056640625,0.46356201171875,0,4.0,4.0,4.0,4.0,60.00
2021-04-12 22:27:00.609,1.1666354999177,1.1216053999667,0.5740313500104,1.2776072999051,1.4782953998902,0.6145192999998,0.2704747300208,0.5273492300107,0.9341266999823,0.7032119999750,0.8092481499722,0.6698689999887,0.8201422999876,0.4475495199642,0.8888277999329,1.1628651999453,0.4151381299734,-0.175025390034,0.5151590999413,0.5461995999769,810.69600000178,1021.8314999713,811.90480000046,795.38464,605.6044,-0.19482421875,0.101318359375,0.9779052734375,3.775787353515625,-3.222503662109375,0.560760498046875,0,4.0,4.0,4.0,4.0,60.00
2021-04-12 22:27:01.120,1.1666354999588,1.1216053999833,0.5740313500052,1.2776072999525,1.4782953999450,0.6145192999999,0.2704747300104,0.5273492300053,0.9341266999911,0.7032119999875,0.8092481499861,0.6698689999943,0.8201422999938,0.4475495199821,0.8888277999664,1.1628651999726,0.4151381299866,-0.175025390017,0.5151590999706,0.5461995999884,810.69600000089,1021.8314999856,811.90480000023,800.6227,731.7216,-0.20599365234375,0.09600830078125,0.9769287109375,5.031890869140625,-4.68048095703125,0.2691650390625,0,4.0,4.0,4.0,4.0,60.00
2021-04-12 22:27:01.631,1.1666354999794,1.1216053999916,0.5740313500026,1.2776072999762,1.4782953999725,0.6145192999999,0.2704747300052,0.5273492300026,0.9341266999955,0.7032119999937,0.8092481499930,0.6698689999971,0.8201422999968,0.4475495199910,0.8888277999831,1.1628651999863,0.4151381299933,-0.175025390008,0.5151590999853,0.5461995999942,810.69600000044,1021.8314999928,811.90480000011,824.3956,820.3663,-0.19512939453125,0.09173583984375,0.977783203125,2.968292236328125,-3.910369873046875,-0.19439697265625,0,4.0,4.0,4.0,4.0,60.00
2021-04-12 22:27:02.142,1.1666354999897,1.1216053999958,0.5740313500013,1.2776072999880,1.4782953999862,0.6145192999999,0.2704747300026,0.5273492300013,0.9341266999977,0.7032119999968,0.8092481499965,0.6698689999985,0.8201422999984,0.4475495199954,0.8888277999915,1.1628651999931,0.4151381299966,-0.175025390004,0.5151590999926,0.5461995999971,810.69600000022,1021.8314999964,811.90480000005,792.1612,812.71063,-0.16339111328125,0.0555419921875,0.9703369140625,4.373931884765625,-3.895416259765625,9.07684326171875,0,4.0,4.0,4.0,4.0,60.00
2021-04-12 22:27:02.649,1.1666354999948,1.1216053999978,0.5740313500006,1.277607299994,1.4782953999931,0.6145192999999,0.2704747300012,0.5273492300006,0.9341266999988,0.7032119999983,0.8092481499982,0.6698689999992,0.8201422999992,0.4475495199977,0.8888277999957,1.1628651999965,0.4151381299983,-0.175025390002,0.5151590999963,0.5461995999985,810.69600000011,1021.8314999982,811.90480000002,809.0842,829.2308,-0.19537353515625,0.16204833984375,0.9786376953125,7.095489501953125,-6.063690185546875,15.8807373046875,0,4.0,4.0,4.0,4.0,60.00
2021-04-12 22:27:03.160,1.1666354999974,1.1216053999989,0.5740313500003,1.2776072999969,1.4782953999965,0.6145192999999,0.2704747300005,0.5273492300003,0.9341266999994,0.7032119999991,0.8092481499991,0.6698689999996,0.8201422999996,0.4475495199988,0.8888277999978,1.1628651999982,0.4151381299991,-0.175025390000,0.5151590999981,0.5461995999992,810.69600000005,1021.8314999991,811.90480000001,812.3077,894.5055,-0.1923828125,0.17291259765625,0.9725341796875,3.51409912109375,-4.418792724609375,0.814971923828125,0,4.0,4.0,4.0,4.0,60.00
2021-04-12 22:27:03.670,1.1666354999987,1.1216053999994,0.5740313500001,1.2776072999984,1.4782953999982,0.6145192999999,0.2704747300002,0.5273492300001,0.9341266999997,0.7032119999995,0.8092481499995,0.6698689999998,0.8201422999998,0.4475495199993,0.8888277999989,1.1628651999991,0.4151381299995,-0.17502539,0.5151590999990,0.5461995999996,810.69600000002,1021.8314999995,811.90480000000,799.011,865.4945,-0.19219970703125,0.10595703125,0.97265625,1.682281494140625,-6.916046142578125,-4.486083984375,0,4.0,4.0,4.0,4.0,60.00
2021-04-12 22:27:04.182,1.1666354999993,1.1216053999997,0.5740313500000,1.2776072999991,1.4782953999991,0.6145192999999,0.2704747300001,0.5273492300000,0.9341266999998,0.7032119999997,0.8092481499997,0.6698689999999,0.8201422999999,0.4475495199996,0.8888277999994,1.1628651999995,0.4151381299997,-0.17502539,0.5151590999994,0.5461995999998,810.69600000001,1021.8314999997,811.9048,809.0842,845.34796,-0.18646240234375,0.11785888671875,0.976318359375,5.263671875,-5.86181640625,-3.409423828125,0,4.0,4.0,4.0,4.0,60.00
2021-04-12 22:27:04.684,1.1666354999996,1.1216053999998,0.57403135,1.2776072999995,1.4782953999995,0.6145192999999,0.2704747300000,0.52734923,0.9341266999999,0.7032119999998,0.8092481499998,0.6698689999999,0.8201422999999,0.4475495199997,0.8888277999997,1.1628651999997,0.4151381299998,-0.17502539,0.5151590999997,0.5461995999999,810.69600000000,1021.8314999998,811.9048,819.9634,643.47986,-0.1865234375,0.09820556640625,0.98748779296875,2.310333251953125,-0.829925537109375,-1.48040771484375,0,4.0,4.0,4.0,4.0,60.00
2021-04-12 22:27:05.201,1.1666354999998,1.1216053999999,0.57403135,1.2776072999997,1.4782953999997,0.6145192999999,0.27047473,0.52734923,0.9341266999999,0.7032119999999,0.8092481499999,0.6698689999999,0.8201422999999,0.4475495199998,0.8888277999998,1.1628651999998,0.4151381299998,-0.17502539,0.5151590999998,0.5461995999999,810.696,1021.8314999999,811.9048,798.60803,719.2308,-0.20745849609375,0.10162353515625,0.97802734375,4.91973876953125,-6.781463623046875,3.050537109375,0,4.0,4.0,4.0,4.0,60.00
2021-04-12 22:27:05.710,1.1666354999999,1.1216053999999,0.57403135,1.2776072999998,1.4782953999998,0.6145192999999,0.27047473,0.52734923,0.9341266999999,0.7032119999999,0.8092481499999,0.6698689999999,0.8201422999999,0.4475495199999,0.8888277999998,1.1628651999999,0.4151381299998,-0.17502539,0.5151590999999,0.5461995999999,810.696,1021.8314999999,811.9048,833.2601,1083.0769,-0.19842529296875,0.1024169921875,0.97686767578125,4.97955322265625,-4.18701171875,0.844879150390625,0,4.0,4.0,4.0,4.0,60.00
2021-04-12 22:27:06.221,1.1666354999999,1.1216053999999,0.57403135,1.2776072999999,1.4782953999999,0.6145192999999,0.27047473,0.52734923,0.9341266999999,0.7032119999999,0.8092481499999,0.6698689999999,0.8201422999999,0.4475495199999,0.8888277999998,1.1628651999999,0.4151381299998,-0.17502539,0.5151590999999,0.5461995999999,810.696,1021.8314999999,811.9048,806.26373,764.7619,-0.1982421875,0.09954833984375,0.97723388671875,4.463653564453125,-4.852447509765625,-0.64300537109375,0,4.0,4.0,4.0,4.0,60.00
2021-04-12 22:27:06.732,1.1666354999999,1.1216053999999,0.57403135,1.2776072999999,1.4782953999999,0.6145192999999,0.27047473,0.52734923,0.9341266999999,0.7032119999999,0.8092481499999,0.6698689999999,0.8201422999999,0.4475495199999,0.8888277999998,1.1628651999999,0.4151381299998,-0.17502539,0.5151590999999,0.5461995999999,810.696,1021.8314999999,811.9048,802.23444,652.3443,-0.1929931640625,0.09490966796875,0.97235107421875,5.36834716796875,-5.271148681640625,0.3289794921875,0,4.0,4.0,4.0,4.0,60.00
2021-04-12 22:27:07.241,1.1666354999999,1.1216053999999,0.57403135,1.2776072999999,1.4782953999999,0.6145192999999,0.27047473,0.52734923,0.9341266999999,0.7032119999999,0.8092481499999,0.6698689999999,0.8201422999999,0.4475495199999,0.8888277999998,1.1628651999999,0.4151381299998,-0.17502539,0.5151590999999,0.5461995999999,810.696,1021.8314999999,811.9048,796.5934,688.60803,-0.20233154296875,0.10247802734375,0.97442626953125,4.85992431640625,-4.2767333984375,1.0467529296875,0,4.0,4.0,4.0,4.0,60.00
2021-04-12 22:27:07.750,1.1666354999999,1.1216053999999,0.57403135,1.2776072999999,1.4782953999999,0.6145192999999,0.27047473,0.52734923,0.9341266999999,0.7032119999999,0.8092481499999,0.6698689999999,0.8201422999999,0.4475495199999,0.8888277999998,1.1628651999999,0.4151381299998,-0.17502539,0.5151590999999,0.5461995999999,810.696,1021.8314999999,811.9048,839.707,777.6557,-0.20635986328125,0.103271484375,0.9757080078125,4.8748779296875,-3.656158447265625,1.18133544921875,0,4.0,4.0,4.0,4.0,60.00
2021-04-12 22:27:08.257,1.1666354999999,1.1216053999999,0.57403135,1.2776072999999,1.4782953999999,0.6145192999999,0.27047473,0.52734923,0.9341266999999,0.7032119999999,0.8092481499999,0.6698689999999,0.8201422999999,0.4475495199999,0.8888277999998,1.1628651999999,0.4151381299998,-0.17502539,0.5151590999999,0.5461995999999,810.696,1021.8314999999,811.9048,799.81683,615.2747,-0.20556640625,0.10748291015625,0.97357177734375,4.658050537109375,-4.882354736328125,0.657958984375,0,4.0,4.0,4.0,4.0,60.00
2021-04-12 22:27:08.769,1.1666354999999,1.1216053999999,0.57403135,1.2776072999999,1.4782953999999,0.6145192999999,0.27047473,0.52734923,0.9341266999999,0.7032119999999,0.8092481499999,0.6698689999999,0.8201422999999,0.4475495199999,0.8888277999998,1.1628651999999,0.4151381299998,-0.17502539,0.5151590999999,0.5461995999999,810.696,1021.8314999999,811.9048,795.38464,699.4872,-0.20989990234375,0.10284423828125,0.97760009765625,4.5758056640625,-4.598236083984375,1.158905029296875,0,4.0,4.0,4.0,4.0,60.00
2021-04-12 22:27:09.277,1.1666354999999,1.1216053999999,0.57403135,1.2776072999999,1.4782953999999,0.6145192999999,0.27047473,0.52734923,0.9341266999999,0.7032119999999,0.8092481499999,0.6698689999999,0.8201422999999,0.4475495199999,0.8888277999998,1.1628651999999,0.4151381299998,-0.17502539,0.5151590999999,0.5461995999999,810.696,1021.8314999999,811.9048,794.17584,850.989,-0.1990966796875,0.10498046875,0.97760009765625,4.717864990234375,-5.5926513671875,1.487884521484375,0,4.0,4.0,4.0,4.0,60.00
2021-04-12 22:27:09.787,1.1666354999999,1.1216053999999,0.57403135,1.2776072999999,1.4782953999999,0.6145192999999,0.27047473,0.52734923,0.9341266999999,0.7032119999999,0.8092481499999,0.6698689999999,0.8201422999999,0.4475495199999,0.8888277999998,1.1628651999999,0.4151381299998,-0.17502539,0.5151590999999,0.5461995999999,810.696,1021.8314999999,811.9048,826.0073,951.31866,-0.19927978515625,0.1060791015625,0.9754638671875,4.837493896484375,-5.256195068359375,1.2860107421875,0,4.0,4.0,4.0,4.0,60.00
2021-04-12 22:27:10.301,1.1666354999999,1.1216053999999,0.57403135,1.2776072999999,1.4782953999999,0.6145192999999,0.27047473,0.52734923,0.9341266999999,0.7032119999999,0.8092481499999,0.6698689999999,0.8201422999999,0.4475495199999,0.8888277999998,1.1628651999999,0.4151381299998,-0.17502539,0.5151590999999,0.5461995999999,810.696,1021.8314999999,811.9048,703.5165,884.43225,-0.1900634765625,0.1043701171875,0.97711181640625,4.4561767578125,-5.585174560546875,1.39068603515625,0,4.0,4.0,4.0,4.0,60.00
2021-04-12 22:27:10.807,1.1666354999999,1.1216053999999,0.57403135,1.2776072999999,1.4782953999999,0.6145192999999,0.27047473,0.52734923,0.9341266999999,0.7032119999999,0.8092481499999,0.6698689999999,0.8201422999999,0.4475495199999,0.8888277999998,1.1628651999999,0.4151381299998,-0.17502539,0.5151590999999,0.5461995999999,810.696,1021.8314999999,811.9048,784.90845,573.7729,-0.192626953125,0.1044921875,0.9879150390625,4.568328857421875,-4.149627685546875,1.742095947265625,0,4.0,4.0,4.0,4.0,60.00
2021-04-12 22:27:11.318,1.1666354999999,1.1216053999999,0.57403135,1.2776072999999,1.4782953999999,0.6145192999999,0.27047473,0.52734923,0.9341266999999,0.7032119999999,0.8092481499999,0.6698689999999,0.8201422999999,0.4475495199999,0.8888277999998,1.1628651999999,0.4151381299998,-0.17502539,0.5151590999999,0.5461995999999,810.696,1021.8314999999,811.9048,818.7546,849.3773,-0.184326171875,0.11834716796875,0.97674560546875,4.97955322265625,-6.83380126953125,1.757049560546875,0,4.0,4.0,4.0,4.0,60.00
2021-04-12 22:27:11.827,1.1666354999999,1.1216053999999,0.57403135,1.2776072999999,1.4782953999999,0.6145192999999,0.27047473,0.52734923,0.9341266999999,0.7032119999999,0.8092481499999,0.6698689999999,0.8201422999999,0.4475495199999,0.8888277999998,1.1628651999999,0.4151381299998,-0.17502539,0.5151590999999,0.5461995999999,810.696,1021.8314999999,811.9048,808.68134,792.1612,-0.19195556640625,0.11285400390625,0.97808837890625,4.972076416015625,-4.329071044921875,0.94207763671875,0,4.0,4.0,4.0,4.0,60.00
2021-04-12 22:27:12.337,1.1666354999999,1.1216053999999,0.57403135,1.2776072999999,1.4782953999999,0.6145192999999,0.27047473,0.52734923,0.9341266999999,0.7032119999999,0.8092481499999,0.6698689999999,0.8201422999999,0.4475495199999,0.8888277999998,1.1628651999999,0.4151381299998,-0.17502539,0.5151590999999,0.5461995999999,810.696,1021.8314999999,811.9048,785.31134,642.27106,-0.17840576171875,0.118896484375,0.980712890625,3.96270751953125,-4.807586669921875,0.7177734375,0,4.0,4.0,4.0,4.0,60.00
2021-04-12 22:27:12.846,1.1666354999999,1.1216053999999,0.57403135,1.2776072999999,1.4782953999999,0.6145192999999,0.27047473,0.52734923,0.9341266999999,0.7032119999999,0.8092481499999,0.6698689999999,0.8201422999999,0.4475495199999,0.8888277999998,1.1628651999999,0.4151381299998,-0.17502539,0.5151590999999,0.5461995999999,810.696,1021.8314999999,811.9048,803.44324,755.89746,-0.18572998046875,0.1102294921875,0.97955322265625,4.523468017578125,-4.38140869140625,0.710296630859375,0,4.0,4.0,4.0,4.0,60.00
2021-04-12 22:27:13.360,1.1666354999999,1.1216053999999,0.57403135,1.2776072999999,1.4782953999999,0.6145192999999,0.27047473,0.52734923,0.9341266999999,0.7032119999999,0.8092481499999,0.6698689999999,0.8201422999999,0.4475495199999,0.8888277999998,1.1628651999999,0.4151381299998,-0.17502539,0.5151590999999,0.5461995999999,810.696,1021.8314999999,811.9048,801.02563,904.57874,-0.1866455078125,0.10906982421875,0.9749755859375,4.314117431640625,-4.089813232421875,0.34393310546875,0,4.0,4.0,4.0,4.0,60.00
2021-04-12 22:27:13.865,1.1666354999999,1.1216053999999,0.57403135,1.2776072999999,1.4782953999999,0.6145192999999,0.27047473,0.52734923,0.9341266999999,0.7032119999999,0.8092481499999,0.6698689999999,0.8201422999999,0.4475495199999,0.8888277999998,1.1628651999999,0.4151381299998,-0.17502539,0.5151590999999,0.5461995999999,810.696,1021.8314999999,811.9048,806.6667,768.3883,-0.18218994140625,0.11004638671875,0.97576904296875,4.852447509765625,-4.486083984375,1.3458251953125,0,4.0,4.0,4.0,4.0,60.00
2021-04-12 22:27:14.376,1.1666354999999,1.1216053999999,0.57403135,1.2776072999999,1.4782953999999,0.6145192999999,0.27047473,0.52734923,0.9341266999999,0.7032119999999,0.8092481499999,0.6698689999999,0.8201422999999,0.4475495199999,0.8888277999998,1.1628651999999,0.4151381299998,-0.17502539,0.5151590999999,0.5461995999999,810.696,1021.8314999999,811.9048,803.8461,744.21246,-0.1859130859375,0.11248779296875,0.98077392578125,5.03936767578125,-4.987030029296875,1.009368896484375,0,4.0,4.0,4.0,4.0,55.00
2021-04-12 22:27:14.890,1.1666354999999,1.1216053999999,0.57403135,1.2776072999999,1.4782953999999,0.6145192999999,0.27047473,0.52734923,0.9341266999999,0.7032119999999,0.8092481499999,0.6698689999999,0.8201422999999,0.4475495199999,0.8888277999998,1.1628651999999,0.4151381299998,-0.17502539,0.5151590999999,0.5461995999999,810.696,1021.8314999999,811.9048,791.3553,682.1612,-0.179443359375,0.11322021484375,0.9842529296875,4.867401123046875,-4.613189697265625,1.368255615234375,0,4.0,4.0,4.0,4.0,55.00
2021-04-12 22:27:15.398,1.1666354999999,1.1216053999999,0.57403135,1.2776072999999,1.4782953999999,0.6145192999999,0.27047473,0.52734923,0.9341266999999,0.7032119999999,0.8092481499999,0.6698689999999,0.8201422999999,0.4475495199999,0.8888277999998,1.1628651999999,0.4151381299998,-0.17502539,0.5151590999999,0.5461995999999,810.696,1021.8314999999,811.9048,813.1135,772.4176,-0.184814453125,0.1141357421875,0.98046875,4.26177978515625,-4.658050537109375,0.740203857421875,0,4.0,4.0,4.0,4.0,55.00
2021-04-12 22:27:15.906,1.1666354999999,1.1216053999999,0.57403135,1.2776072999999,1.4782953999999,0.6145192999999,0.27047473,0.52734923,0.9341266999999,0.7032119999999,0.8092481499999,0.6698689999999,0.8201422999999,0.4475495199999,0.8888277999998,1.1628651999999,0.4151381299998,-0.17502539,0.5151590999999,0.5461995999999,810.696,1021.8314999999,811.9048,799.41394,754.68866,-0.171875,0.1058349609375,0.97930908203125,4.628143310546875,-5.81695556640625,0.575714111328125,0,4.0,4.0,4.0,4.0,55.00
2021-04-12 22:27:16.416,1.1666354999999,1.1216053999999,0.57403135,1.2776072999999,1.4782953999999,0.6145192999999,0.27047473,0.52734923,0.9341266999999,0.7032119999999,0.8092481499999,0.6698689999999,0.8201422999999,0.4475495199999,0.8888277999998,1.1628651999999,0.4151381299998,-0.17502539,0.5151590999999,0.5461995999999,810.696,1021.8314999999,811.9048,789.7436,632.1978,-0.17791748046875,0.112060546875,0.98004150390625,4.90478515625,-3.90289306640625,0.934600830078125,0,4.0,4.0,4.0,4.0,55.00
2021-04-12 22:27:16.928,1.1666354999999,1.1216053999999,0.57403135,1.2776072999999,1.4782953999999,0.6145192999999,0.27047473,0.52734923,0.9341266999999,0.7032119999999,0.8092481499999,0.6698689999999,0.8201422999999,0.4475495199999,0.8888277999998,1.1628651999999,0.4151381299998,-0.17502539,0.5151590999999,0.5461995999999,810.696,1021.8314999999,811.9048,782.8938,709.9634,-0.16998291015625,0.1060791015625,0.97998046875,4.127197265625,-4.9945068359375,0.800018310546875,0,4.0,4.0,4.0,4.0,55.00
2021-04-12 22:27:17.436,1.1666354999999,1.1216053999999,0.57403135,1.2776072999999,1.4782953999999,0.6145192999999,0.27047473,0.52734923,0.9341266999999,0.7032119999999,0.8092481499999,0.6698689999999,0.8201422999999,0.4475495199999,0.8888277999998,1.1628651999999,0.4151381299998,-0.17502539,0.5151590999999,0.5461995999999,810.696,1021.8314999999,811.9048,779.2674,934.7985,-0.170654296875,0.1077880859375,0.98297119140625,4.47113037109375,-5.001983642578125,1.158905029296875,0,4.0,4.0,4.0,4.0,55.00
2021-04-12 22:27:17.949,1.1666354999999,1.1216053999999,0.57403135,1.2776072999999,1.4782953999999,0.6145192999999,0.27047473,0.52734923,0.9341266999999,0.7032119999999,0.8092481499999,0.6698689999999,0.8201422999999,0.4475495199999,0.8888277999998,1.1628651999999,0.4151381299998,-0.17502539,0.5151590999999,0.5461995999999,810.696,1021.8314999999,811.9048,828.8278,916.26373,-0.16558837890625,0.0986328125,0.98297119140625,4.658050537109375,-3.656158447265625,0.95703125,0,4.0,4.0,4.0,4.0,55.00
2021-04-12 22:27:18.455,1.1666354999999,1.1216053999999,0.57403135,1.2776072999999,1.4782953999999,0.6145192999999,0.27047473,0.52734923,0.9341266999999,0.7032119999999,0.8092481499999,0.6698689999999,0.8201422999999,0.4475495199999,0.8888277999998,1.1628651999999,0.4151381299998,-0.17502539,0.5151590999999,0.5461995999999,810.696,1021.8314999999,811.9048,823.5897,738.5714,-0.169921875,0.103515625,0.98651123046875,5.151519775390625,-4.658050537109375,1.727142333984375,0,4.0,4.0,4.0,4.0,55.00
2021-04-12 22:27:18.964,1.1666354999999,1.1216053999999,0.57403135,1.2776072999999,1.4782953999999,0.6145192999999,0.27047473,0.52734923,0.9341266999999,0.7032119999999,0.8092481499999,0.6698689999999,0.8201422999999,0.4475495199999,0.8888277999998,1.1628651999999,0.4151381299998,-0.17502539,0.5151590999999,0.5461995999999,810.696,1021.8314999999,811.9048,794.9817,632.1978,-0.16937255859375,0.10357666015625,0.9815673828125,4.553375244140625,-5.06927490234375,1.57012939453125,0,4.0,4.0,4.0,4.0,55.00
2021-04-12 22:27:19.475,1.1666354999999,1.1216053999999,0.57403135,1.2776072999999,1.4782953999999,0.6145192999999,0.27047473,0.52734923,0.9341266999999,0.7032119999999,0.8092481499999,0.6698689999999,0.8201422999999,0.4475495199999,0.8888277999998,1.1628651999999,0.4151381299998,-0.17502539,0.5151590999999,0.5461995999999,810.696,1021.8314999999,811.9048,819.5604,822.7839,-0.1639404296875,0.1031494140625,0.98321533203125,4.5758056640625,-4.927215576171875,0.2093505859375,0,4.0,4.0,4.0,4.0,55.00
2021-04-12 22:27:19.986,1.1666354999999,1.1216053999999,0.57403135,1.2776072999999,1.4782953999999,0.6145192999999,0.27047473,0.52734923,0.9341266999999,0.7032119999999,0.8092481499999,0.6698689999999,0.8201422999999,0.4475495199999,0.8888277999998,1.1628651999999,0.4151381299998,-0.17502539,0.5151590999999,0.5461995999999,810.696,1021.8314999999,811.9048,817.9487,805.4579,-0.1654052734375,0.10552978515625,0.98333740234375,4.777679443359375,-4.9945068359375,0.530853271484375,0,4.0,4.0,4.0,4.0,55.00
2021-04-12 22:27:20.494,1.1666354999999,1.1216053999999,0.57403135,1.2776072999999,1.4782953999999,0.6145192999999,0.27047473,0.52734923,0.9341266999999,0.7032119999999,0.8092481499999,0.6698689999999,0.8201422999999,0.4475495199999,0.8888277999998,1.1628651999999,0.4151381299998,-0.17502539,0.5151590999999,0.5461995999999,810.696,1021.8314999999,811.9048,809.4872,626.9597,-0.157958984375,0.09954833984375,0.9810791015625,4.44122314453125,-5.345916748046875,0.88226318359375,0,4.0,4.0,4.0,4.0,55.00
2021-04-12 22:27:21.004,1.1666354999999,1.1216053999999,0.57403135,1.2776072999999,1.4782953999999,0.6145192999999,0.27047473,0.52734923,0.9341266999999,0.7032119999999,0.8092481499999,0.6698689999999,0.8201422999999,0.4475495199999,0.8888277999998,1.1628651999999,0.4151381299998,-0.17502539,0.5151590999999,0.5461995999999,810.696,1021.8314999999,811.9048,797.3993,625.34796,-0.159912109375,0.10308837890625,0.982177734375,4.344024658203125,-4.5458984375,0.73272705078125,0,4.0,4.0,4.0,4.0,55.00
2021-04-12 22:27:21.515,1.1666354999999,1.1216053999999,0.57403135,1.2776072999999,1.4782953999999,0.6145192999999,0.27047473,0.52734923,0.9341266999999,0.7032119999999,0.8092481499999,0.6698689999999,0.8201422999999,0.4475495199999,0.8888277999998,1.1628651999999,0.4151381299998,-0.17502539,0.5151590999999,0.5461995999999,810.696,1021.8314999999,811.9048,832.4542,948.0952,-0.15997314453125,0.10406494140625,0.986328125,4.717864990234375,-3.90289306640625,0.7476806640625,0,4.0,4.0,4.0,4.0,55.00
2021-04-12 22:27:22.029,1.1666354999999,1.1216053999999,0.57403135,1.2776072999999,1.4782953999999,0.6145192999999,0.27047473,0.52734923,0.9341266999999,0.7032119999999,0.8092481499999,0.6698689999999,0.8201422999999,0.4475495199999,0.8888277999998,1.1628651999999,0.4151381299998,-0.17502539,0.5151590999999,0.5461995999999,810.696,1021.8314999999,811.9048,823.1868,1204.762,-0.1611328125,0.1026611328125,0.9866943359375,4.658050537109375,-4.66552734375,1.18133544921875,0,4.0,4.0,4.0,4.0,55.00
2021-04-12 22:27:22.536,1.1666354999999,1.1216053999999,0.57403135,1.2776072999999,1.4782953999999,0.6145192999999,0.27047473,0.52734923,0.9341266999999,0.7032119999999,0.8092481499999,0.6698689999999,0.8201422999999,0.4475495199999,0.8888277999998,1.1628651999999,0.4151381299998,-0.17502539,0.5151590999999,0.5461995999999,810.696,1021.8314999999,811.9048,798.20514,635.82416,-0.168212890625,0.09942626953125,0.98101806640625,5.21881103515625,-4.628143310546875,0.9271240234375,0,4.0,4.0,4.0,4.0,55.00
2021-04-12 22:27:23.046,1.1666354999999,1.1216053999999,0.57403135,1.2776072999999,1.4782953999999,0.6145192999999,0.27047473,0.52734923,0.9341266999999,0.7032119999999,0.8092481499999,0.6698689999999,0.8201422999999,0.4475495199999,0.8888277999998,1.1628651999999,0.4151381299998,-0.17502539,0.5151590999999,0.5461995999999,810.696,1021.8314999999,811.9048,768.7912,655.9707,-0.16259765625,0.1031494140625,0.98211669921875,4.32159423828125,-4.807586669921875,1.136474609375,0,4.0,4.0,4.0,4.0,55.00
2021-04-12 22:27:23.556,1.1666354999999,1.1216053999999,0.57403135,1.2776072999999,1.4782953999999,0.6145192999999,0.27047473,0.52734923,0.9341266999999,0.7032119999999,0.8092481499999,0.6698689999999,0.8201422999999,0.4475495199999,0.8888277999998,1.1628651999999,0.4151381299998,-0.17502539,0.5151590999999,0.5461995999999,810.696,1021.8314999999,811.9048,786.9231,791.3553,-0.16131591796875,0.1005859375,0.984619140625,4.702911376953125,-4.78515625,0.9869384765625,0,4.0,4.0,4.0,4.0,55.00
2021-04-12 22:27:24.065,1.1666354999999,1.1216053999999,0.57403135,1.2776072999999,1.4782953999999,0.6145192999999,0.27047473,0.52734923,0.9341266999999,0.7032119999999,0.8092481499999,0.6698689999999,0.8201422999999,0.4475495199999,0.8888277999998,1.1628651999999,0.4151381299998,-0.17502539,0.5151590999999,0.5461995999999,810.696,1021.8314999999,811.9048,806.26373,875.56775,-0.1572265625,0.0989990234375,0.98089599609375,4.90478515625,-4.942169189453125,1.413116455078125,0,4.0,4.0,4.0,4.0,55.00
2021-04-12 22:27:24.574,1.1666354999999,1.1216053999999,0.57403135,1.2776072999999,1.4782953999999,0.6145192999999,0.27047473,0.52734923,0.9341266999999,0.7032119999999,0.8092481499999,0.6698689999999,0.8201422999999,0.4475495199999,0.8888277999998,1.1628651999999,0.4151381299998,-0.17502539,0.5151590999999,0.5461995999999,810.696,1021.8314999999,811.9048,813.1135,964.21246,-0.15826416015625,0.09814453125,0.98516845703125,4.94964599609375,-4.269256591796875,0.919647216796875,0,4.0,4.0,4.0,4.0,60.00
2021-04-12 22:27:25.086,1.1666354999999,1.1216053999999,0.57403135,1.2776072999999,1.4782953999999,0.6145192999999,0.27047473,0.52734923,0.9341266999999,0.7032119999999,0.8092481499999,0.6698689999999,0.8201422999999,0.4475495199999,0.8888277999998,1.1628651999999,0.4151381299998,-0.17502539,0.5151590999999,0.5461995999999,810.696,1021.8314999999,811.9048,651.53845,594.7253,-0.1551513671875,0.101806640625,0.98004150390625,4.32159423828125,-5.51788330078125,1.15142822265625,0,4.0,4.0,4.0,4.0,60.00
2021-04-12 22:27:25.594,1.1666354999999,1.1216053999999,0.57403135,1.2776072999999,1.4782953999999,0.6145192999999,0.27047473,0.52734923,0.9341266999999,0.7032119999999,0.8092481499999,0.6698689999999,0.8201422999999,0.4475495199999,0.8888277999998,1.1628651999999,0.4151381299998,-0.17502539,0.5151590999999,0.5461995999999,810.696,1021.8314999999,811.9048,809.0842,657.1795,-0.16314697265625,0.1016845703125,0.9835205078125,4.687957763671875,-4.97955322265625,1.054229736328125,0,4.0,4.0,4.0,4.0,60.00
2021-04-12 22:27:26.105,1.1666354999999,1.1216053999999,0.57403135,1.2776072999999,1.4782953999999,0.6145192999999,0.27047473,0.52734923,0.9341266999999,0.7032119999999,0.8092481499999,0.6698689999999,0.8201422999999,0.4475495199999,0.8888277999998,1.1628651999999,0.4151381299998,-0.17502539,0.5151590999999,0.5461995999999,810.696,1021.8314999999,811.9048,796.5934,714.7985,-0.156982421875,0.09979248046875,0.9869384765625,4.42626953125,-4.77020263671875,0.381317138671875,0,4.0,4.0,4.0,4.0,60.00
2021-04-12 22:27:26.618,1.1666354999999,1.1216053999999,0.57403135,1.2776072999999,1.4782953999999,0.6145192999999,0.27047473,0.52734923,0.9341266999999,0.7032119999999,0.8092481499999,0.6698689999999,0.8201422999999,0.4475495199999,0.8888277999998,1.1628651999999,0.4151381299998,-0.17502539,0.5151590999999,0.5461995999999,810.696,1021.8314999999,811.9048,791.3553,599.15753,-0.15692138671875,0.099853515625,0.9842529296875,4.306640625,-4.957122802734375,1.07666015625,0,4.0,4.0,4.0,4.0,60.00
2021-04-12 22:27:27.126,1.1666354999999,1.1216053999999,0.57403135,1.2776072999999,1.4782953999999,0.6145192999999,0.27047473,0.52734923,0.9341266999999,0.7032119999999,0.8092481499999,0.6698689999999,0.8201422999999,0.4475495199999,0.8888277999998,1.1628651999999,0.4151381299998,-0.17502539,0.5151590999999,0.5461995999999,810.696,1021.8314999999,811.9048,808.68134,772.4176,-0.15362548828125,0.0897216796875,0.9837646484375,3.887939453125,-4.942169189453125,-0.097198486328125,0,4.0,4.0,4.0,4.0,60.00
2021-04-12 22:27:27.635,1.1666354999999,1.1216053999999,0.57403135,1.2776072999999,1.4782953999999,0.6145192999999,0.27047473,0.52734923,0.9341266999999,0.7032119999999,0.8092481499999,0.6698689999999,0.8201422999999,0.4475495199999,0.8888277999998,1.1628651999999,0.4151381299998,-0.17502539,0.5151590999999,0.5461995999999,810.696,1021.8314999999,811.9048,792.1612,784.90845,-0.152099609375,0.09661865234375,0.98291015625,4.613189697265625,-4.0673828125,0.426177978515625,0,4.0,4.0,4.0,4.0,60.00
2021-04-12 22:27:28.143,1.1666354999999,1.1216053999999,0.57403135,1.2776072999999,1.4782953999999,0.6145192999999,0.27047473,0.52734923,0.9341266999999,0.7032119999999,0.8092481499999,0.6698689999999,0.8201422999999,0.4475495199999,0.8888277999998,1.1628651999999,0.4151381299998,-0.17502539,0.5151590999999,0.5461995999999,810.696,1021.8314999999,811.9048,814.3223,857.8388,-0.150146484375,0.094970703125,0.98260498046875,4.32159423828125,-4.882354736328125,1.398162841796875,0,4.0,4.0,4.0,4.0,60.00
2021-04-12 22:27:28.654,1.1666354999999,1.1216053999999,0.57403135,1.2776072999999,1.4782953999999,0.6145192999999,0.27047473,0.52734923,0.9341266999999,0.7032119999999,0.8092481499999,0.6698689999999,0.8201422999999,0.4475495199999,0.8888277999998,1.1628651999999,0.4151381299998,-0.17502539,0.5151590999999,0.5461995999999,810.696,1021.8314999999,811.9048,810.293,766.3736,-0.15478515625,0.09375,0.98712158203125,4.80010986328125,-4.127197265625,1.308441162109375,0,4.0,4.0,4.0,4.0,60.00
2021-04-12 22:27:29.165,1.1666354999999,1.1216053999999,0.57403135,1.2776072999999,1.4782953999999,0.6145192999999,0.27047473,0.52734923,0.9341266999999,0.7032119999999,0.8092481499999,0.6698689999999,0.8201422999999,0.4475495199999,0.8888277999998,1.1628651999999,0.4151381299998,-0.17502539,0.5151590999999,0.5461995999999,810.696,1021.8314999999,811.9048,797.3993,987.5824,-0.1517333984375,0.09735107421875,0.98797607421875,5.031890869140625,-4.762725830078125,1.2860107421875,0,4.0,4.0,4.0,4.0,60.00
2021-04-12 22:27:29.674,1.1666354999999,1.1216053999999,0.57403135,1.2776072999999,1.4782953999999,0.6145192999999,0.27047473,0.52734923,0.9341266999999,0.7032119999999,0.8092481499999,0.6698689999999,0.8201422999999,0.4475495199999,0.8888277999998,1.1628651999999,0.4151381299998,-0.17502539,0.5151590999999,0.5461995999999,810.696,1021.8314999999,811.9048,793.36993,793.7729,-0.15667724609375,0.09716796875,0.980224609375,3.536529541015625,-5.9515380859375,2.788848876953125,0,4.0,4.0,4.0,4.0,60.00
2021-04-12 22:27:30.184,1.1666354999999,1.1216053999999,0.57403135,1.2776072999999,1.4782953999999,0.6145192999999,0.27047473,0.52734923,0.9341266999999,0.7032119999999,0.8092481499999,0.6698689999999,0.8201422999999,0.4475495199999,0.8888277999998,1.1628651999999,0.4151381299998,-0.17502539,0.5151590999999,0.5461995999999,810.696,1021.8314999999,811.9048,826.8132,761.9414,-0.10101318359375,0.0572509765625,0.999267578125,0.31402587890625,-8.605804443359375,-28.987579345703125,0,4.0,4.0,4.0,4.0,60.00
2021-04-12 22:27:30.694,1.1666354999999,1.1216053999999,0.57403135,1.2776072999999,1.4782953999999,0.6145192999999,0.27047473,0.52734923,0.9341266999999,0.7032119999999,0.8092481499999,0.6698689999999,0.8201422999999,0.4475495199999,0.8888277999998,1.1628651999999,0.4151381299998,-0.17502539,0.5151590999999,0.5461995999999,810.696,1021.8314999999,811.9048,782.49084,664.43225,-0.11474609375,-0.08245849609375,0.98760986328125,0.6878662109375,-4.029998779296875,-2.691650390625,0,4.0,4.0,4.0,4.0,60.00
2021-04-12 22:27:31.206,1.1666354999999,1.1216053999999,0.57403135,1.2776072999999,1.4782953999999,0.6145192999999,0.27047473,0.52734923,0.9341266999999,0.7032119999999,0.8092481499999,0.6698689999999,0.8201422999999,0.4475495199999,0.8888277999998,1.1628651999999,0.4151381299998,-0.17502539,0.5151590999999,0.5461995999999,810.696,1021.8314999999,811.9048,798.60803,630.18317,-0.13177490234375,-0.06036376953125,0.99383544921875,4.074859619140625,-5.86181640625,-1.921539306640625,0,4.0,4.0,4.0,4.0,60.00
2021-04-12 22:27:31.713,1.1666354999999,1.1216053999999,0.57403135,1.2776072999999,1.4782953999999,0.6145192999999,0.27047473,0.52734923,0.9341266999999,0.7032119999999,0.8092481499999,0.6698689999999,0.8201422999999,0.4475495199999,0.8888277999998,1.1628651999999,0.4151381299998,-0.17502539,0.5151590999999,0.5461995999999,810.696,1021.8314999999,811.9048,813.5165,811.9048,-0.11529541015625,-0.077392578125,0.989990234375,3.521575927734375,-6.4300537109375,0.52337646484375,0,4.0,4.0,4.0,4.0,60.00
2021-04-12 22:27:32.230,1.1666354999999,1.1216053999999,0.57403135,1.2776072999999,1.4782953999999,0.6145192999999,0.27047473,0.52734923,0.9341266999999,0.7032119999999,0.8092481499999,0.6698689999999,0.8201422999999,0.4475495199999,0.8888277999998,1.1628651999999,0.4151381299998,-0.17502539,0.5151590999999,0.5461995999999,810.696,1021.8314999999,811.9048,794.17584,839.707,-0.12652587890625,-0.0784912109375,0.99066162109375,4.897308349609375,-3.3197021484375,3.09539794921875,0,4.0,4.0,4.0,4.0,60.00
2021-04-12 22:27:32.732,1.1666354999999,1.1216053999999,0.57403135,1.2776072999999,1.4782953999999,0.6145192999999,0.27047473,0.52734923,0.9341266999999,0.7032119999999,0.8092481499999,0.6698689999999,0.8201422999999,0.4475495199999,0.8888277999998,1.1628651999999,0.4151381299998,-0.17502539,0.5151590999999,0.5461995999999,810.696,1021.8314999999,811.9048,823.5897,759.5238,-0.1407470703125,-0.0789794921875,0.989013671875,5.1141357421875,-2.22808837890625,2.82623291015625,0,4.0,4.0,4.0,4.0,60.00
2021-04-12 22:27:33.247,1.1666354999999,1.1216053999999,0.57403135,1.2776072999999,1.4782953999999,0.6145192999999,0.27047473,0.52734923,0.9341266999999,0.7032119999999,0.8092481499999,0.6698689999999,0.8201422999999,0.4475495199999,0.8888277999998,1.1628651999999,0.4151381299998,-0.17502539,0.5151590999999,0.5461995999999,810.696,1021.8314999999,811.9048,790.14655,622.9304,-0.19378662109375,0.00250244140625,0.989501953125,11.327362060546875,0.142059326171875,7.65625,0,4.0,4.0,4.0,4.0,60.00
2021-04-12 22:27:33.754,1.1666354999999,1.1216053999999,0.57403135,1.2776072999999,1.4782953999999,0.6145192999999,0.27047473,0.52734923,0.9341266999999,0.7032119999999,0.8092481499999,0.6698689999999,0.8201422999999,0.4475495199999,0.8888277999998,1.1628651999999,0.4151381299998,-0.17502539,0.5151590999999,0.5461995999999,810.696,1021.8314999999,811.9048,801.02563,818.3516,-0.25799560546875,0.00213623046875,1.0029296875,-4.74029541015625,5.944061279296875,6.826324462890625,0,4.0,4.0,4.0,4.0,60.00
2021-04-12 22:27:34.264,1.1666354999999,1.1216053999999,0.57403135,1.2776072999999,1.4782953999999,0.6145192999999,0.27047473,0.52734923,0.9341266999999,0.7032119999999,0.8092481499999,0.6698689999999,0.8201422999999,0.4475495199999,0.8888277999998,1.1628651999999,0.4151381299998,-0.17502539,0.5151590999999,0.5461995999999,810.696,1021.8314999999,811.9048,805.4579,748.24176,-0.19207763671875,-0.0291748046875,0.9898681640625,3.805694580078125,-10.998382568359375,7.1478271484375,0,4.0,4.0,4.0,4.0,60.00
2021-04-12 22:27:34.778,1.1666354999999,1.1216053999999,0.57403135,1.2776072999999,1.4782953999999,0.6145192999999,0.27047473,0.52734923,0.9341266999999,0.7032119999999,0.8092481499999,0.6698689999999,0.8201422999999,0.4475495199999,0.8888277999998,1.1628651999999,0.4151381299998,-0.17502539,0.5151590999999,0.5461995999999,810.696,1021.8314999999,811.9048,792.1612,620.10986,-0.23974609375,-0.10784912109375,0.96429443359375,5.084228515625,-2.4822998046875,0.037384033203125,0,4.0,4.0,4.0,4.0,55.00
2021-04-12 22:27:35.288,1.1666354999999,1.1216053999999,0.57403135,1.2776072999999,1.4782953999999,0.6145192999999,0.27047473,0.52734923,0.9341266999999,0.7032119999999,0.8092481499999,0.6698689999999,0.8201422999999,0.4475495199999,0.8888277999998,1.1628651999999,0.4151381299998,-0.17502539,0.5151590999999,0.5461995999999,810.696,1021.8314999999,811.9048,821.1722,622.9304,-0.23492431640625,-0.08685302734375,0.9697265625,6.018829345703125,-4.77020263671875,0.35888671875,0,4.0,4.0,4.0,4.0,55.00
2021-04-12 22:27:35.793,1.1666354999999,1.1216053999999,0.57403135,1.2776072999999,1.4782953999999,0.6145192999999,0.27047473,0.52734923,0.9341266999999,0.7032119999999,0.8092481499999,0.6698689999999,0.8201422999999,0.4475495199999,0.8888277999998,1.1628651999999,0.4151381299998,-0.17502539,0.5151590999999,0.5461995999999,810.696,1021.8314999999,811.9048,801.4286,915.05493,-0.22296142578125,-0.092041015625,0.972412109375,4.702911376953125,-5.7421875,4.732818603515625,0,4.0,4.0,4.0,4.0,55.00
2021-04-12 22:27:36.308,1.1666354999999,1.1216053999999,0.57403135,1.2776072999999,1.4782953999999,0.6145192999999,0.27047473,0.52734923,0.9341266999999,0.7032119999999,0.8092481499999,0.6698689999999,0.8201422999999,0.4475495199999,0.8888277999998,1.1628651999999,0.4151381299998,-0.17502539,0.5151590999999,0.5461995999999,810.696,1021.8314999999,811.9048,808.2784,846.55676,-0.2403564453125,-0.012939453125,0.9781494140625,4.6954345703125,-15.372314453125,1.428070068359375,0,4.0,4.0,4.0,4.0,55.00
2021-04-12 22:27:36.813,1.1666354999999,1.1216053999999,0.57403135,1.2776072999999,1.4782953999999,0.6145192999999,0.27047473,0.52734923,0.9341266999999,0.7032119999999,0.8092481499999,0.6698689999999,0.8201422999999,0.4475495199999,0.8888277999998,1.1628651999999,0.4151381299998,-0.17502539,0.5151590999999,0.5461995999999,810.696,1021.8314999999,811.9048,802.6374,725.2747,-0.2421875,-0.0322265625,0.974609375,4.18701171875,-4.972076416015625,0.814971923828125,0,4.0,4.0,4.0,4.0,55.00
2021-04-12 22:27:37.323,1.1666354999999,1.1216053999999,0.57403135,1.2776072999999,1.4782953999999,0.6145192999999,0.27047473,0.52734923,0.9341266999999,0.7032119999999,0.8092481499999,0.6698689999999,0.8201422999999,0.4475495199999,0.8888277999998,1.1628651999999,0.4151381299998,-0.17502539,0.5151590999999,0.5461995999999,810.696,1021.8314999999,811.9048,771.2088,600.3663,-0.22210693359375,-0.03460693359375,0.97723388671875,4.583282470703125,-5.33843994140625,-2.250518798828125,0,4.0,4.0,4.0,4.0,55.00
2021-04-12 22:27:37.836,1.1666354999999,1.1216053999999,0.57403135,1.2776072999999,1.4782953999999,0.6145192999999,0.27047473,0.52734923,0.9341266999999,0.7032119999999,0.8092481499999,0.6698689999999,0.8201422999999,0.4475495199999,0.8888277999998,1.1628651999999,0.4151381299998,-0.17502539,0.5151590999999,0.5461995999999,810.696,1021.8314999999,811.9048,790.14655,693.44324,-0.23138427734375,-0.05889892578125,0.97418212890625,5.869293212890625,-7.70111083984375,-0.157012939453125,0,4.0,4.0,4.0,4.0,55.00
2021-04-12 22:27:38.346,1.1666354999999,1.1216053999999,0.57403135,1.2776072999999,1.4782953999999,0.6145192999999,0.27047473,0.52734923,0.9341266999999,0.7032119999999,0.8092481499999,0.6698689999999,0.8201422999999,0.4475495199999,0.8888277999998,1.1628651999999,0.4151381299998,-0.17502539,0.5151590999999,0.5461995999999,810.696,1021.8314999999,811.9048,838.9011,746.63007,-0.21185302734375,-0.05181884765625,0.98199462890625,5.764617919921875,-4.523468017578125,0.95703125,0,4.0,4.0,4.0,4.0,55.00
2021-04-12 22:27:38.854,1.1666354999999,1.1216053999999,0.57403135,1.2776072999999,1.4782953999999,0.6145192999999,0.27047473,0.52734923,0.9341266999999,0.7032119999999,0.8092481499999,0.6698689999999,0.8201422999999,0.4475495199999,0.8888277999998,1.1628651999999,0.4151381299998,-0.17502539,0.5151590999999,0.5461995999999,810.696,1021.8314999999,811.9048,795.38464,705.5311,-0.22100830078125,-0.0394287109375,0.97418212890625,5.151519775390625,-6.886138916015625,1.547698974609375,0,4.0,4.0,4.0,4.0,55.00
2021-04-12 22:27:39.365,1.1666354999999,1.1216053999999,0.57403135,1.2776072999999,1.4782953999999,0.6145192999999,0.27047473,0.52734923,0.9341266999999,0.7032119999999,0.8092481499999,0.6698689999999,0.8201422999999,0.4475495199999,0.8888277999998,1.1628651999999,0.4151381299998,-0.17502539,0.5151590999999,0.5461995999999,810.696,1021.8314999999,811.9048,787.72894,689.011,-0.24029541015625,-0.036865234375,0.9757080078125,4.957122802734375,-3.162689208984375,2.64678955078125,0,4.0,4.0,4.0,4.0,55.00
2021-04-12 22:27:39.872,1.1666354999999,1.1216053999999,0.57403135,1.2776072999999,1.4782953999999,0.6145192999999,0.27047473,0.52734923,0.9341266999999,0.7032119999999,0.8092481499999,0.6698689999999,0.8201422999999,0.4475495199999,0.8888277999998,1.1628651999999,0.4151381299998,-0.17502539,0.5151590999999,0.5461995999999,810.696,1021.8314999999,811.9048,804.65204,697.47253,-0.2255859375,-0.03594970703125,0.97723388671875,4.747772216796875,-3.6785888671875,1.435546875,0,4.0,4.0,4.0,4.0,55.00
2021-04-12 22:27:40.388,1.1666354999999,1.1216053999999,0.57403135,1.2776072999999,1.4782953999999,0.6145192999999,0.27047473,0.52734923,0.9341266999999,0.7032119999999,0.8092481499999,0.6698689999999,0.8201422999999,0.4475495199999,0.8888277999998,1.1628651999999,0.4151381299998,-0.17502539,0.5151590999999,0.5461995999999,810.696,1021.8314999999,811.9048,847.3626,805.8608,-0.233642578125,-0.0335693359375,0.97943115234375,4.553375244140625,-4.23187255859375,0.3289794921875,0,4.0,4.0,4.0,4.0,55.00
2021-04-12 22:27:40.894,1.1666354999999,1.1216053999999,0.57403135,1.2776072999999,1.4782953999999,0.6145192999999,0.27047473,0.52734923,0.9341266999999,0.7032119999999,0.8092481499999,0.6698689999999,0.8201422999999,0.4475495199999,0.8888277999998,1.1628651999999,0.4151381299998,-0.17502539,0.5151590999999,0.5461995999999,810.696,1021.8314999999,811.9048,791.75824,482.71063,-0.23236083984375,-0.03521728515625,0.97589111328125,4.717864990234375,-5.360870361328125,1.39068603515625,0,4.0,4.0,4.0,4.0,55.00
2021-04-12 22:27:41.404,1.1666354999999,1.1216053999999,0.57403135,1.2776072999999,1.4782953999999,0.6145192999999,0.27047473,0.52734923,0.9341266999999,0.7032119999999,0.8092481499999,0.6698689999999,0.8201422999999,0.4475495199999,0.8888277999998,1.1628651999999,0.4151381299998,-0.17502539,0.5151590999999,0.5461995999999,810.696,1021.8314999999,811.9048,803.44324,707.9487,-0.21636962890625,-0.037841796875,0.9796142578125,4.837493896484375,-5.45806884765625,1.727142333984375,0,4.0,4.0,4.0,4.0,55.00
2021-04-12 22:27:41.913,1.1666354999999,1.1216053999999,0.57403135,1.2776072999999,1.4782953999999,0.6145192999999,0.27047473,0.52734923,0.9341266999999,0.7032119999999,0.8092481499999,0.6698689999999,0.8201422999999,0.4475495199999,0.8888277999998,1.1628651999999,0.4151381299998,-0.17502539,0.5151590999999,0.5461995999999,810.696,1021.8314999999,811.9048,836.8865,804.65204,-0.2142333984375,-0.04351806640625,0.97552490234375,4.6356201171875,-5.749664306640625,1.435546875,0,4.0,4.0,4.0,4.0,55.00
2021-04-12 22:27:42.423,1.1666354999999,1.1216053999999,0.57403135,1.2776072999999,1.4782953999999,0.6145192999999,0.27047473,0.52734923,0.9341266999999,0.7032119999999,0.8092481499999,0.6698689999999,0.8201422999999,0.4475495199999,0.8888277999998,1.1628651999999,0.4151381299998,-0.17502539,0.5151590999999,0.5461995999999,810.696,1021.8314999999,811.9048,801.4286,642.674,-0.218994140625,-0.03472900390625,0.98016357421875,4.598236083984375,-4.88983154296875,0.979461669921875,0,4.0,4.0,4.0,4.0,55.00
2021-04-12 22:27:42.933,1.1666354999999,1.1216053999999,0.57403135,1.2776072999999,1.4782953999999,0.6145192999999,0.27047473,0.52734923,0.9341266999999,0.7032119999999,0.8092481499999,0.6698689999999,0.8201422999999,0.4475495199999,0.8888277999998,1.1628651999999,0.4151381299998,-0.17502539,0.5151590999999,0.5461995999999,810.696,1021.8314999999,811.9048,788.1319,668.46155,-0.215576171875,-0.0364990234375,0.981689453125,4.2169189453125,-4.912261962890625,0.11962890625,0,4.0,4.0,4.0,4.0,55.00
