TimeStamp,Delta_TP9,Delta_AF7,Delta_AF8,Delta_TP10,Theta_TP9,Theta_AF7,Theta_AF8,Theta_TP10,Alpha_TP9,Alpha_AF7,Alpha_AF8,Alpha_TP10,Beta_TP9,Beta_AF7,Beta_AF8,Beta_TP10,Gamma_TP9,Gamma_AF7,Gamma_AF8,Gamma_TP10,RAW_TP9,RAW_AF7,RAW_AF8,RAW_TP10,AUX_RIGHT,Accelerometer_X,Accelerometer_Y,Accelerometer_Z,Gyro_X,Gyro_Y,Gyro_Z,HeadBandOn,HSI_TP9,HSI_AF7,HSI_AF8,HSI_TP10,Battery,Elements
2021-04-13 22:29:22.468,0.64089733,1.2372841,0.665456,0.56863457,0.6155273,0.8073114,-0.20017031,0.42140725,0.67255557,0.4106333,0.13328907,0.4092929,0.5106812,-0.07368462,0.24946655,0.59867424,0.1702803,-0.3791355,-0.067312084,0.12032245,791.75824,820.7692,821.978,803.44324,897.72894,-0.1217041015625,0.0179443359375,0.9903564453125,-0.79254150390625,-12.149810791015625,13.92181396484375,1,1.0,1.0,1.0,1.0,100.00
2021-04-13 22:29:22.982,0.86168003,1.303057,0.63268524,0.56863457,0.56069714,0.7804998,-0.15571152,0.42140725,0.702247,0.50703084,0.14079656,0.4092929,0.50043184,0.012812293,0.15306263,0.59867424,0.22948276,-0.347317,0.04167281,0.12032245,803.0403,826.8132,832.8571,809.4872,666.4469,-0.171142578125,0.05511474609375,0.96697998046875,5.869293212890625,-4.725341796875,7.514190673828125,1,1.0,1.0,1.0,1.0,100.00
2021-04-13 22:29:23.485,0.93089175,1.3185571,0.64107955,0.62959725,0.50004184,0.70411515,0.008393312,0.39656064,0.684653,0.37575588,0.2586248,0.6562193,0.4845119,0.012459853,0.11212207,0.56027764,0.32720944,-0.35250401,0.12378495,0.30619392,832.0513,832.4542,835.2747,837.28937,884.83514,-0.25238037109375,0.0869140625,0.97705078125,0.83740234375,-5.929107666015625,69.99038696289062,1,1.0,1.0,1.0,1.0,100.00
2021-04-13 22:29:24.007,1.0588857,1.3957897,0.7532828,0.58141714,0.5089556,0.71439964,0.12746143,0.36022186,0.7303404,0.33611643,0.23476617,0.69902617,0.55839795,0.11225607,0.12961364,0.61570674,0.32498237,-0.29558232,0.2020115,0.36806932,817.1429,811.50183,796.1905,827.2161,855.82416,-0.07562255859375,0.02606201171875,0.995849609375,-1.084136962890625,0.657958984375,5.809478759765625,1,1.0,1.0,1.0,1.0,100.00
2021-04-13 22:29:24.529,1.0357236,1.1298499,0.54383755,0.77828395,0.9221757,0.7971532,0.23153622,0.6280886,0.8555659,0.6575175,0.19610976,0.7279685,0.647388,0.16550422,0.087558836,0.64227885,0.32414585,-0.36465973,0.23470712,0.3342171,837.28937,832.4542,815.5311,823.5897,677.326,-0.17974853515625,0.0809326171875,0.97998046875,4.08233642578125,1.532745361328125,13.465728759765625,1,1.0,1.0,1.0,1.0,100.00
2021-04-13 22:29:25.036,1.2024453,1.3611065,0.61769176,0.9551203,0.98180693,0.84543395,0.2693311,0.60278356,1.0081993,0.8188006,0.19610976,0.80519843,0.6173523,0.14294651,0.1307081,0.55542976,0.28192002,-0.48747894,0.2833373,0.37273926,813.1135,833.2601,808.68134,770.0,620.5128,-0.1182861328125,0.06304931640625,0.9552001953125,2.1234130859375,0.231781005859375,6.1907958984375,1,1.0,1.0,1.0,1.0,100.00
2021-04-13 22:29:25.545,1.165101,1.3311032,0.61008805,1.0177613,0.9864268,0.6753279,-0.4643228,0.7838562,1.0027145,0.8188006,0.17577416,0.9535764,0.5718255,0.096471965,0.32747033,0.563696,0.25771248,-0.42920816,-0.077029675,0.3773655,799.011,805.05493,788.5348,738.5714,599.5604,-0.25439453125,0.05718994140625,0.96734619140625,4.837493896484375,1.143951416015625,6.65435791015625,1,1.0,1.0,1.0,1.0,100.00
2021-04-13 22:29:26.061,1.1514515,1.3820498,0.5962254,1.042147,0.88180757,0.6098207,-0.40622443,0.8486814,0.99807364,0.7779598,0.19088855,1.0210538,0.5491932,0.012702728,0.30408508,0.5333217,0.17476831,-0.46275553,-0.111946076,0.38353062,757.50916,801.4286,801.8315,817.5458,853.4066,-0.26141357421875,0.07586669921875,0.94940185546875,6.47491455078125,-8.516082763671875,-7.005767822265625,1,1.0,1.0,1.0,1.0,100.00
2021-04-13 22:29:26.164,1.0896314,1.3280039000000,0.5962254,1.0630931499999,0.9019486649999,0.495931285,-0.40622443,0.970274,0.86056312,0.63678791,0.19088855,0.9900576999999,0.5966847500000,-0.021715026,0.30408508,0.59975917,0.12775148,-0.43738185,-0.111946076,0.3308390850000,780.07328,806.465215,801.22710000000,,,,,,,,,,,,,,,/muse/elements/blink
2021-04-13 22:29:26.590,1.0278113,1.273958,0.5962254,1.0840393,0.92208976,0.38204187,-0.40622443,1.0918666,0.7230526,0.49561602,0.19088855,0.9590616,0.6441763,-0.05613278,0.30408508,0.66619664,0.08073465,-0.41200817,-0.111946076,0.27814755,802.6374,811.50183,800.6227,821.5751,755.09155,-0.282958984375,0.1063232421875,0.970703125,9.6002197265625,-1.069183349609375,3.491668701171875,1,1.0,1.0,1.0,1.0,100.00
2021-04-13 22:29:27.094,1.0687752,1.2572653,0.5582498,1.107507,1.0601282,0.5941439,-0.42203158,1.1014144,0.5589399,-0.27253428,0.075522326,0.93539923,0.67678314,-0.22704323,0.26422203,0.65016204,-0.023458201,-0.5826639,-0.17455666,0.2740723,803.8461,785.7143,816.337,847.3626,832.0513,-0.33294677734375,0.07525634765625,0.95098876953125,2.7215576171875,-3.46923828125,3.1402587890625,1,1.0,1.0,1.0,1.0,100.00
2021-04-13 22:29:27.595,1.0687752,1.2572653,0.5582498,1.107507,1.0601282,0.5941439,-0.42203158,1.1014144,0.5589399,-0.27253428,0.075522326,0.93539923,0.67678314,-0.22704323,0.26422203,0.65016204,-0.023458201,-0.5826639,-0.17455666,0.2740723,850.989,808.68134,860.65936,788.5348,899.7436,-0.29296875,0.05865478515625,0.95904541015625,0.34393310546875,-5.03936767578125,4.0972900390625,1,1.0,1.0,1.0,1.0,100.00
2021-04-13 22:29:28.106,1.2502557,1.161229,0.60521644,1.107507,0.8595844,0.7619447,0.6223586,1.1014144,0.8796068,0.6470482,0.7171512,0.93539923,0.71386826,0.24094102,0.48372862,0.65016204,0.24318421,-0.44082543,0.29913,0.2740723,791.3553,788.1319,810.696,818.3516,897.326,-0.326416015625,0.02313232421875,0.94390869140625,4.50103759765625,0.7177734375,0.755157470703125,1,1.0,1.0,1.0,1.0,100.00
2021-04-13 22:29:28.620,1.2506809,1.1444618,0.896177,1.107507,0.87006897,0.7292487,0.7124936,1.1014144,0.8801967,0.6682247,0.7172837,0.93539923,0.7067829,0.2599413,0.4329783,0.65016204,0.25678486,-0.42454892,0.27479032,0.2740723,798.20514,806.26373,821.1722,859.85345,842.9304,-0.38592529296875,0.04547119140625,0.92791748046875,3.357086181640625,-6.721649169921875,-1.36077880859375,1,1.0,1.0,1.0,1.0,100.00
2021-04-13 22:29:29.140,1.1779959,1.0808297,0.896177,1.107507,0.82242733,0.6698173,0.7124936,1.1014144,0.80913115,0.6678149,0.7172837,0.93539923,0.713405,0.2713145,0.4329783,0.65016204,0.28481588,-0.39391574,0.27479032,0.2740723,880.0,853.8095,799.011,804.2491,694.2491,-0.33709716796875,-0.01177978515625,0.9146728515625,6.467437744140625,-17.323760986328125,-13.959197998046875,1,1.0,1.0,1.0,1.0,100.00
2021-04-13 22:29:29.647,1.160184,0.9360695,1.0434602,1.107507,0.80902165,0.56232315,0.76827186,1.1014144,0.6538882,0.62574184,0.6042696,0.93539923,0.6570695,0.29388663,0.37673894,0.65016204,0.359545,-0.35608467,0.31250814,0.2740723,803.44324,807.8755,804.2491,813.91943,841.7216,-0.29107666015625,0.023681640625,0.94964599609375,6.781463623046875,-0.800018310546875,-1.383209228515625,1,1.0,1.0,1.0,1.0,100.00
2021-04-13 22:29:30.158,1.160184,0.9360695,1.1030945,1.107507,0.80902165,0.56232315,0.8039064,1.1014144,0.6538882,0.62574184,0.5219775,0.93539923,0.6570695,0.29388663,0.3598616,0.65016204,0.359545,-0.35608467,0.24231236,0.2740723,846.55676,812.71063,792.96704,812.71063,558.0586,-0.28558349609375,0.0216064453125,0.941650390625,3.63372802734375,-3.626251220703125,1.12152099609375,1,1.0,1.0,1.0,1.0,100.00
2021-04-13 22:29:30.162,1.160184,0.91696165,0.95314225,1.107507,0.80902165,0.61781606,0.56203225,1.1014144,0.6538882,0.56753129,0.393727025,0.93539923,0.6570695,0.223936645,0.3407862849999,0.65016204,0.359545,-0.38950406,0.19624355,0.2740723,837.89378000000,808.681335,803.84617,,,,,,,,,,,,,,,/muse/elements/blink
2021-04-13 22:29:30.666,1.160184,0.8978538,0.80319,1.107507,0.80902165,0.67330897,0.3201581,1.1014144,0.6538882,0.50932074,0.26547655,0.93539923,0.6570695,0.15398666,0.32171097,0.65016204,0.359545,-0.42292345,0.15017474,0.2740723,829.2308,804.65204,814.7253,837.28937,675.7143,-0.260009765625,-0.00445556640625,0.96099853515625,-0.46356201171875,-5.0543212890625,1.51031494140625,1,1.0,1.0,1.0,1.0,100.00
2021-04-13 22:29:31.197,1.160184,0.8546768,0.7654759,1.107507,0.80902165,0.7381426,0.15987541,1.1014144,0.6538882,0.5539151,0.28318965,0.93539923,0.6570695,0.17497034,0.3493318,0.65016204,0.359545,-0.43806088,0.14003223,0.2740723,823.9927,794.17584,821.5751,780.07324,544.35895,-0.27362060546875,0.02532958984375,0.967041015625,4.224395751953125,-2.8411865234375,2.415008544921875,1,2.0,1.0,1.0,2.0,100.00
2021-04-13 22:29:31.722,0.6301971,1.0001807,0.844532,0.77144593,0.3445317,0.71866226,0.26694667,-0.22320203,0.38759694,0.5525111,0.30554816,0.08746815,0.2628736,0.13599515,0.2867222,0.33901647,0.31339175,-0.469233,0.18829294,0.4512685,820.3663,807.0696,804.65204,794.9817,748.24176,-0.26165771484375,0.01513671875,0.96429443359375,6.11602783203125,-5.345916748046875,2.10845947265625,1,1.0,1.0,1.0,1.0,100.00
2021-04-13 22:29:32.086,0.6133130149999,1.02230115,0.8344392,0.77126819,0.32653695,0.66427218,0.258502485,-0.19366559,0.38946752,0.50843355,0.27301597,0.139676175,0.26171898,0.125407137,0.28030328,0.349715265,0.313464925,-0.47768883,0.2068478799999,0.47336335,823.38830000000,809.285715,801.02567,,,,,,,,,,,,,,,/muse/elements/blink
2021-04-13 22:29:32.225,0.59642893,1.0444216,0.8243464,0.77109045,0.3085422,0.6098821,0.2500583,-0.16412915,0.3913381,0.464356,0.24048378,0.1918842,0.26056436,0.114819124,0.27388436,0.36041406,0.3135381,-0.48614466,0.22540282,0.4954582,826.4103,811.50183,797.3993,767.5824,616.08057,-0.26904296875,0.05279541015625,0.96417236328125,5.33843994140625,-4.972076416015625,1.263580322265625,1,1.0,1.0,1.0,1.0,100.00
2021-04-13 22:29:32.739,0.59642893,1.1562991,0.95581895,0.77109045,0.3085422,0.45872223,0.6614943,-0.16412915,0.3913381,0.29943934,0.39734906,0.1918842,0.26056436,0.07508708,0.21283051,0.36041406,0.3135381,-0.4964608,0.28734055,0.4954582,786.52014,806.26373,794.17584,828.4249,757.9121,-0.27642822265625,0.05145263671875,0.96234130859375,4.44122314453125,-4.0972900390625,0.934600830078125,1,1.0,1.0,1.0,1.0,100.00
2021-04-13 22:29:33.271,0.5940933,1.0546023,0.8402468,0.80190575,0.26640558,0.2987198,0.6879387,-0.10759832,0.33828261,0.17878398,0.46807027,0.18717603,0.2513454,0.08158939,0.325888,0.39723653,0.30358043,-0.40978256,0.26622376,0.551138,828.8278,811.9048,835.6777,806.26373,722.8571,-0.2821044921875,0.05108642578125,0.959228515625,4.65057373046875,-3.93280029296875,1.248626708984375,1,1.0,1.0,1.0,1.0,100.00
2021-04-13 22:29:33.796,0.56985873,0.79469365,0.83825094,0.6848739,0.16640748,0.53521854,0.6939396,0.24777871,0.4265235,0.24987723,0.47232905,0.7895902,0.38204545,0.12771437,0.3218036,0.5439427,0.13693061,-0.33700886,0.17311291,0.31736246,823.1868,815.5311,805.8608,757.1062,796.1905,-0.28204345703125,0.050048828125,0.9613037109375,4.418792724609375,-4.777679443359375,0.456085205078125,1,1.0,1.0,1.0,1.0,100.00
2021-04-13 22:29:34.320,0.5148677,0.90418905,0.7873333,0.6684866,0.40355194,0.5937152,0.519337,0.3068695,0.4520118,0.77689254,0.37390313,0.7895902,0.3270046,0.13352169,0.25326824,0.5442462,0.10791207,-0.37146026,0.056515172,0.2975359,837.28937,806.6667,815.12823,784.5055,608.8278,-0.28472900390625,0.048095703125,0.95806884765625,4.44122314453125,-4.50103759765625,0.979461669921875,1,1.0,1.0,1.0,1.0,100.00
2021-04-13 22:29:34.593,0.473066675,0.929553175,0.84331488,0.6008409,0.41873987,0.60858515,0.522470175,0.27823669,0.4085425900000,0.77689254,0.413996965,0.7140195149999,0.3102704,0.140421385,0.2372247499999,0.5359656500000,0.101932495,-0.399510665,0.0099983510000,0.2856421,830.84248499999,803.44325,814.12086500000,,,,,,,,,,,,,,,/muse/elements/blink
2021-04-13 22:29:34.838,0.43126565,0.9549173,0.89929646,0.5331952,0.4339278,0.6234551,0.52560335,0.24960388,0.36507338,0.77689254,0.4540908,0.63844883,0.2935362,0.14732108,0.22118126,0.5276851,0.09595292,-0.42756107,-0.03651847,0.2737483,824.3956,800.2198,813.1135,780.07324,931.5751,-0.27679443359375,0.04705810546875,0.964599609375,4.478607177734375,-5.2935791015625,0.61309814453125,1,1.0,1.0,1.0,1.0,100.00
2021-04-13 22:29:35.357,0.49052656,1.2067494,0.8289627,0.7187139,0.61120015,0.66795677,0.51124114,0.42638528,0.21583469,0.7860193,0.41417775,0.46807352,0.28045693,0.13712882,0.22860035,0.56601304,0.07032905,-0.44457182,0.01796185,0.29962212,786.52014,811.0989,803.44324,810.293,732.1245,-0.2811279296875,0.04168701171875,0.9630126953125,4.964599609375,-4.18701171875,0.800018310546875,1,1.0,1.0,1.0,1.0,100.00
2021-04-13 22:29:35.885,0.5177622,1.1165994,0.6669549,0.79134625,0.6611888,0.46781904,0.457967,0.47353217,0.21139166,0.6009207,0.39134914,0.41604176,0.3088834,0.0079139285,0.24784277,0.591817,0.043166995,-0.46785444,0.061303798,0.31602368,806.6667,799.011,828.4249,793.7729,878.7912,-0.27996826171875,0.04541015625,0.963134765625,4.957122802734375,-4.284210205078125,1.86920166015625,1,1.0,1.0,1.0,1.0,100.00
2021-04-13 22:29:36.116,0.5177622,1.05701425,0.423412505,0.79134625,0.6611888,0.45885736,0.3911744900000,0.47353217,0.21139166,0.60208225,0.3972881000000,0.41604176,0.3088834,-0.00362885075,0.25269731,0.591817,0.043166995,-0.4266769,0.100022449,0.31602368,801.83152,804.2491,816.53847,,,,,,,,,,,,,,,/muse/elements/blink
2021-04-13 22:29:36.411,0.5177622,0.9974291,0.17987011,0.79134625,0.6611888,0.44989568,0.32438198,0.47353217,0.21139166,0.6032438,0.40322706,0.41604176,0.3088834,-0.01517163,0.25755185,0.591817,0.043166995,-0.38549936,0.1387411,0.31602368,796.99634,809.4872,804.65204,850.18317,920.696,-0.27679443359375,0.04766845703125,0.9610595703125,5.62255859375,-2.818756103515625,2.0037841796875,1,1.0,1.0,1.0,1.0,100.00
2021-04-13 22:29:36.921,0.5177622,1.0561833,0.03974892,0.79134625,0.6611888,0.44007725,0.1824448,0.47353217,0.21139166,0.573298,0.47885212,0.41604176,0.3088834,-0.037063055,0.20275326,0.591817,0.043166995,-0.3429999,0.19607502,0.31602368,817.1429,825.2015,794.9817,838.49817,782.0879,-0.2879638671875,0.10650634765625,0.96240234375,6.661834716796875,-3.46923828125,1.921539306640625,1,1.0,1.0,1.0,1.0,100.00
2021-04-13 22:29:37.447,0.5177622,1.207538,0.51930475,0.79134625,0.6611888,0.6621048,0.23592171,0.47353217,0.21139166,0.84615535,0.5288929,0.41604176,0.3088834,0.03471389,0.19219096,0.591817,0.043166995,-0.3064561,0.18637507,0.31602368,828.4249,821.978,817.9487,794.9817,958.97437,-0.27874755859375,0.0714111328125,0.95965576171875,4.119720458984375,-5.00946044921875,-0.127105712890625,1,2.0,1.0,1.0,2.0,100.00
2021-04-13 22:29:37.968,0.8337118,1.4004527,0.7009744,0.5457542,0.3405747,0.79682815,0.28580606,0.48992208,0.34053892,0.85330683,0.5258083,0.40107122,0.565944,0.092711486,0.1370255,0.45856094,0.280669,-0.32733864,0.18065548,0.3600281,811.9048,805.4579,813.91943,747.03296,609.2308,-0.28753662109375,0.07244873046875,0.95745849609375,4.628143310546875,-5.016937255859375,0.859832763671875,1,1.0,1.0,1.0,1.0,100.00
2021-04-13 22:29:38.503,0.72615165,1.2963928,0.7635047,0.6297175,0.24527545,0.7775285,0.3091685,0.354193,0.61953616,0.85072887,0.5168322,0.41192523,0.5139164,0.099147655,0.2502979,0.46292678,0.15472543,-0.44085085,0.05927224,0.26563573,819.15753,798.60803,811.0989,772.01465,695.4579,-0.287353515625,0.069091796875,0.9560546875,4.6356201171875,-3.910369873046875,1.368255615234375,1,1.0,1.0,1.0,1.0,100.00
2021-04-13 22:29:38.884,0.734671125,0.9320179,0.68573505,0.63469325,0.2507592349999,0.58223598,0.2737000400000,0.3536348649999,0.61502493,0.547335355,0.358216015,0.41192523,0.4954920000000,0.0254958195,0.2486696,0.4567678899999,0.1196445449999,-0.442077350000,0.0284331551999,0.2669987550000,810.494515,796.391935,797.60071999999,,,,,,,,,,,,,,,/muse/elements/blink
2021-04-13 22:29:39.011,0.7431906,0.567643,0.6079654,0.639669,0.25624302,0.38694346,0.23823158,0.35307673,0.6105137,0.24394184,0.19959983,0.41192523,0.4770676,-0.048156016,0.2470413,0.450609,0.08456366,-0.44330385,-0.0024059296,0.26836178,801.8315,794.17584,784.10254,763.1502,618.9011,-0.29132080078125,0.07257080078125,0.95355224609375,4.164581298828125,-4.1571044921875,1.039276123046875,1,1.0,1.0,1.0,1.0,100.00
2021-04-13 22:29:39.519,0.5025966,0.72391933,0.6373818,0.70489496,0.10208818,0.36996126,0.35145587,0.1927675,0.5981052,0.34351608,0.21768218,0.05853474,0.38447034,-0.0968525,0.24996457,0.44386932,-0.16338536,-0.43145785,-0.036323532,0.17370865,804.65204,798.60803,800.2198,812.3077,676.1172,-0.29931640625,0.09771728515625,0.9544677734375,5.63751220703125,-3.39447021484375,3.461761474609375,1,1.0,1.0,1.0,1.0,100.00
2021-04-13 22:29:40.023,0.42736813,0.83153653,0.71859497,0.612498,0.18608694,0.37607357,0.39937234,0.17253727,0.592055,0.33150244,0.18595286,-0.068211466,0.30510795,-0.12552655,0.2271716,0.4595335,-0.16004646,-0.42224857,-0.02061835,0.21537043,813.1135,793.36993,792.5641,747.8388,646.30035,-0.33502197265625,0.07318115234375,0.934814453125,2.938385009765625,-6.930999755859375,7.53662109375,1,1.0,1.0,1.0,1.0,100.00
2021-04-13 22:29:40.511,0.42736813,0.899193465,0.710289685,0.612498,0.18608694,0.368909015,0.3289608499999,0.17253727,0.592055,0.2765932,0.172113145,-0.068211466,0.30510795,-0.134947474999,0.234098525,0.4595335,-0.16004646,-0.440337955,-0.052290723,0.21537043,815.93405000000,802.032965,797.1978,,,,,,,,,,,,,,,/muse/elements/blink
2021-04-13 22:29:40.541,0.42736813,0.9668504,0.7019844,0.612498,0.18608694,0.36174446,0.25854936,0.17253727,0.592055,0.22168396,0.15827343,-0.068211466,0.30510795,-0.1443684,0.24102545,0.4595335,-0.16004646,-0.45842734,-0.083963096,0.21537043,818.7546,810.696,801.8315,767.1795,683.36993,-0.3597412109375,0.0140380859375,0.9366455078125,-1.89910888671875,-5.091705322265625,1.951446533203125,1,1.0,1.0,1.0,1.0,100.00
2021-04-13 22:29:41.068,0.42736813,1.1367719,0.74381363,0.612498,0.18608694,0.4437965,0.08516329,0.17253727,0.592055,0.4710877,0.18670796,-0.068211466,0.30510795,0.06444243,0.31026024,0.4595335,-0.16004646,-0.528337,-0.1406793,0.21537043,782.0879,792.96704,805.4579,805.8608,842.1245,-0.33447265625,-0.00726318359375,0.942138671875,3.686065673828125,-4.822540283203125,-1.981353759765625,1,1.0,1.0,1.0,1.0,100.00
2021-04-13 22:29:41.570,0.42736813,1.1668519,0.813864,0.612498,0.18608694,0.18927987,0.02154459,0.17253727,0.592055,0.45949054,0.24714173,-0.068211466,0.30510795,0.09548681,0.4305744,0.4595335,-0.16004646,-0.35629445,-0.14969799,0.21537043,835.6777,831.6484,789.7436,866.30035,827.2161,-0.341552734375,0.00714111328125,0.95074462890625,5.824432373046875,-4.299163818359375,0.4486083984375,1,2.0,1.0,1.0,2.0,100.00
2021-04-13 22:29:41.604,0.42736813,1.2355028,0.8341556800000,0.612498,0.18608694,0.570672285,0.08632986,0.17253727,0.592055,0.6675109,0.2345779949999,-0.068211466,0.30510795,0.0690385930000,0.48041565,0.4595335,-0.16004646,-0.350172425,-0.162599675,0.21537043,818.55315,814.1209,801.02565,,,,,,,,,,,,,,,/muse/elements/blink
2021-04-13 22:29:42.075,0.42736813,1.3041537,0.85444736,0.612498,0.18608694,0.9520647,0.15111513,0.17253727,0.592055,0.87553126,0.22201426,-0.068211466,0.30510795,0.042590376,0.5302569,0.4595335,-0.16004646,-0.3440504,-0.17550136,0.21537043,801.4286,796.5934,812.3077,793.36993,644.68866,-0.33587646484375,0.00946044921875,0.9417724609375,4.5159912109375,-5.136566162109375,0.695343017578125,1,2.0,1.0,1.0,2.0,100.00
2021-04-13 22:29:42.582,0.42736813,1.3160143,0.9559102,0.612498,0.18608694,1.0101804,0.27629748,0.17253727,0.592055,0.84966666,0.20355015,-0.068211466,0.30510795,-0.0036336211,0.6542081,0.4595335,-0.16004646,-0.31646633,-0.08697628,0.21537043,820.7692,792.5641,794.57874,761.9414,694.2491,-0.330078125,0.011962890625,0.94683837890625,4.314117431640625,-5.323486328125,1.79443359375,1,2.0,1.0,1.0,2.0,100.00
2021-04-13 22:29:43.083,0.6395302,1.2145243,1.0076156,0.612498,0.24669832,1.0250126,0.5070096,0.17253727,0.4582418,0.87979054,-0.06223317,-0.068211466,0.50270295,0.06924391,0.40874898,0.4595335,-0.16359933,-0.36983702,-0.14281708,0.21537043,781.28204,812.3077,784.10254,760.32965,842.9304,-0.333251953125,0.01422119140625,0.94451904296875,4.94964599609375,-4.78515625,0.64300537109375,1,2.0,1.0,1.0,2.0,100.00
2021-04-13 22:29:43.602,0.87999815,0.89836645,0.91430956,0.95861876,0.31913266,0.4053906,0.5667221,0.40199456,0.5733036,0.61094904,0.09509239,0.480327,0.5618344,0.191133,0.4692422,0.7473285,-0.11391436,-0.5024294,-0.046442643,0.021344732,805.4579,794.17584,790.54944,765.56775,689.41394,-0.33197021484375,0.01129150390625,0.944091796875,4.725341796875,-5.330963134765625,0.04486083984375,1,1.0,1.0,1.0,1.0,100.00
2021-04-13 22:29:44.128,0.8693381,0.90303016,0.84101695,0.94832116,0.41804922,0.482402,0.4142913,0.53573966,0.615608,0.6374077,0.2129751,0.5034257,0.5393906,0.30666766,0.40782636,0.6697928,-0.118982755,-0.5297993,-0.03960459,-0.0070943697,793.7729,779.2674,796.1905,738.5714,697.8755,-0.34600830078125,0.00732421875,0.9427490234375,4.388885498046875,-5.14404296875,2.100982666015625,1,1.0,1.0,1.0,1.0,100.00
2021-04-13 22:29:44.640,0.95048654,1.0011135,0.7253678,1.0190296,0.48363206,0.5222998,0.3592688,0.6419468,0.61363566,0.6126281,0.1251904,0.38546166,0.5566341,0.34706602,0.4073643,0.626903,-0.09828334,-0.5639902,0.0040574204,-0.003839443,794.17584,857.8388,805.8608,790.14655,759.92676,-0.3505859375,0.00274658203125,0.94287109375,2.0037841796875,-0.201873779296875,-0.0299072265625,1,1.0,1.0,1.0,1.0,100.00
2021-04-13 22:29:45.165,0.8471994,0.9696428,0.7197877,0.98233616,0.5664591,0.4610909,-0.10255805,0.74631983,0.58523834,0.51149416,0.020439273,0.30240867,0.49069178,0.41014427,0.27709323,0.4653611,-0.12930052,-0.51785254,-0.077922516,-0.05438441,751.8681,801.4286,824.3956,803.0403,862.674,-0.34625244140625,0.00177001953125,0.93634033203125,4.792633056640625,-2.115936279296875,-0.79254150390625,1,1.0,1.0,1.0,1.0,100.00
2021-04-13 22:29:45.687,0.8471994,0.9946745,0.73753077,0.98233616,0.5664591,0.22350352,-0.22330923,0.74631983,0.58523834,0.2336815,0.0033604004,0.30240867,0.49069178,0.37705714,0.274969,0.4653611,-0.12930052,-0.46564174,-0.1197035,-0.05438441,780.07324,824.3956,810.696,800.6227,823.9927,-0.34503173828125,-3.662109375E-4,0.94683837890625,4.388885498046875,-7.10296630859375,1.697235107421875,1,1.0,1.0,1.0,1.0,100.00
2021-04-13 22:29:46.217,1.4164214,0.9946745,0.73753077,1.0727104,1.3222828,0.22350352,-0.22330923,0.93443024,0.97473615,0.2336815,0.0033604004,0.77135766,0.8206461,0.37705714,0.274969,0.7324945,0.19475496,-0.46564174,-0.1197035,0.1109448,827.619,817.9487,819.15753,888.46155,771.6117,-0.324951171875,0.01031494140625,0.94549560546875,5.316009521484375,-7.185211181640625,2.833709716796875,1,1.0,1.0,1.0,1.0,100.00
2021-04-13 22:29:46.286,1.4164214,0.9946745,0.73753077,1.0727104,1.3222828,0.22350352,-0.22330923,0.93443024,0.97473615,0.2336815,0.0033604004,0.77135766,0.8206461,0.37705714,0.274969,0.7324945,0.19475496,-0.46564174,-0.1197035,0.1109448,820.56774999999,804.652,814.120865,,,,,,,,,,,,,,,/muse/elements/blink
2021-04-13 22:29:46.743,1.4164214,0.9946745,0.73753077,1.0727104,1.3222828,0.22350352,-0.22330923,0.93443024,0.97473615,0.2336815,0.0033604004,0.77135766,0.8206461,0.37705714,0.274969,0.7324945,0.19475496,-0.46564174,-0.1197035,0.1109448,813.5165,791.3553,809.0842,809.0842,716.8132,-0.29180908203125,0.0321044921875,0.957275390625,5.316009521484375,-5.495452880859375,2.968292236328125,1,1.0,1.0,1.0,1.0,100.00
2021-04-13 22:29:47.251,1.4143841,1.3840046,0.73753077,1.0392447,1.3359929,0.8634483,-0.22330923,0.9843301,0.96029097,0.6761067,0.0033604004,0.74787533,0.7993498,0.36599296,0.274969,0.71344256,0.11217402,-0.16008896,-0.1197035,0.07112498,855.0183,836.8865,850.989,793.7729,651.9414,-0.30322265625,0.0267333984375,0.95703125,4.306640625,-4.329071044921875,1.293487548828125,1,1.0,1.0,1.0,1.0,100.00
2021-04-13 22:29:47.322,1.4143841,1.3387615,0.73753077,1.0392447,1.3359929,0.79054295,-0.22330923,0.9843301,0.96029097,0.65411875,0.0033604004,0.74787533,0.7993498,0.3528712499999,0.274969,0.71344256,0.11217402,-0.151566560000,-0.1197035,0.07112498,833.663,844.7436,819.56045,,,,,,,,,,,,,,,/muse/elements/blink
2021-04-13 22:29:47.765,1.4143841,1.2935184,0.73753077,1.0392447,1.3359929,0.7176376,-0.22330923,0.9843301,0.96029097,0.6321308,0.0033604004,0.74787533,0.7993498,0.33974954,0.274969,0.71344256,0.11217402,-0.14304416,-0.1197035,0.07112498,812.3077,852.6007,788.1319,775.2381,709.9634,-0.304931640625,0.02435302734375,0.95355224609375,4.583282470703125,-3.237457275390625,1.36077880859375,1,1.0,1.0,1.0,1.0,100.00
2021-04-13 22:29:48.268,1.4143841,1.2247622,0.73753077,1.0392447,1.3359929,0.38389865,-0.22330923,0.9843301,0.96029097,0.53476334,0.0033604004,0.74787533,0.7993498,0.3302871,0.274969,0.71344256,0.11217402,-0.1207495,-0.1197035,0.07112498,777.25275,788.5348,791.3553,817.5458,907.8022,-0.30908203125,0.02313232421875,0.957763671875,4.687957763671875,-4.97955322265625,1.039276123046875,1,1.0,1.0,1.0,1.0,100.00
2021-04-13 22:29:48.787,1.4143841,1.2247622,0.73753077,1.0606248,1.3359929,0.38389865,-0.22330923,0.5796375,0.96029097,0.53476334,0.0033604004,0.57174736,0.7993498,0.3302871,0.274969,0.51515603,0.11217402,-0.1207495,-0.1197035,0.17364892,794.57874,794.9817,793.7729,830.0366,736.9597,-0.31158447265625,0.0198974609375,0.95330810546875,4.2767333984375,-4.478607177734375,0.70281982421875,1,2.0,1.0,1.0,2.0,100.00
2021-04-13 22:29:49.293,1.4143841,1.2247622,0.7422769,0.8893219,1.3359929,0.38389865,0.4325283,0.45066145,0.96029097,0.53476334,0.55935025,0.6502862,0.7993498,0.3302871,0.22105531,0.5867585,0.11217402,-0.1207495,-0.15183538,0.10069029,837.28937,801.02563,804.2491,810.696,681.3553,-0.30908203125,0.02520751953125,0.95501708984375,4.732818603515625,-4.38140869140625,0.6878662109375,1,1.0,1.0,1.0,1.0,100.00
2021-04-13 22:29:49.431,1.4143841,0.8940265000000,0.68943387,0.8893219,1.3359929,0.525221025,0.3857139499999,0.45066145,0.96029097,0.46350773,0.58189875,0.6502862,0.7993498,0.28014282,0.226023695,0.5867585,0.11217402,-0.25758089,-0.084589635,0.10069029,841.520135,811.904765,795.38462,,,,,,,,,,,,,,,/muse/elements/blink
2021-04-13 22:29:49.822,1.4143841,0.5632908,0.63659084,0.8893219,1.3359929,0.6665434,0.3388996,0.45066145,0.96029097,0.39225212,0.60444725,0.6502862,0.7993498,0.22999854,0.23099208,0.5867585,0.11217402,-0.39441228,-0.01734389,0.10069029,845.7509,822.7839,786.52014,769.59705,770.0,-0.30810546875,0.025390625,0.95220947265625,4.65057373046875,-5.001983642578125,0.844879150390625,1,1.0,1.0,1.0,1.0,100.00
2021-04-13 22:29:50.346,1.4143841,0.8026968,0.740898,0.602348,1.3359929,0.7152002,0.32168955,0.2663811,0.96029097,0.4295202,0.59718686,0.61788726,0.7993498,0.2923411,0.2654007,0.6482097,0.11217402,-0.47621998,-0.018355323,0.0129501475,786.9231,785.7143,797.3993,787.72894,813.1135,-0.30322265625,0.022216796875,0.95513916015625,4.41131591796875,-5.14404296875,1.136474609375,1,1.0,1.0,1.0,1.0,100.00
2021-04-13 22:29:50.872,1.4143841,0.8026968,0.8475853,0.602348,1.3359929,0.7152002,0.41298613,0.2663811,0.96029097,0.4295202,0.45275858,0.61788726,0.7993498,0.2923411,0.24009292,0.6482097,0.11217402,-0.47621998,-0.050487705,0.0129501475,801.4286,793.7729,801.8315,845.7509,877.5824,-0.292724609375,0.0179443359375,0.95947265625,4.83001708984375,-4.104766845703125,0.740203857421875,1,1.0,1.0,1.0,1.0,100.00
2021-04-13 22:29:51.284,1.24561035,0.8753089199999,0.85702627,0.7068413,1.0352717,0.7937909999999,0.41103104,0.2792061649999,0.8814029999999,0.43493975,0.431404365,0.553638265,0.6662486000000,0.318553,0.226090575,0.62711215,0.073485021,-0.538485125,-0.0839824625,0.09052764375,804.2491,794.78022000000,798.80952,,,,,,,,,,,,,,,/muse/elements/blink
2021-04-13 22:29:51.378,1.0768366,0.94792104,0.86646724,0.8113346,0.7345505,0.8723818,0.40907595,0.29203123,0.80251503,0.4403593,0.41005015,0.48938927,0.5331474,0.3447649,0.21208823,0.6060146,0.034796022,-0.60075027,-0.11747722,0.16810514,807.0696,795.78754,795.78754,819.15753,744.61536,-0.31011962890625,0.02801513671875,0.95556640625,4.08233642578125,-5.345916748046875,1.973876953125,1,1.0,1.0,1.0,1.0,100.00
2021-04-13 22:29:51.883,1.0768366,0.88515145,0.780518,0.8113346,0.7345505,0.83877426,0.29712313,0.29203123,0.80251503,0.5076342,0.38785255,0.48938927,0.5331474,0.20724131,0.17955871,0.6060146,0.034796022,-0.49979967,-0.096866556,0.16810514,803.8461,787.72894,778.86444,753.47986,601.978,-0.32574462890625,0.01190185546875,0.9476318359375,3.7982177734375,-6.003875732421875,-1.906585693359375,1,1.0,1.0,1.0,1.0,100.00
2021-04-13 22:29:52.393,1.0569956,0.7949193,0.62423056,0.7820769,0.75559604,0.74244356,0.124925725,0.31873262,0.7838565,0.5105316,0.34884503,0.41343132,0.5432453,0.086134106,0.17251904,0.63791573,0.04632567,-0.40569407,-0.06988595,0.17474043,834.0659,805.4579,819.9634,802.23444,909.41394,-0.31866455078125,0.01141357421875,0.9515380859375,3.820648193359375,0.83740234375,5.084228515625,1,1.0,1.0,1.0,1.0,100.00
2021-04-13 22:29:52.901,0.8229154,0.99798375,0.7320916,1.1088381,0.84962,0.8390602,0.35021392,0.5658711,0.8182962,0.7386746,0.6219477,0.28517646,0.48084566,0.015245076,0.2678354,0.52218175,0.20774104,-0.32028985,-0.098808706,0.11614461,775.64105,780.4762,790.54944,804.2491,1084.6886,-0.32928466796875,0.01885986328125,0.95672607421875,3.072967529296875,-5.181427001953125,5.96649169921875,1,1.0,1.0,1.0,1.0,100.00
2021-04-13 22:29:53.411,0.94831896,1.0445231,0.70176375,1.1001741,0.8516237,0.8930239,0.48570046,0.48277843,0.8259644,0.7386746,0.67786914,0.42851043,0.4906773,0.022991361,0.30950493,0.5616897,0.1660179,-0.27983502,-0.06428615,0.21494621,802.23444,783.2967,796.1905,837.6923,843.73627,-0.34942626953125,0.00494384765625,0.9383544921875,7.020721435546875,-7.94036865234375,-18.714447021484375,1,1.0,1.0,1.0,1.0,100.00
2021-04-13 22:29:53.935,1.0228667,1.1434855,0.9725286,1.1321282,0.7961865,0.972161,0.55345553,0.45886022,0.79710394,0.7386746,0.67786914,0.4273006,0.51433146,0.08957533,0.33637747,0.5643384,0.10998677,-0.27088383,-0.04757196,0.22879542,789.34064,778.46155,823.9927,795.78754,743.00366,-0.28179931640625,-0.00738525390625,0.93695068359375,6.123504638671875,-8.65814208984375,-6.74407958984375,1,1.0,1.0,1.0,1.0,100.00
2021-04-13 22:29:54.443,1.0298592,1.2364417,1.0704057,0.92796916,0.7642679,0.9514623,0.54545665,0.53246015,0.83394706,0.7677216,0.6049142,0.8467544,0.47670606,0.057883807,0.29376274,0.5333788,0.06906169,-0.13716823,-0.04001638,0.26930282,852.1978,876.3736,791.3553,831.2454,836.8865,-0.253662109375,-0.0015869140625,0.9886474609375,9.772186279296875,-7.753448486328125,-15.035858154296875,1,1.0,1.0,1.0,1.0,100.00
2021-04-13 22:29:54.972,0.99625146,1.2364417,1.314522,0.938792,0.7272328,0.9514623,0.5587319,0.62937605,0.79087555,0.7677216,0.29263505,0.8508948,0.46810946,0.057883807,0.25132364,0.51063466,0.073698774,-0.13716823,-0.089341395,0.23812479,787.72894,805.4579,807.47253,804.2491,723.2601,-0.27923583984375,-0.03118896484375,1.0069580078125,6.841278076171875,-7.835693359375,-50.745086669921875,1,1.0,1.0,1.0,1.0,100.00
2021-04-13 22:29:55.496,0.9257209,1.3837681,1.1231304,0.979909,0.8232222,1.108779,0.6939181,0.77167845,0.79087555,0.7677216,0.3892696,0.92024237,0.44357783,0.042240914,0.5247692,0.5728892,0.134459,-0.107734434,-0.15764879,0.22108771,797.8022,805.4579,814.7253,785.7143,745.42126,-0.10223388671875,0.06805419921875,1.02056884765625,10.15350341796875,-11.94793701171875,-35.75408935546875,1,1.0,1.0,1.0,1.0,100.00
2021-04-13 22:29:56.024,0.9735154,1.3837681,1.1213232,1.1442057,0.84365296,1.108779,0.6057361,0.88032264,0.7885652,0.7677216,0.4173716,0.8699186,0.47013944,0.042240914,0.45341742,0.6116913,0.09002106,-0.107734434,-0.15323672,0.21775605,831.6484,839.707,812.71063,811.50183,676.1172,-0.06085205078125,0.07244873046875,1.007568359375,9.802093505859375,-8.65814208984375,-4.725341796875,1,1.0,1.0,1.0,1.0,100.00
2021-04-13 22:29:56.551,0.9735154,1.3837681,1.0072496,1.1647536,0.84365296,1.108779,0.44208643,0.97450984,0.7885652,0.7677216,0.44908157,0.62852585,0.47013944,0.042240914,0.34369352,0.6388124,0.09002106,-0.107734434,-0.20447136,0.19185834,798.60803,832.4542,825.2015,805.8608,833.663,-0.05194091796875,0.0355224609375,0.9677734375,8.306732177734375,-4.17205810546875,-6.9384765625,1,1.0,1.0,1.0,1.0,100.00
2021-04-13 22:29:57.076,1.0050029,1.3837681,0.80365753,1.1960597,0.30818623,1.108779,0.22366615,1.0149277,0.99696356,0.7677216,0.31581372,0.62711394,0.43016946,0.042240914,0.116576605,0.59922063,0.22991814,-0.107734434,-0.16760227,0.21255736,783.2967,827.619,825.2015,793.7729,782.49084,-0.1253662109375,0.0087890625,1.00836181640625,-2.130889892578125,-8.531036376953125,-12.718048095703125,1,1.0,1.0,1.0,1.0,100.00
2021-04-13 22:29:57.591,1.0273333,1.6975533,0.66901106,1.0201647,0.37105107,1.3211128,0.14383836,0.2939133,1.0471228,0.76518065,0.22156473,0.55945814,0.43219376,0.3253872,0.06024199,0.51096827,0.33695406,-0.35366058,-0.12686324,0.24669914,787.72894,826.8132,821.978,803.0403,635.42126,-0.15252685546875,-0.00836181640625,0.97607421875,0.201873779296875,7.5665283203125,-8.2843017578125,1,1.0,1.0,1.0,1.0,100.00
2021-04-13 22:29:58.114,0.90187556,1.6975533,0.69402224,0.8615642,0.39288563,1.3211128,0.14659701,0.4329002,1.1296115,0.76518065,0.09712057,0.7962157,0.4028978,0.3253872,0.05203402,0.5128334,0.37163788,-0.35366058,-0.075128086,0.33137712,795.38464,906.99634,881.2088,805.05493,745.0183,0.0638427734375,0.01806640625,0.987060546875,4.433746337890625,-8.92730712890625,4.17205810546875,1,1.0,1.0,1.0,1.0,100.00
2021-04-13 22:29:58.617,1.1127973,1.6975533,0.7600743,1.0574481,0.7650206,1.3211128,0.06544783,0.60488564,1.1138756,0.76518065,-0.17937608,0.8822747,0.3672534,0.3253872,0.0835281,0.58796114,0.31950557,-0.35366058,-0.07961228,0.32971728,813.91943,798.60803,781.28204,802.23444,704.7253,-0.05889892578125,-0.05877685546875,0.9576416015625,-1.383209228515625,2.280426025390625,-2.071075439453125,1,1.0,1.0,1.0,1.0,100.00
2021-04-13 22:29:59.130,1.1697057,1.6975533,0.8037868,1.0700495,0.86446273,1.3211128,0.03743201,0.69825286,1.0686579,0.76518065,-0.35323897,0.8824551,0.33327058,0.3253872,0.088469535,0.5940846,0.20387106,-0.35366058,-0.092855796,0.34723923,859.85345,835.2747,812.71063,840.9158,861.4652,-0.0989990234375,-0.1400146484375,0.9654541015625,8.38897705078125,-1.652374267578125,-12.239532470703125,1,1.0,1.0,1.0,1.0,100.00
2021-04-13 22:29:59.638,1.2241597,1.6975533,0.8037868,1.1832492,0.8438561,1.3211128,0.03743201,0.6925171,1.052223,0.76518065,-0.35323897,0.85812527,0.28879315,0.3253872,0.088469535,0.672113,-0.069994375,-0.35366058,-0.092855796,0.23725171,803.44324,910.2198,807.47253,792.5641,748.24176,-0.07806396484375,-0.116943359375,1.06597900390625,0.500946044921875,-8.740386962890625,-16.4190673828125,1,1.0,1.0,1.0,1.0,100.00
2021-04-13 22:30:00.167,0.89758635,1.6975533,-0.15836892,0.8101443,0.4712853,1.3211128,0.11335446,0.54716796,0.78907895,0.76518065,0.0910431,0.5453231,0.41647846,0.3253872,0.112175286,0.75753564,-0.09750897,-0.35366058,-0.29778075,0.47449186,842.9304,792.96704,798.20514,827.2161,722.4542,-0.07598876953125,0.00335693359375,1.0120849609375,10.639495849609375,-3.84307861328125,-6.347808837890625,1,1.0,1.0,1.0,1.0,100.00
2021-04-13 22:30:00.637,0.755309725,1.6975533,-0.052788165,0.73925095,0.42144478,1.3211128,0.1022985600000,0.53427718,0.8226197749999,0.76518065,0.098026765,0.57319665,0.4533252,0.3253872,0.0952179579999,0.76602192,-0.127570279999,-0.35366058,-0.30876991,0.464730305,823.18681999999,843.13186999999,808.47987,,,,,,,,,,,,,,,/muse/elements/blink
2021-04-13 22:30:00.694,0.6130331,1.6975533,0.05279259,0.6683576,0.37160426,1.3211128,0.09124266,0.5213864,0.8561606,0.76518065,0.10501043,0.6010702,0.49017194,0.3253872,0.07826063,0.7745082,-0.15763159,-0.35366058,-0.31975907,0.45496875,803.44324,893.2967,818.7546,806.26373,828.022,-0.00994873046875,-0.1151123046875,1.01666259765625,5.405731201171875,-14.1461181640625,-2.639312744140625,1,1.0,1.0,1.0,1.0,100.00
2021-04-13 22:30:01.096,0.5267741,1.6975533,0.152059595,0.68537762,0.447018265,1.3211128,0.1257342699999,0.5510246000000,0.8561606,0.76518065,0.220277,0.6010702,0.53658622,0.3253872,0.110915885,0.78024255,-0.126245296999,-0.35366058,-0.26197105,0.4851295249999,825.0,826.61173,815.128215,,,,,,,,,,,,,,,/muse/elements/blink
2021-04-13 22:30:01.223,0.4405151,1.6975533,0.2513266,0.70239764,0.52243227,1.3211128,0.16022588,0.5806628,0.8561606,0.76518065,0.33554357,0.6010702,0.5830005,0.3253872,0.14357114,0.7859769,-0.094859004,-0.35366058,-0.20418303,0.5152903,846.55676,759.92676,811.50183,845.34796,815.5311,-0.0296630859375,0.01104736328125,1.00091552734375,11.6937255859375,-4.164581298828125,-15.83587646484375,1,1.0,1.0,1.0,1.0,100.00
2021-04-13 22:30:01.713,0.35494375,1.6975533,0.399991325,0.76807585,0.543249905,1.3211128,0.31400304,0.554393475,0.8561606,0.76518065,0.511909835,0.5641101,0.621436785,0.3253872,0.187123785,0.7561226,-0.108860466999,-0.35366058,-0.143707653,0.4562267,844.34063,782.08792999999,794.98169000000,,,,,,,,,,,,,,,/muse/elements/blink
2021-04-13 22:30:01.727,0.2693724,1.6975533,0.54865605,0.83375406,0.56406754,1.3211128,0.4677802,0.52812415,0.8561606,0.76518065,0.6882761,0.52715,0.65987307,0.3253872,0.23067643,0.7262683,-0.12286193,-0.35366058,-0.083232276,0.3971631,842.1245,804.2491,778.46155,830.4396,762.3443,-0.04327392578125,0.053466796875,1.004638671875,8.0450439453125,-3.237457275390625,-5.57769775390625,1,1.0,1.0,1.0,1.0,100.00
2021-04-13 22:30:02.238,0.2693724,1.6975533,0.6463479,0.83375406,0.56406754,1.3211128,0.5878428,0.52812415,0.8561606,0.76518065,0.67955244,0.52715,0.65987307,0.3253872,0.29414064,0.7262683,-0.12286193,-0.35366058,-0.007538142,0.3971631,798.20514,780.87915,811.0989,794.57874,655.9707,-0.03302001953125,0.0771484375,1.0015869140625,11.7236328125,-9.8095703125,-16.396636962890625,1,1.0,1.0,1.0,1.0,100.00
2021-04-13 22:30:02.770,0.2693724,1.5485632,0.7478142,0.83375406,0.56406754,0.99624205,0.6699453,0.52812415,0.8561606,0.83876187,0.69385386,0.52715,0.65987307,0.10919329,0.27066076,0.7262683,-0.12286193,-0.64482087,-0.04356761,0.3971631,757.1062,787.72894,783.69965,765.9707,638.6447,0.0078125,0.04913330078125,1.01171875,4.9945068359375,-8.306732177734375,-6.6693115234375,1,1.0,1.0,1.0,1.0,100.00
2021-04-13 22:30:03.297,0.2693724,1.51818,1.1377759,0.83375406,0.56406754,1.029528,0.26434618,0.52812415,0.8561606,0.83876187,0.24459362,0.52715,0.65987307,0.16387907,0.22902958,0.7262683,-0.12286193,-0.51743966,-0.356473,0.3971631,803.44324,774.43225,811.0989,808.2784,839.304,0.017822265625,0.077880859375,0.99859619140625,4.56085205078125,-5.061798095703125,0.3289794921875,1,2.0,1.0,1.0,2.0,100.00
2021-04-13 22:30:03.663,0.2693724,1.4971805,1.0856864000000,0.810488015,0.56406754,1.0262688500000,0.302359205,0.518474125,0.8561606,0.8377209050000,0.24459362,0.63875617,0.65987307,0.17082058,0.198655515,0.660191125,-0.12286193,-0.523490905000,-0.327791515000,0.3152366749999,820.366305,778.26007499999,808.27839999999,,,,,,,,,,,,,,,/muse/elements/blink
2021-04-13 22:30:03.808,0.2693724,1.476181,1.0335969,0.78722197,0.56406754,1.0230097,0.34037223,0.5088241,0.8561606,0.83667994,0.24459362,0.75036234,0.65987307,0.17776209,0.16828145,0.59411395,-0.12286193,-0.52954215,-0.29911003,0.23331025,837.28937,782.0879,805.4579,841.31866,857.4359,0.0072021484375,0.06622314453125,1.000244140625,3.6187744140625,-3.775787353515625,1.83929443359375,1,1.0,1.0,1.0,1.0,100.00
2021-04-13 22:30:04.314,0.2693724,1.421934,1.1008086,0.78722197,0.56406754,1.0564291,0.6234356,0.5088241,0.8561606,0.55453384,0.2622912,0.75036234,0.65987307,0.26375788,0.12556618,0.59411395,-0.12286193,-0.39073837,-0.3131143,0.23331025,848.97437,794.57874,811.50183,829.2308,833.2601,0.00982666015625,0.0648193359375,0.9945068359375,3.33465576171875,-0.478515625,3.880462646484375,1,1.0,1.0,1.0,1.0,100.00
2021-04-13 22:30:04.826,0.2693724,1.421934,1.044775,0.78722197,0.56406754,1.0564291,0.75453705,0.5088241,0.8561606,0.55453384,0.46279198,0.75036234,0.65987307,0.26375788,0.08522151,0.59411395,-0.12286193,-0.39073837,-0.3198407,0.23331025,768.3883,790.14655,799.81683,774.0293,703.91943,0.004150390625,0.031005859375,1.00567626953125,2.325286865234375,-3.887939453125,-2.729034423828125,1,1.0,1.0,1.0,1.0,100.00
2021-04-13 22:30:05.339,1.0517743,0.8900902,1.0560853,0.18652177,0.6910991,0.23420759,0.6755452,0.32925057,0.28248978,0.3052401,0.46279198,0.12591979,0.39803487,0.1826106,0.011143672,0.2537469,-0.29876384,-0.41424468,-0.46781775,0.14371842,782.0879,800.2198,807.47253,772.01465,773.6264,-0.00146484375,0.01971435546875,1.0054931640625,5.38330078125,-2.534637451171875,-0.85235595703125,1,1.0,1.0,1.0,1.0,100.00
2021-04-13 22:30:05.846,0.8545321,0.8291458,0.8042946,0.36320168,0.5499349,0.23565467,0.39157963,0.39453104,0.3396024,0.33335495,0.45385966,0.41285482,0.4388421,0.15592189,0.11408103,0.3936475,-0.33734742,-0.5110284,-0.5234124,0.07899265,774.43225,810.293,813.1135,782.0879,737.76556,-0.01898193359375,0.04779052734375,0.994873046875,2.22808837890625,-2.923431396484375,4.78515625,1,1.0,1.0,1.0,1.0,100.00
2021-04-13 22:30:06.355,0.8416185,0.9155764,0.6609483,0.33850908,0.55479115,0.24908055,0.24006806,0.4995232,0.36891145,0.22774972,0.09828696,0.46854943,0.45847374,0.12194322,0.10815637,0.48711577,-0.3345305,-0.53962505,-0.54939866,0.058299642,763.5531,785.31134,801.02563,765.56775,672.8938,-0.02593994140625,0.00665283203125,0.99835205078125,3.177642822265625,-3.760833740234375,7.678680419921875,1,1.0,1.0,1.0,1.0,100.00
2021-04-13 22:30:06.883,0.9372724,1.0025115,0.6628942,1.2629285,0.589766,0.32538342,0.18301645,1.0401294,0.56665474,0.3770015,0.15244292,0.9883881,0.48304686,0.03498964,0.16812061,0.62440574,-0.3161688,-0.545402,-0.5835533,-0.047417738,771.6117,788.5348,788.5348,772.01465,682.96704,-0.001708984375,0.006103515625,1.00592041015625,3.7982177734375,-3.985137939453125,13.331146240234375,1,1.0,1.0,1.0,1.0,100.00
2021-04-13 22:30:07.408,1.0921692,1.0905266,0.74731344,1.2417146,0.7251926,0.37991917,0.17509352,0.9921901,0.5625517,0.31281224,0.15244292,1.0105796,0.49867466,-0.036526218,0.1450585,0.65135086,-0.28837454,-0.5054168,-0.6043547,-0.088675454,794.17584,810.696,824.7985,815.9341,730.5128,-0.07415771484375,-0.004150390625,0.9991455078125,1.55517578125,-3.09539794921875,13.630218505859375,1,1.0,1.0,1.0,1.0,100.00
2021-04-13 22:30:07.937,1.1766576,1.067369,0.93907076,1.3714327,0.76057947,0.37511924,0.32326412,1.0795494,0.5625517,0.3120903,0.15244292,1.0105796,0.51005435,-0.084864706,0.109363,0.6576185,-0.251756,-0.4482757,-0.67826784,-0.104787454,810.696,791.75824,814.7253,790.14655,809.4872,-0.07659912109375,0.00689697265625,0.99908447265625,7.035675048828125,-8.112335205078125,-6.123504638671875,1,1.0,1.0,1.0,1.0,100.00
2021-04-13 22:30:08.218,1.1766576,0.9141506349999,0.96509758,1.17431112,0.76057947,0.07395237,0.3415993,0.8496186000000,0.5625517,-0.2366346,0.15244292,0.88050715,0.51005435,-0.103636548,0.1113956550000,0.6336815499999,-0.251756,-0.397381865,-0.668738395,-0.025454172,808.07695,798.406585,809.89011499999,,,,,,,,,,,,,,,/muse/elements/blink
2021-04-13 22:30:08.448,1.1766576,0.76093227,0.9911244,0.97718954,0.76057947,-0.2272145,0.35993448,0.6196878,0.5625517,-0.7853595,0.15244292,0.7504347,0.51005435,-0.12240839,0.11342831,0.6097446,-0.251756,-0.34648803,-0.65920895,0.05387911,805.4579,805.05493,805.05493,788.1319,645.89746,-0.05645751953125,0.017822265625,1.004638671875,6.198272705078125,-3.297271728515625,-14.841461181640625,1,1.0,1.0,1.0,1.0,100.00
2021-04-13 22:30:08.970,1.1766576,0.76093227,0.9911244,0.97026104,0.76057947,-0.2272145,0.35993448,0.60641253,0.5625517,-0.7853595,0.15244292,0.69715846,0.51005435,-0.12240839,0.11342831,0.60612977,-0.251756,-0.34648803,-0.65920895,0.0854662,832.8571,793.36993,798.60803,804.65204,872.74725,-0.051025390625,-0.01849365234375,1.0001220703125,0.34393310546875,-5.7720947265625,-3.745880126953125,1,1.0,1.0,1.0,1.0,100.00
2021-04-13 22:30:09.498,1.1766576,0.7856472,0.9911244,0.97026104,0.76057947,-0.022894159,0.35993448,0.60641253,0.5625517,0.14754039,0.15244292,0.69715846,0.51005435,0.019964848,0.11342831,0.60612977,-0.251756,-0.3510565,-0.65920895,0.0854662,832.0513,787.72894,795.78754,802.6374,674.90845,-0.00811767578125,-0.05377197265625,0.99969482421875,2.594451904296875,-9.70489501953125,-4.912261962890625,1,1.0,1.0,1.0,1.0,100.00
2021-04-13 22:30:10.000,1.1766576,0.98478395,0.5100473,0.97026104,0.76057947,0.004587775,-0.28159302,0.60641253,0.5625517,0.2675324,-0.06838415,0.69715846,0.51005435,-0.022635773,0.10077007,0.60612977,-0.251756,-0.5248459,-0.27348468,0.0854662,769.59705,790.54944,801.4286,804.65204,707.9487,0.04833984375,-0.06109619140625,1.00238037109375,4.673004150390625,-6.7291259765625,-1.099090576171875,1,1.0,1.0,1.0,1.0,100.00
2021-04-13 22:30:10.504,0.650256,1.0724281,0.50647956,0.97026104,0.25088656,-0.02657936,-0.13218898,0.60641253,0.31318143,0.2675324,-0.03319925,0.69715846,0.50058526,-0.043534666,0.029756732,0.60612977,-0.17539139,-0.5363203,-0.27740017,0.0854662,780.07324,806.6667,804.65204,792.1612,707.9487,0.04803466796875,-0.044921875,1.00543212890625,5.271148681640625,-5.704803466796875,0.157012939453125,1,1.0,1.0,1.0,1.0,100.00
2021-04-13 22:30:11.009,0.5579851,0.9706633,0.4451916,0.97026104,0.12138344,-0.1245673,-0.07028012,0.60641253,0.39237937,0.24386051,-0.019068522,0.69715846,0.44667503,-0.103343986,0.019406918,0.60612977,-0.2762376,-0.6303143,-0.30187958,0.0854662,810.293,793.7729,787.72894,806.6667,747.8388,0.042236328125,-0.0418701171875,0.99859619140625,3.596343994140625,-3.39447021484375,1.757049560546875,1,1.0,1.0,1.0,1.0,100.00
2021-04-13 22:30:11.541,0.5000419,0.7664185,0.32588902,0.15117581,0.08177006,-0.11147276,-0.098357365,0.32035673,0.41599178,0.07566015,0.010675166,0.33505762,0.393976,-0.10676009,0.0348724,0.474631,-0.322049,-0.63123167,-0.2634431,-0.046050917,771.6117,798.60803,821.978,790.9524,745.42126,0.0423583984375,-0.044677734375,1.0059814453125,4.9346923828125,-4.867401123046875,0.755157470703125,1,1.0,1.0,1.0,1.0,100.00
2021-04-13 22:30:12.047,0.40755272,0.51547784,0.21956056,0.11642861,-0.044704575,0.046783064,-0.15774871,0.19363688,0.46452394,0.2699977,0.06183844,0.47493106,0.4003904,-0.07428191,0.11782247,0.5421052,-0.3696673,-0.6724488,-0.2898872,0.023160737,770.0,792.96704,794.17584,765.16486,734.5421,0.04144287109375,-0.0457763671875,1.0009765625,5.121612548828125,-4.329071044921875,0.9271240234375,1,1.0,1.0,1.0,1.0,100.00
2021-04-13 22:30:12.581,0.57287496,0.5714668,0.27727208,0.16777995,0.20674688,0.11060632,-0.13315034,0.16764821,0.44160363,0.27212608,0.030811325,0.47493106,0.38587856,-0.05101091,0.16823472,0.5579283,-0.20837773,-0.65932995,-0.3253038,0.05437174,822.7839,800.2198,789.7436,824.3956,751.8681,0.0626220703125,-0.05181884765625,1.0047607421875,3.790740966796875,-3.78326416015625,0.76263427734375,1,1.0,1.0,1.0,1.0,100.00
2021-04-13 22:30:13.092,0.69391644,0.565932,0.43837315,0.6212957,0.37474006,0.14485998,-0.003994977,-0.0061410577,0.63937813,0.22758833,0.12892483,0.46816742,0.32813898,-0.03170111,0.1622758,0.5765427,-0.16323943,-0.5534504,-0.48472443,-0.025372414,824.7985,794.17584,796.5934,801.4286,913.44324,0.0556640625,-0.06573486328125,0.99810791015625,4.23187255859375,-4.47113037109375,1.457977294921875,1,1.0,1.0,1.0,1.0,100.00
2021-04-13 22:30:13.605,0.6694483,0.7787822,0.4382283,0.62930447,0.43216044,0.039356157,-0.07777972,0.09152503,0.672085,0.26871294,0.07868795,0.4288476,0.28987914,-0.0029510017,0.10019171,0.5050187,-0.11611092,-0.3813815,-0.4621599,0.014823982,843.3333,794.9817,782.49084,798.60803,810.696,0.04461669921875,-0.0526123046875,1.0037841796875,5.93658447265625,-4.538421630859375,0.575714111328125,1,1.0,1.0,1.0,1.0,100.00
2021-04-13 22:30:14.116,0.44189376,0.7752527,0.33896086,0.6695595,0.23923083,-0.02892801,-0.18282725,0.2542875,0.69230676,0.13749321,0.22000614,0.44466108,0.34834123,0.06516353,0.064540856,0.5833918,-0.13307057,-0.31576824,-0.36723536,0.051733907,816.337,789.34064,801.8315,798.20514,711.978,0.0411376953125,-0.046630859375,0.99835205078125,4.448699951171875,-4.7552490234375,0.97198486328125,1,1.0,1.0,1.0,1.0,100.00
2021-04-13 22:30:14.629,0.22566201,0.69658643,0.18511225,0.8162632,0.15170728,-0.15322016,-0.27796632,0.33046496,0.5427989,0.14331962,0.2147358,0.4307273,0.33579347,0.14499311,0.115684606,0.58157575,-0.07938099,-0.32469895,-0.25942117,0.12550741,764.35895,805.05493,805.4579,786.52014,697.8755,0.05145263671875,-0.042724609375,1.0003662109375,3.81317138671875,-3.60382080078125,-0.299072265625,1,1.0,1.0,1.0,1.0,100.00
2021-04-13 22:30:15.160,0.13782138,0.36718348,0.06581891,0.8177792,0.027945355,-0.016225616,-0.18787704,0.3037166,0.4204755,0.06831495,0.12055383,0.41185397,0.33727628,0.09571901,0.12604973,0.63592,-0.016483428,-0.36610678,-0.19959185,0.09078939,829.2308,786.9231,792.5641,815.12823,753.0769,0.064697265625,-0.03839111328125,1.00714111328125,5.1141357421875,-4.725341796875,0.7476806640625,1,1.0,1.0,1.0,1.0,100.00
2021-04-13 22:30:15.667,0.07864345,0.22253816,-0.081227824,0.6362131,0.051322088,0.091104016,-0.15443833,0.12061667,0.4665008,0.13978441,-0.067143194,0.44108838,0.32065237,0.041076083,0.074482575,0.53656083,-0.011679281,-0.41721755,-0.21843287,0.10521242,842.9304,802.23444,803.8461,840.5128,979.12085,0.0433349609375,-0.048095703125,1.0072021484375,4.553375244140625,-4.844970703125,0.889739990234375,1,1.0,1.0,1.0,1.0,100.00
2021-04-13 22:30:16.196,0.090050235,0.16635907,0.042746212,0.1979166,-0.07393521,0.1558878,-0.16269824,0.030805988,0.46000403,0.18187849,0.026054686,0.54920304,0.36887425,-0.06901072,-0.052269764,0.5148455,-0.015959818,-0.4634942,-0.1960532,0.09304969,763.5531,798.20514,808.2784,786.52014,674.5055,0.03570556640625,-0.04754638671875,1.0028076171875,5.316009521484375,-4.1571044921875,-0.336456298828125,1,1.0,1.0,1.0,1.0,100.00
2021-04-13 22:30:16.699,0.06639422,0.066493385,0.17979012,0.1420234,0.01396236,0.24193652,-0.27078217,0.074572384,0.46000403,0.22965543,0.17736465,0.5081452,0.3926662,-0.018939793,-0.08933006,0.38264203,-0.08156933,-0.5067785,-0.16651192,0.102444336,776.04395,807.0696,811.0989,790.14655,638.6447,0.041015625,-0.05523681640625,1.00244140625,4.029998779296875,-4.5159912109375,0.500946044921875,1,1.0,1.0,1.0,1.0,100.00
2021-04-13 22:30:17.216,0.22168775,0.39189792,0.35021985,0.11544069,0.032188337,0.26919523,-0.33816603,0.03756188,0.4073391,0.26791763,0.22853933,0.55408126,0.33834714,-0.057598684,-0.07749891,0.3190032,-0.13110486,-0.51113045,-0.19164813,0.1037007,864.2857,803.0403,815.12823,769.19415,938.4249,0.04034423828125,-0.05291748046875,0.99957275390625,4.074859619140625,-4.2767333984375,-1.00189208984375,1,1.0,1.0,1.0,1.0,100.00
2021-04-13 22:30:17.721,0.28884104,0.43660864,0.26940432,0.110470615,0.081655115,0.3008261,-0.29239255,0.050704364,0.15574816,0.27670485,0.43512574,0.41430494,0.31284347,-0.068184584,0.019360775,0.2174722,-0.18344146,-0.52513033,-0.26738742,0.12337548,818.3516,797.3993,788.5348,811.50183,794.17584,0.05523681640625,-0.0596923828125,0.99755859375,2.444915771484375,-5.420684814453125,1.77947998046875,1,1.0,1.0,1.0,1.0,100.00
2021-04-13 22:30:18.237,0.29673684,0.41008216,0.15940045,0.09884641,0.060972124,0.11935926,-0.26150885,-0.08599791,0.5361889,0.20478489,0.39008358,0.16828609,0.27635288,-0.20412208,-0.0038459233,0.24521117,-0.20457476,-0.59951913,-0.39769545,0.16918719,759.12085,789.34064,796.5934,741.39197,639.85345,0.0584716796875,-0.0625,1.00054931640625,4.56085205078125,-4.26177978515625,0.49346923828125,1,1.0,1.0,1.0,1.0,100.00
2021-04-13 22:30:18.740,0.27724916,0.3368662,0.19298388,0.09884641,0.1279247,0.023161694,0.006365487,-0.08599791,0.5592583,0.21737541,0.35709268,0.16828609,0.27010188,-0.22249751,0.015965132,0.24521117,-0.11583049,-0.61563045,-0.3569187,0.16918719,792.5641,799.41394,806.26373,797.8022,836.08057,0.05194091796875,-0.06201171875,0.9991455078125,5.106658935546875,-5.316009521484375,1.12152099609375,1,1.0,1.0,1.0,1.0,100.00
2021-04-13 22:30:19.248,0.29373598,0.376096,0.4097499,0.09884641,0.06876852,0.010953585,0.049592365,-0.08599791,0.55908924,0.26936406,0.09288243,0.16828609,0.2595472,-0.18375623,-0.060952008,0.24521117,-0.06303969,-0.54739785,-0.33493987,0.16918719,828.022,801.4286,797.3993,802.6374,881.2088,0.0587158203125,-0.0565185546875,0.99871826171875,4.605712890625,-4.598236083984375,1.1663818359375,1,1.0,1.0,1.0,1.0,100.00
2021-04-13 22:30:19.767,0.34368682,0.46360144,0.39689505,1.0763994,0.01788698,0.009905381,0.0996686,0.78376174,0.539705,0.27162996,0.08566339,0.8409135,0.24250431,-0.15982914,0.009741025,0.50413907,-0.11741135,-0.53780675,-0.361099,-0.013774155,842.1245,794.9817,796.1905,800.6227,762.3443,0.0535888671875,-0.0758056640625,0.99224853515625,4.02252197265625,-3.701019287109375,-0.418701171875,1,1.0,1.0,1.0,1.0,100.00
2021-04-13 22:30:20.198,0.3265772,0.425503345,0.3192677200000,1.04243165,-0.019482697,-0.028497039499,-0.006325688000,0.7825786699999,0.345296675,0.2253204200000,0.0803986,0.8446587,0.267862965,-0.151499590000,0.0348687904999,0.50165327,-0.157279495,-0.565605195000,-0.387409134999,-0.038381122499,846.15383500000,795.5861,795.38462,,,,,,,,,,,,,,,/muse/elements/blink
2021-04-13 22:30:20.293,0.30946758,0.38740525,0.24164039,1.0084639,-0.056852374,-0.06689946,-0.112319976,0.7813956,0.15088835,0.17901088,0.07513381,0.8484039,0.29322162,-0.14317004,0.059996556,0.49916747,-0.19714764,-0.59340364,-0.41371927,-0.06298809,850.18317,796.1905,794.57874,848.1685,690.6227,0.0362548828125,-0.05419921875,0.99713134765625,5.016937255859375,-4.284210205078125,-1.21124267578125,1,1.0,1.0,1.0,1.0,100.00
2021-04-13 22:30:20.796,0.25152177,0.5005658,0.29640317,0.78044224,-0.03716182,0.10457315,-0.17837653,0.8164518,0.054788366,0.35565054,0.48209825,0.83892447,0.31542888,-0.08694135,0.09912773,0.4396166,-0.35296905,-0.63741475,-0.3522657,-0.13094224,752.27106,794.9817,792.96704,783.2967,640.65936,0.0592041015625,-0.05877685546875,0.996337890625,4.14215087890625,-5.48797607421875,0.904693603515625,1,1.0,1.0,1.0,1.0,100.00
2021-04-13 22:30:21.302,0.20476319,0.5963202,0.38721275,0.47245967,0.031029208,0.20524624,-0.2844187,0.81806314,-0.05629887,0.35642257,0.4860261,0.76759756,0.3828688,0.01724983,0.06312132,0.44258904,-0.33386937,-0.6980928,-0.34425303,-0.25660256,833.2601,810.293,815.12823,842.9304,853.8095,0.04833984375,-0.0545654296875,1.00238037109375,6.4898681640625,-3.820648193359375,-0.5084228515625,1,1.0,1.0,1.0,1.0,100.00
2021-04-13 22:30:21.823,0.20476319,0.52651185,0.468351,0.47245967,0.031029208,0.24752642,-0.05550652,0.81806314,-0.05629887,0.4025448,0.48627496,0.76759756,0.3828688,0.044041533,0.038144216,0.44258904,-0.33386937,-0.6378468,-0.29035467,-0.25660256,768.7912,794.17584,806.6667,782.49084,692.23444,0.05535888671875,-0.0450439453125,1.008544921875,4.583282470703125,-4.702911376953125,2.145843505859375,1,1.0,1.0,1.0,1.0,100.00
2021-04-13 22:30:22.335,0.07482486,0.26370993,0.32510066,0.45316344,0.25548732,0.11578514,-0.0044523734,-0.04501394,0.5420312,0.36524048,0.41208735,0.572007,0.3552411,-0.052550457,0.025518514,0.46203715,-0.19878626,-0.60887957,-0.32737043,0.13267252,803.0403,801.02563,794.57874,784.10254,631.79486,0.05767822265625,-0.04840087890625,1.007568359375,5.166473388671875,-5.046844482421875,-1.173858642578125,1,1.0,1.0,1.0,1.0,100.00
2021-04-13 22:30:22.858,0.1656649,0.1700448,0.5355504,0.5688897,0.2324861,-0.017885782,0.16098736,0.24280384,0.6137985,0.35575402,0.21112981,0.7431962,0.3047082,-0.083302304,0.027580716,0.45016748,-0.20454809,-0.5327046,-0.28316805,0.09207859,763.5531,798.60803,796.5934,777.6557,688.60803,0.0540771484375,-0.06085205078125,0.9896240234375,4.32159423828125,-3.66363525390625,0.777587890625,1,1.0,1.0,1.0,1.0,100.00
2021-04-13 22:30:23.385,0.25303185,0.19852765,0.62038964,0.6472251,0.3043335,-0.10902087,0.1614273,0.36597317,0.6218939,0.16936672,0.21118063,0.75021076,0.2720099,-0.064590186,0.115470655,0.46216074,-0.20898543,-0.5695992,-0.34168792,0.1520733,791.75824,797.8022,794.9817,787.326,788.93774,0.0579833984375,-0.05816650390625,1.00286865234375,4.254302978515625,-4.074859619140625,0.91217041015625,1,1.0,1.0,1.0,1.0,100.00
2021-04-13 22:30:23.894,0.40634102,0.32933328,0.55594265,0.7025227,0.41515583,-0.21338797,0.09866908,0.6333035,0.60810375,0.042643737,0.22942625,0.78077936,0.23838565,-0.053955797,0.11232362,0.4891827,-0.24745953,-0.5962823,-0.4379768,0.111966245,724.4689,813.1135,782.49084,710.3663,834.87177,0.05328369140625,-0.06683349609375,0.99810791015625,4.59075927734375,-5.016937255859375,0.478515625,1,1.0,1.0,1.0,1.0,100.00
2021-04-13 22:30:24.146,0.43248101,0.3433407400000,0.60182771,0.6970659800000,0.459483915,-0.059259852500,0.13945858,0.66028853,0.53742699,0.0997676885,0.2700590400000,0.7114272100000,0.249412825,-0.0343456325,0.100642655,0.5044947,-0.256993100000,-0.604835865000,-0.439627734999,0.1362764775,783.69965,804.04760000000,788.73627000000,,,,,,,,,,,,,,,/muse/elements/blink
2021-04-13 22:30:24.397,0.458621,0.3573482,0.64771277,0.69160926,0.503812,0.094868265,0.18024808,0.68727356,0.46675023,0.15689164,0.31069183,0.64207506,0.26044,-0.014735468,0.08896169,0.5198067,-0.26652667,-0.61338943,-0.44127867,0.16058671,842.9304,794.9817,794.9817,821.978,765.16486,0.0595703125,-0.04608154296875,1.00634765625,5.689849853515625,-4.822540283203125,0.52337646484375,1,1.0,1.0,1.0,1.0,100.00
2021-04-13 22:30:24.909,0.5043051,0.4564719,0.67528355,0.7214129,0.66604465,0.16881028,0.1794539,0.8470246,0.30681127,0.16578569,0.31494293,0.44134277,0.12619598,-0.02330012,0.02310375,0.47133213,-0.3617777,-0.60723627,-0.49043402,0.16134238,727.28937,793.7729,793.36993,747.03296,594.7253,0.07269287109375,-0.04107666015625,1.0115966796875,6.05621337890625,-0.590667724609375,2.930908203125,1,1.0,1.0,1.0,1.0,100.00
2021-04-13 22:30:25.076,0.5043051,0.50752928,0.6823545099999,0.7214129,0.66604465,0.16250571,0.173160625,0.8470246,0.30681127,0.1842003850000,0.33053485,0.44134277,0.12619598,-0.024732148000,0.0558406149999,0.47133213,-0.3617777,-0.581655985,-0.416952030000,0.16134238,755.091585,795.38462,798.003665,,,,,,,,,,,,,,,/muse/elements/blink
2021-04-13 22:30:25.427,0.5043051,0.55858666,0.68942547,0.7214129,0.66604465,0.15620114,0.16686735,0.8470246,0.30681127,0.20261508,0.34612677,0.44134277,0.12619598,-0.026164176,0.08857748,0.47133213,-0.3617777,-0.5560757,-0.34347004,0.16134238,782.8938,796.99634,802.6374,795.78754,809.0842,0.04876708984375,-0.01690673828125,1.0069580078125,6.930999755859375,-3.21502685546875,2.130889892578125,1,1.0,1.0,1.0,1.0,100.00
2021-04-13 22:30:25.953,0.88145864,0.75065553,0.4319247,1.0326874,0.9080883,0.041775767,-0.0018697467,0.7291336,0.9028655,0.24483177,0.28589827,0.77578527,0.44866773,-0.12421496,0.077104606,0.29204822,-0.1794818,-0.5396043,-0.29115006,0.058433544,834.0659,797.3993,804.2491,827.619,924.7253,0.03570556640625,0.00140380859375,1.00384521484375,4.80010986328125,-4.643096923828125,0.904693603515625,1,1.0,1.0,1.0,1.0,100.00
2021-04-13 22:30:26.478,0.7352726,0.74621516,0.3597356,0.8488781,0.7816791,-0.09445525,-0.10436318,0.585625,0.90312725,0.18497483,0.24961554,0.79041576,0.3323102,-0.24462163,0.09132155,0.2913941,-0.22667503,-0.49651927,-0.24364349,0.009184894,838.9011,799.011,802.23444,832.4542,702.3077,0.00897216796875,0.01458740234375,1.00177001953125,5.7122802734375,-4.44122314453125,-0.291595458984375,1,1.0,1.0,1.0,1.0,100.00
2021-04-13 22:30:26.985,0.6553256,0.58743805,0.40399587,0.7982733,0.5972498,-0.12581682,-0.10963382,0.49739826,0.81571776,0.121717766,0.27124372,0.7790188,0.28234923,-0.35246596,0.011842519,0.3256812,-0.23065011,-0.6016199,-0.35229805,5.209997E-4,839.304,796.1905,794.17584,825.2015,966.2271,0.013427734375,0.00140380859375,1.00201416015625,3.828125,-5.4730224609375,2.093505859375,1,1.0,1.0,1.0,1.0,100.00
2021-04-13 22:30:27.499,0.69802916,0.31237707,0.4030648,0.9065836,0.5323612,-0.18602322,-0.18785179,0.6443286,0.61837274,-0.120071515,0.16478454,0.73530364,0.25470942,-0.23549658,-0.024456104,0.4549279,-0.18808965,-0.6618261,-0.41361904,-0.05824464,763.1502,799.81683,805.8608,770.40295,722.8571,0.02899169921875,-0.00445556640625,1.0010986328125,4.32159423828125,-3.768310546875,1.502838134765625,1,1.0,1.0,1.0,1.0,100.00
2021-04-13 22:30:28.010,0.7247362,0.26808196,0.24822198,0.9267344,0.4718256,-0.08962512,-0.12939712,0.6809434,0.45680562,-0.013793938,0.15371273,0.6840402,0.30807003,-0.12848768,-0.042398494,0.59271127,-0.14905469,-0.667306,-0.44682518,-0.027748719,810.293,792.5641,791.3553,805.05493,789.7436,0.019775390625,-0.001220703125,1.00689697265625,6.3104248046875,-4.71038818359375,2.310333251953125,1,1.0,1.0,1.0,1.0,100.00
2021-04-13 22:30:28.511,0.7862579,0.5690805,0.3719613,0.89434403,0.50822747,0.19160856,0.019695338,0.7122256,0.41657037,0.1385817,0.118674584,0.62995696,0.29053557,0.099975154,-0.016950883,0.65913326,-0.16086033,-0.54250807,-0.45350245,0.02566721,841.31866,796.99634,792.5641,821.1722,882.01465,0.0213623046875,0.0093994140625,1.00299072265625,5.1141357421875,-4.17205810546875,0.58319091796875,1,1.0,1.0,1.0,1.0,100.00
2021-04-13 22:30:29.014,0.6960368,0.57128745,0.34868905,0.76990914,0.35894242,0.19563298,0.06912575,0.54089695,0.4763395,0.1504867,0.37691233,0.71203935,0.23856701,0.10140092,0.029555092,0.6334252,-0.19934858,-0.46748707,-0.4532862,0.11560264,761.13556,802.23444,806.6667,767.1795,651.13556,0.02459716796875,0.024658203125,1.0028076171875,7.155303955078125,-7.424468994140625,5.286102294921875,1,1.0,1.0,1.0,1.0,100.00
2021-04-13 22:30:29.526,0.5731042,0.6820248,0.701861,0.85294706,0.5023075,0.29023015,0.26672468,0.461124,0.6511477,0.4202972,0.408741,0.6249893,0.3919383,0.13215932,0.007066688,0.5342593,-0.18744318,-0.39056772,-0.4346829,0.119759455,785.7143,803.8461,808.2784,788.1319,701.9048,0.03839111328125,0.03546142578125,0.99908447265625,4.14215087890625,-5.615081787109375,4.366455078125,1,1.0,1.0,1.0,1.0,100.00
2021-04-13 22:30:30.050,0.62189007,0.7614581,0.7913596,1.0573833,0.5729168,0.4042072,0.28776234,0.52148545,0.6335904,0.5884999,0.408741,0.7300216,0.44902867,0.08967398,0.020541426,0.5092591,-0.15218702,-0.38275737,-0.40590268,0.1751968,844.5421,799.81683,807.0696,847.3626,1074.2124,0.03643798828125,0.0487060546875,1.003173828125,4.78515625,-4.77020263671875,4.822540283203125,1,1.0,1.0,1.0,1.0,100.00
2021-04-13 22:30:30.154,0.641766435,0.8876325,0.87072945,1.14818605,0.6344336500000,0.5107906,0.39650397,0.641453955,0.63072995,0.6534747750000,0.5133622,0.9071015,0.502927035,0.085571337,0.0171806135,0.494388535,-0.14392811,-0.38520354,-0.390680075,0.1702031600000,814.725275,795.78753499999,799.41392,,,,,,,,,,,,,,,/muse/elements/blink
2021-04-13 22:30:30.575,0.6616428,1.0138069,0.9500993,1.2389888,0.6959505,0.617374,0.5052456,0.76142246,0.6278695,0.71844965,0.6179834,1.0841814,0.5568254,0.081468694,0.013819801,0.47951797,-0.1356692,-0.38764971,-0.37545747,0.16520952,784.90845,791.75824,791.75824,784.90845,579.011,0.01910400390625,0.03704833984375,1.008544921875,2.64678955078125,-5.2935791015625,-0.0299072265625,1,1.0,1.0,1.0,1.0,100.00
2021-04-13 22:30:31.078,0.9362682,1.0342696,0.88042045,1.4093328,0.7445343,0.5911486,0.4352405,0.9518922,0.31539452,0.68227243,0.61973435,1.0841814,0.48971266,-0.011224083,0.061797217,0.5047709,-0.109973155,-0.54862034,-0.43560645,0.24724966,857.03296,789.34064,794.17584,848.97437,755.09155,0.0294189453125,-0.00555419921875,1.0008544921875,1.682281494140625,-6.183319091796875,-0.829925537109375,1,1.0,1.0,1.0,1.0,100.00
2021-04-13 22:30:31.209,0.9362682,0.9637204,0.778606575,1.43388785,0.7445343,0.510129785,0.3904742249999,1.02906795,0.31539452,0.6803034649999,0.6219874249999,1.0825139,0.48971266,-0.0644121315,0.0768864585,0.49968959,-0.109973155,-0.60571545,-0.490703424999,0.2422912850000,821.17215,778.46152000000,789.94507,,,,,,,,,,,,,,,/muse/elements/blink
2021-04-13 22:30:31.589,0.9362682,0.8931712,0.6767927,1.4584429,0.7445343,0.42911097,0.34570795,1.1062437,0.31539452,0.6783345,0.6242405,1.0808464,0.48971266,-0.11760018,0.0919757,0.49460828,-0.109973155,-0.66281056,-0.5458004,0.23733291,785.31134,767.5824,785.7143,791.75824,854.61536,0.0325927734375,-0.03607177734375,0.99749755859375,2.9608154296875,-6.38519287109375,0.171966552734375,1,1.0,1.0,1.0,1.0,100.00
2021-04-13 22:30:32.108,0.9362682,0.9966489,0.66767013,1.4584429,0.7445343,0.15271692,-0.003025968,1.1062437,0.31539452,0.4467314,0.21897207,1.0808464,0.48971266,-0.16349655,0.11848343,0.49460828,-0.109973155,-0.6840941,-0.5110694,0.23733291,826.0073,785.31134,774.83514,810.293,783.69965,0.0703125,-0.048095703125,1.0057373046875,3.5888671875,-5.323486328125,1.18133544921875,1,1.0,1.0,1.0,1.0,100.00
2021-04-13 22:30:32.621,0.9362682,1.0719568,0.63856995,1.4584429,0.7445343,0.18422626,-0.08478032,1.1062437,0.31539452,0.3979369,0.22133781,1.0808464,0.48971266,-0.10697494,0.19414124,0.49460828,-0.109973155,-0.66826934,-0.4413849,0.23733291,807.8755,780.87915,780.07324,804.2491,961.79486,0.05438232421875,-0.03753662109375,0.99786376953125,5.4730224609375,0.55328369140625,-2.01873779296875,1,1.0,1.0,1.0,1.0,100.00
2021-04-13 22:30:33.130,0.58652997,1.1360954,0.69306886,1.1257104,0.5523236,0.22717424,-0.015091822,0.6498769,0.50472,0.23903273,0.24150477,0.7550192,0.6754824,0.023998449,0.15834697,0.65825146,-0.12968683,-0.56894815,-0.38122714,-0.15414599,764.35895,790.54944,787.326,770.0,563.69965,-0.007568359375,-0.0299072265625,1.0028076171875,4.83001708984375,-1.375732421875,0.336456298828125,1,1.0,1.0,1.0,1.0,100.00
2021-04-13 22:30:33.643,0.63877034,0.7366222,0.48028344,1.0424602,0.7447152,0.12232268,0.19012138,0.8084341,0.5608938,0.10391698,0.2746996,0.8580191,0.5379313,0.020745797,0.16871253,0.6943179,-0.07549368,-0.49443102,-0.27497497,0.1375659,772.8205,780.07324,782.8938,762.74725,692.23444,-0.013671875,-0.01605224609375,1.0064697265625,2.6318359375,-1.6448974609375,1.54022216796875,1,1.0,1.0,1.0,1.0,100.00
2021-04-13 22:30:34.147,0.77912086,0.70946914,0.4452825,1.0683233,0.8332045,0.24676466,0.25570104,0.8437723,0.6967431,0.15815881,0.25767055,0.8580191,0.5371838,-0.010865231,0.11460528,0.6952828,-0.08889697,-0.43102694,-0.19599657,0.20350045,819.5604,790.14655,785.7143,832.4542,860.2564,-0.05657958984375,-0.04681396484375,0.991943359375,5.2935791015625,-2.6617431640625,-3.117828369140625,1,1.0,1.0,1.0,1.0,100.00
2021-04-13 22:30:34.513,0.8221857800000,0.7481754700000,0.531613815,0.96579682,0.8524789500000,0.289689855,0.279362635,0.912607,0.6770170499999,0.21817459,0.3020022049999,0.845787665,0.49148323,0.0003601139999,0.14207885,0.7208597299999,-0.08227683,-0.44230992,-0.18702014,0.29606621,821.37359999999,792.161195,796.7949,,,,,,,,,,,,,,,/muse/elements/blink
2021-04-13 22:30:34.674,0.8652507,0.7868818,0.61794513,0.86327034,0.8717534,0.33261505,0.30302423,0.9814417,0.657291,0.27819037,0.34633386,0.83355623,0.44578266,0.011585459,0.16955242,0.74643666,-0.07565669,-0.4535929,-0.17804371,0.38863197,823.1868,794.17584,807.8755,817.9487,751.06226,-0.0491943359375,-0.0430908203125,0.99456787109375,5.181427001953125,-1.831817626953125,-1.136474609375,1,1.0,1.0,1.0,1.0,100.00
2021-04-13 22:30:35.176,0.9560702,1.042464,0.8393251,0.89681184,0.8504776,0.4381856,0.19614682,1.0462309,0.6168367,0.35834482,0.4511466,0.7397011,0.53429043,0.028844146,0.19357486,0.7606697,-0.121829234,-0.551563,-0.29954815,0.42211774,771.6117,789.34064,792.5641,748.6447,662.8205,-0.03125,-0.0655517578125,0.9923095703125,3.147735595703125,-8.32916259765625,2.325286865234375,1,1.0,1.0,1.0,1.0,100.00
2021-04-13 22:30:35.691,0.94920236,1.1658638,0.89201033,0.89681184,0.58940643,0.36243206,0.21716644,1.0462309,0.46281233,0.33366618,0.4582089,0.7397011,0.4995309,0.0049937265,0.19125319,0.7606697,-0.13998888,-0.5832161,-0.43574172,0.42211774,783.2967,796.5934,807.8755,778.86444,794.9817,-0.01214599609375,-0.0867919921875,0.99871826171875,4.3365478515625,-6.5496826171875,0.64300537109375,1,1.0,1.0,1.0,1.0,100.00
2021-04-13 22:30:36.197,0.8708492,1.1368327,0.8776292,0.89681184,-0.058026545,0.28312793,0.1499762,1.0462309,0.41934538,0.33451414,0.40909916,0.7397011,0.3048138,-0.06233469,0.14061655,0.7606697,-0.24000946,-0.5648864,-0.4745124,0.42211774,821.978,803.8461,818.7546,856.63007,753.8828,0.0015869140625,-0.0616455078125,0.9949951171875,5.75714111328125,-5.286102294921875,1.68975830078125,1,1.0,1.0,1.0,1.0,100.00
2021-04-13 22:30:36.732,0.6609098,0.91921604,0.88185894,0.89681184,0.117156826,0.14249721,0.11899559,1.0462309,0.6341276,0.13422342,0.3632941,0.7397011,0.48462006,-0.009447386,0.117937684,0.7606697,-0.121699154,-0.56328714,-0.43587992,0.42211774,774.43225,799.81683,796.5934,809.89014,713.1868,0.00323486328125,-0.06341552734375,0.99761962890625,4.134674072265625,-4.7552490234375,2.88604736328125,1,1.0,1.0,1.0,1.0,100.00
2021-04-13 22:30:37.233,0.5424147,0.57670903,0.92919415,0.89681184,-0.016225914,0.13815673,0.065569445,1.0462309,0.639974,0.104628995,0.14444742,0.7397011,0.3860324,-0.008383599,0.11486739,0.7606697,-0.15431811,-0.687821,-0.4271869,0.42211774,795.38464,788.1319,806.26373,797.3993,660.40295,0.01446533203125,-0.06463623046875,0.999755859375,3.9178466796875,-6.160888671875,2.25799560546875,1,1.0,1.0,1.0,1.0,100.00
2021-04-13 22:30:37.750,0.27776873,0.48276728,0.8279862,0.89681184,-0.0018418763,0.06908491,-0.05454987,1.0462309,0.6447249,-0.018787403,0.12183242,0.7397011,0.39618966,-0.07351534,0.14855397,0.7606697,-0.19820242,-0.6998505,-0.49847677,0.42211774,817.5458,792.96704,793.7729,803.0403,818.7546,0.016845703125,-0.0657958984375,1.00091552734375,4.029998779296875,-4.02252197265625,0.336456298828125,1,1.0,1.0,1.0,1.0,100.00
2021-04-13 22:30:38.255,0.17390764,0.43307835,0.34051722,0.73392063,-0.27210313,-0.11333864,-0.201738,0.38893154,0.5809546,-0.0903061,0.35543916,0.51161766,0.19712047,-0.27394336,0.053544685,0.38922593,-0.36848044,-0.62671113,-0.61534345,0.33919635,816.7399,809.4872,815.9341,819.9634,843.3333,-0.0029296875,-0.07196044921875,1.00103759765625,3.84307861328125,-1.973876953125,2.13836669921875,1,1.0,1.0,1.0,1.0,100.00
2021-04-13 22:30:38.762,0.31209815,0.49023488,0.27973282,0.73392063,-0.17635305,-0.1761595,-0.17195944,0.38893154,0.5643752,0.05965327,0.35482493,0.51161766,0.28343764,-0.23094179,0.009981671,0.38922593,-0.32257277,-0.6077031,-0.5641601,0.33919635,751.06226,762.3443,819.15753,754.68866,894.90845,-0.01605224609375,-0.069091796875,0.99908447265625,4.59075927734375,-5.203857421875,-0.381317138671875,1,1.0,1.0,1.0,1.0,100.00
2021-04-13 22:30:39.265,0.6970771,0.41178453,0.3815701,0.73392063,-0.22767274,-0.26115882,0.14247034,0.38893154,0.4823755,0.05965327,0.60433376,0.51161766,0.37487042,-0.22049333,0.07053277,0.38922593,-0.17073934,-0.64083445,-0.4297318,0.33919635,757.9121,787.72894,817.9487,765.56775,633.4066,-0.01019287109375,-0.07171630859375,0.99884033203125,4.35150146484375,-3.90289306640625,-0.10467529296875,1,1.0,1.0,1.0,1.0,100.00
2021-04-13 22:30:39.772,0.86691856,0.5887704,0.49350575,0.73920184,-0.0068850787,-0.21116446,0.3285071,0.3778087,0.34565645,0.07620711,0.60839826,0.505199,0.4440546,-0.11756018,0.13199997,0.4049989,-0.0738883,-0.655989,-0.3171543,0.34174985,804.65204,789.7436,796.5934,798.20514,785.7143,-0.00567626953125,-0.07122802734375,0.99847412109375,3.730926513671875,-3.147735595703125,0.478515625,1,1.0,1.0,1.0,1.0,100.00
2021-04-13 22:30:40.287,0.8930039,0.42560846,0.59083754,0.5758992,0.26514566,0.06827286,0.37814757,0.13982353,0.36809,-0.14109261,0.5912008,0.46759397,0.46824726,0.018653441,0.18296039,0.52503747,-0.008247953,-0.5277083,-0.30310747,-0.110294715,835.6777,802.23444,800.2198,805.8608,805.8608,-0.00115966796875,-0.06292724609375,1.0035400390625,4.194488525390625,-5.8917236328125,2.474822998046875,1,1.0,1.0,1.0,1.0,100.00
2021-04-13 22:30:40.795,0.58429104,0.45210955,0.61804926,0.61863625,0.2186415,-0.011581798,0.35638806,0.22692886,0.21065262,-0.10582798,0.58712876,0.48128286,0.3044209,0.005893088,0.12413168,0.55254257,-0.15254363,-0.4952537,-0.33575398,-0.10615524,768.7912,803.0403,803.8461,786.1172,706.7399,0.00347900390625,-0.07421875,0.9920654296875,3.835601806640625,-6.47491455078125,2.1234130859375,1,1.0,1.0,1.0,1.0,100.00
2021-04-13 22:30:41.297,0.44449118,0.3842138,0.5581595,0.63809353,0.111238524,-0.041969515,0.18611947,0.22085416,0.21977347,-0.11330236,0.16068132,0.3474004,0.25070244,-0.0048197825,0.0740577,0.58913094,-0.22924101,-0.46349776,-0.40566927,-0.1853174,815.5311,799.81683,798.20514,804.65204,795.38464,-0.00201416015625,-0.07379150390625,0.999267578125,3.401947021484375,-3.5589599609375,-0.785064697265625,1,1.0,1.0,1.0,1.0,100.00
2021-04-13 22:30:41.815,0.41843763,0.39517727,0.5751509,0.61790955,-0.019958712,-0.17439413,0.040040743,0.3722009,0.21907113,-0.36341047,0.05086506,0.26120472,0.122329,-0.01188596,0.099525996,0.51894397,-0.26334143,-0.47398567,-0.4424303,-0.19875713,835.6777,799.41394,797.3993,815.5311,763.5531,0.00457763671875,-0.07513427734375,1.0029296875,4.85992431640625,-4.42626953125,0.6280517578125,1,1.0,1.0,1.0,1.0,100.00
2021-04-13 22:30:42.317,0.36941275,0.23440734,0.41244224,0.65083945,0.062414255,-0.25073898,-0.30485517,0.41554868,0.3752918,-0.2427875,0.06819114,0.3840718,0.095621094,-0.05610466,0.14107984,0.4171059,-0.19977035,-0.55526763,-0.42198154,-0.027943563,812.71063,805.8608,793.7729,826.4103,733.3333,0.01153564453125,-0.06524658203125,1.00372314453125,4.463653564453125,-5.405731201171875,0.261688232421875,1,1.0,1.0,1.0,1.0,100.00
2021-04-13 22:30:42.825,0.3475584,0.22884557,0.46361235,0.9153415,0.07635757,-0.23734617,-0.42631906,0.38589677,0.46466365,0.04258398,-0.015522662,0.45051056,0.16751567,-0.014879991,0.1446299,0.45969877,-0.13411629,-0.6777742,-0.44388223,-0.07228032,768.3883,800.6227,810.293,791.75824,711.978,0.0108642578125,-0.07611083984375,1.001708984375,4.254302978515625,-3.94775390625,0.5084228515625,1,1.0,1.0,1.0,1.0,100.00
2021-04-13 22:30:43.337,0.20254906,0.06502085,0.2988135,1.0043855,0.040555313,-0.1717513,-0.36996117,0.4083442,0.5986665,0.08953118,-0.10686948,0.44740802,0.21798344,-0.08509891,0.08508804,0.4745278,-0.16598698,-0.7024505,-0.44779676,-0.012782815,813.91943,785.31134,778.0586,810.696,823.9927,0.00762939453125,-0.0736083984375,1.00677490234375,5.001983642578125,-4.373931884765625,1.173858642578125,1,1.0,1.0,1.0,1.0,100.00
2021-04-13 22:30:43.761,0.158065478,0.245927165,0.37483022,1.0466365999999,0.02255984615,-0.110846625,-0.2119732675,0.355328285,0.5902246,0.090608125,-0.097598135,0.44987637,0.24079157,-0.080865214999,0.10649367,0.48383586,-0.180764695,-0.649475625,-0.471548729999,-0.0946103775,830.84249500000,787.72894500000,788.53479999999,,,,,,,,,,,,,,,/muse/elements/blink
2021-04-13 22:30:43.845,0.113581896,0.42683348,0.45084694,1.0888877,0.0045643793,-0.04994195,-0.053985365,0.30231237,0.5817827,0.09168507,-0.08832679,0.45234472,0.2635997,-0.07663152,0.1278993,0.49314392,-0.19554241,-0.59650075,-0.4953007,-0.17643794,847.76556,790.14655,799.011,839.304,836.08057,0.01318359375,-0.06890869140625,0.9998779296875,5.271148681640625,-5.8319091796875,0.70281982421875,1,1.0,1.0,1.0,1.0,100.00
2021-04-13 22:30:44.363,0.22212455,0.4863379,0.7729889,1.1000965,0.07518647,-0.031010896,0.40254253,0.23539062,0.44524086,0.07678078,0.17187583,0.42094365,0.25003326,-0.17659128,0.13023989,0.48308894,-0.21382335,-0.547823,-0.41417935,-0.19090132,781.685,800.6227,812.3077,795.78754,718.8278,-0.00213623046875,-0.07611083984375,1.00640869140625,3.910369873046875,-6.557159423828125,-0.919647216796875,1,1.0,1.0,1.0,1.0,100.00
2021-04-13 22:30:44.885,0.33502883,0.75324714,0.8116503,1.1000965,0.22770122,0.1027334,0.46185294,0.23539062,0.405196,0.04857721,0.267199,0.42094365,0.27167374,-0.10693958,0.18606758,0.48308894,-0.24593131,-0.6584604,-0.26426372,-0.19090132,778.0586,788.1319,794.9817,776.4469,654.7619,-0.0054931640625,-0.0775146484375,0.9991455078125,4.18701171875,-4.358978271484375,0.3887939453125,1,1.0,1.0,1.0,1.0,100.00
2021-04-13 22:30:45.415,0.33502883,0.6899972,0.81678975,1.1000965,0.22770122,0.4544414,0.4313063,0.23539062,0.405196,0.26119685,0.30054954,0.42094365,0.27167374,-0.10178887,0.16695757,0.48308894,-0.24593131,-0.8456746,-0.19610669,-0.19090132,774.83514,801.4286,803.0403,786.52014,703.91943,0.00982666015625,-0.07867431640625,1.000732421875,5.241241455078125,-5.615081787109375,0.052337646484375,1,1.0,1.0,1.0,1.0,100.00
2021-04-13 22:30:45.927,0.33502883,0.6019826,0.7197119,1.1000965,0.22770122,0.39751032,0.282216,0.23539062,0.405196,0.26119685,0.2638271,0.42094365,0.27167374,-0.13996851,0.11588471,0.48308894,-0.24593131,-0.85252297,-0.19633774,-0.19090132,803.8461,796.5934,792.96704,803.44324,808.2784,0.01104736328125,-0.06915283203125,1.00396728515625,5.181427001953125,-3.656158447265625,-0.49346923828125,1,1.0,1.0,1.0,1.0,100.00
2021-04-13 22:30:46.442,0.33502883,0.52283406,0.8282297,1.1000965,0.22770122,0.41007513,0.3876826,0.23539062,0.405196,0.3008603,0.2630454,0.42094365,0.27167374,-0.17702657,0.11052155,0.48308894,-0.24593131,-0.616062,-0.18572286,-0.19090132,835.2747,802.6374,801.4286,832.8571,789.34064,0.01446533203125,-0.0780029296875,1.0018310546875,3.5888671875,-4.80010986328125,1.42059326171875,1,2.0,1.0,1.0,2.0,100.00
2021-04-13 22:30:46.946,0.33502883,0.383371,0.6560347,1.1000965,0.22770122,0.16373806,0.13625374,0.23539062,0.405196,0.1859659,0.036744565,0.42094365,0.27167374,-0.1864786,0.07464258,0.48308894,-0.24593131,-0.49050242,-0.2197312,-0.19090132,780.87915,789.34064,791.3553,775.64105,666.4469,0.01995849609375,-0.072021484375,1.0059814453125,5.121612548828125,-4.5458984375,-0.1495361328125,1,2.0,1.0,1.0,2.0,100.00
2021-04-13 22:30:47.472,0.67204934,0.43581456,0.49317706,0.8117462,0.36996555,0.10123615,-0.29740083,-0.036299765,0.45745185,0.20324449,-0.3310165,0.32285073,0.21978636,-0.11373895,0.15139979,0.58214986,-0.20809188,-0.4050511,-0.40742722,-0.20929556,761.53845,806.26373,797.3993,767.98535,646.7033,0.0084228515625,-0.0650634765625,1.003662109375,4.658050537109375,-4.32159423828125,1.5850830078125,1,1.0,1.0,1.0,1.0,100.00
2021-04-13 22:30:47.974,0.60896534,0.40317935,0.44682297,0.6335327,0.30659693,0.0021189575,-0.25236002,0.051257923,0.46353275,0.100014105,0.06786582,0.47064203,0.16122684,-0.051514927,0.12424994,0.4680945,-0.21976429,-0.4195244,-0.37196323,-0.1543858,819.15753,799.81683,800.2198,813.1135,852.1978,0.009521484375,-0.0718994140625,0.99725341796875,3.940277099609375,-4.2767333984375,2.594451904296875,1,1.0,1.0,1.0,1.0,100.00
2021-04-13 22:30:48.482,0.52696675,0.36429155,0.4449644,0.55985963,0.4512139,-0.0072035743,-0.07647333,0.14589839,0.51368225,-0.07701803,0.18067902,0.49148566,0.10566659,-0.024176586,0.053476583,0.41963774,-0.20718446,-0.43409887,-0.43156135,-0.14026366,839.707,796.5934,799.011,828.8278,803.44324,-0.00531005859375,-0.0599365234375,1.00152587890625,4.5159912109375,-5.682373046875,-0.291595458984375,1,1.0,1.0,1.0,1.0,100.00
2021-04-13 22:30:49.001,0.5826638,0.27015984,0.35728374,0.42031825,0.58847517,0.0861019,0.087292224,0.2867228,0.48099712,-0.028459556,0.37683544,0.54712254,0.04411312,-0.03154584,0.039207198,0.30302778,-0.19643788,-0.47396362,-0.388334,-0.12125585,874.35895,798.60803,800.2198,882.4176,832.4542,0.012451171875,-0.05889892578125,1.00286865234375,4.344024658203125,-5.764617919921875,2.4224853515625,1,1.0,1.0,1.0,1.0,100.00
2021-04-13 22:30:49.006,0.60135202,0.5735842,0.563496455,0.4426345849999,0.6365937,0.32397062,0.239414052,0.34644055,0.46183105,0.365799222,0.44516759,0.54323522,0.0635760975,0.0312372899999,0.050069714,0.2900583,-0.190397075,-0.499445359999,-0.41587665,-0.128804865,846.95967500000,797.19778500000,799.21246999999,,,,,,,,,,,,,,,/muse/elements/blink
2021-04-13 22:30:49.509,0.62004024,0.87700856,0.76970917,0.46495092,0.68471223,0.56183934,0.39153588,0.4061583,0.44266498,0.760058,0.51349974,0.5393479,0.083039075,0.09402042,0.06093223,0.27708882,-0.18435627,-0.5249271,-0.4434193,-0.13635388,819.5604,795.78754,798.20514,808.68134,824.7985,0.04180908203125,-0.06396484375,1.006591796875,4.314117431640625,-5.689849853515625,1.9140625,1,1.0,1.0,1.0,1.0,100.00
2021-04-13 22:30:50.020,0.81699836,0.90621734,0.8531504,0.55610126,0.79251415,0.57209194,0.34943816,0.4807357,0.37307188,0.760058,0.52380246,0.45045003,0.15455598,0.08600144,0.1607208,0.26747322,-0.15148063,-0.6305114,-0.519689,-0.22570077,845.7509,810.696,799.81683,829.6337,855.82416,0.03570556640625,-0.0596923828125,0.99884033203125,4.42626953125,-5.57769775390625,0.740203857421875,1,1.0,1.0,1.0,1.0,100.00
2021-04-13 22:30:50.549,0.37581977,0.9164378,0.8476194,0.6376159,0.3745421,0.5269481,0.22376826,0.25187957,0.16415757,0.760058,0.52217233,0.6764571,-0.060174853,0.05285636,0.15766643,0.36707693,-0.35215443,-0.6832414,-0.58344424,0.04326013,789.7436,791.3553,782.8938,786.9231,682.96704,0.04779052734375,-0.0572509765625,0.9967041015625,4.59075927734375,-3.768310546875,0.10467529296875,1,1.0,1.0,1.0,1.0,100.00
2021-04-13 22:30:51.058,0.57311124,0.54877764,0.62728393,0.70131236,0.44836396,0.029281884,-0.2368626,0.30482036,0.28375918,0.38129807,0.2790458,0.92088276,0.0418774,-0.07000946,0.15682495,0.35255638,-0.24876472,-0.6926022,-0.57701516,0.07038531,775.2381,803.8461,806.6667,798.60803,661.6117,0.04888916015625,-0.064453125,1.00225830078125,3.18511962890625,-5.016937255859375,2.071075439453125,1,1.0,1.0,1.0,1.0,100.00
2021-04-13 22:30:51.583,0.5075363,0.49232924,0.4739119,0.66658133,0.41239,-0.039858397,-0.03274635,0.2441448,0.901631,0.3770326,0.20069517,0.9293867,0.17269129,-0.0070651504,0.05583468,0.40122962,-0.29182762,-0.5527061,-0.43458962,0.018967412,794.9817,801.02563,795.38464,791.3553,709.5604,0.05517578125,-0.0535888671875,1.00927734375,5.24871826171875,-4.83001708984375,1.936492919921875,1,1.0,1.0,1.0,1.0,100.00
2021-04-13 22:30:52.097,0.46931443,0.34175172,0.3702617,0.52630866,0.39687863,-0.022393314,0.06976197,0.16263853,0.9069569,0.39671728,0.27742592,0.80125165,0.36725685,0.060209252,0.019385427,0.4803873,-0.32213312,-0.43060806,-0.38782293,-0.026200896,786.1172,811.9048,817.9487,801.4286,714.3956,0.044677734375,-0.06536865234375,0.99615478515625,3.970184326171875,-4.0972900390625,1.77947998046875,1,1.0,1.0,1.0,1.0,100.00
2021-04-13 22:30:52.620,0.48160008,0.23264648,0.49315396,0.38175374,0.25887337,-0.05299709,0.07739355,0.051800992,0.9069569,0.3829835,0.3746846,0.638526,0.37367538,9.232358E-4,-0.029784795,0.4658303,-0.3445627,-0.48114765,-0.41500205,-0.12572709,822.7839,798.60803,797.3993,828.022,831.2454,0.03558349609375,-0.0638427734375,0.9981689453125,4.029998779296875,-4.732818603515625,-0.299072265625,1,1.0,1.0,1.0,1.0,100.00
2021-04-13 22:30:53.146,0.4828734,0.31240854,0.5723493,0.31900442,0.23205483,-0.09633122,-0.01775841,0.02256834,0.7088086,0.39500275,0.34251824,0.40782318,0.34705713,-0.036904808,-0.012227224,0.3787107,-0.22669645,-0.5482677,-0.37283418,-0.11035147,815.9341,799.41394,771.6117,800.6227,761.9414,0.04132080078125,-0.0650634765625,0.99871826171875,3.760833740234375,-4.149627685546875,-0.142059326171875,1,1.0,1.0,1.0,1.0,100.00
2021-04-13 22:30:53.283,0.5060919500000,0.40018903,0.7372112799999,0.34140672,0.17999912,-0.124950554999,0.079993845,-0.013243020000,0.57124465,0.33230491,0.39090837,0.40577359,0.291918305,-0.044720154,-0.010205721000,0.309675745,-0.194419685,-0.579681649999,-0.348473075,-0.13443101,832.85715,804.45057,782.490815,,,,,,,,,,,,,,,/muse/elements/blink
2021-04-13 22:30:53.654,0.5293105,0.48796952,0.90207326,0.36380902,0.12794341,-0.15356989,0.1777461,-0.04905438,0.4336807,0.26960707,0.4392985,0.403724,0.23677948,-0.0525355,-0.008184218,0.24064079,-0.16214292,-0.6110956,-0.32411197,-0.15851055,849.7802,809.4872,793.36993,844.1392,920.696,0.05169677734375,-0.0653076171875,1.0013427734375,4.344024658203125,-4.957122802734375,0.336456298828125,1,1.0,1.0,1.0,1.0,100.00
2021-04-13 22:30:54.167,0.22233088,0.5537811,0.9060961,0.25792918,0.19293289,-0.086040385,0.26077324,-0.079824,0.40496618,0.35081902,0.3707193,0.1931758,0.30415148,-0.03609212,-0.026002986,0.20716292,-0.088205665,-0.60138184,-0.26852956,-0.10934854,823.5897,792.96704,786.1172,823.1868,843.73627,0.0548095703125,-0.0687255859375,1.000244140625,4.104766845703125,-4.837493896484375,-0.31402587890625,1,1.0,1.0,1.0,1.0,100.00
2021-04-13 22:30:54.695,0.22233088,0.8139176,0.9685358,0.25792918,0.19293289,0.024717804,0.31758022,-0.079824,0.40496618,0.3099638,0.33763865,0.1931758,0.30415148,-0.09542341,-0.044734143,0.20716292,-0.088205665,-0.67644864,-0.4076858,-0.10934854,816.337,801.8315,798.60803,813.5165,820.3663,0.05322265625,-0.0703125,0.99676513671875,4.56085205078125,-4.837493896484375,0.605621337890625,1,1.0,1.0,1.0,1.0,100.00
2021-04-13 22:30:55.205,1.1918371,0.8954902,0.8138765,1.1359313,0.5563856,-0.038562287,0.0313742,0.51371187,0.45048004,0.28849843,0.076910675,0.5857504,0.22856262,-0.18479422,-0.029571738,0.24774007,-0.14717643,-0.6556259,-0.46658176,-0.23637341,841.31866,794.9817,789.7436,828.4249,850.989,0.0589599609375,-0.07269287109375,0.997802734375,4.78515625,-4.822540283203125,0.740203857421875,1,1.0,1.0,1.0,1.0,100.00
2021-04-13 22:30:55.716,1.0256876,0.852056,0.72583413,1.0245134,0.482357,-0.036884096,-0.0944263,0.46589234,0.47113946,0.2291567,0.18115218,0.58603364,0.24689078,-0.22915411,0.09317857,0.29558575,-0.02354549,-0.4822324,-0.2708574,-0.22046602,810.696,799.41394,796.5934,806.26373,630.989,0.06878662109375,-0.0714111328125,0.9993896484375,3.925323486328125,-5.630035400390625,1.652374267578125,1,1.0,1.0,1.0,1.0,100.00
2021-04-13 22:30:56.240,1.1690621,1.1135813,0.87083256,0.76956385,0.56733674,0.5544965,0.46398762,0.23340277,0.59675235,0.5148492,0.47449258,0.34071657,0.43203562,-0.015971033,0.17278962,0.283936,0.035608817,-0.4537575,-0.19241703,-0.21097192,764.35895,794.9817,801.8315,775.64105,716.0073,0.07135009765625,-0.067138671875,1.00018310546875,4.493560791015625,-4.583282470703125,1.09161376953125,1,1.0,1.0,1.0,1.0,100.00
2021-04-13 22:30:56.742,1.1583445,1.0861809,0.74124813,0.3965234,0.62244874,0.59450173,0.557195,0.2786178,0.59186405,0.54783285,0.49130824,0.14407144,0.4568402,0.09522034,0.2702127,0.37889764,-0.009031451,-0.43005106,-0.18183202,-0.18039508,778.86444,791.3553,796.1905,788.93774,854.21246,0.06939697265625,-0.0806884765625,0.9990234375,3.401947021484375,-4.972076416015625,1.143951416015625,1,1.0,1.0,1.0,1.0,100.00
2021-04-13 22:30:57.254,1.1381898,1.0873431,0.7470824,0.49826044,0.6892925,0.60781515,0.59677106,0.45171773,0.56447923,0.54783285,0.49506795,0.5237466,0.48299342,0.15104784,0.25257075,0.28050873,-0.09825315,-0.46880278,-0.325643,0.036300674,803.0403,803.44324,796.5934,799.41394,750.2564,0.06170654296875,-0.07647705078125,1.00054931640625,4.74029541015625,-4.538421630859375,-0.471038818359375,1,1.0,1.0,1.0,1.0,100.00
2021-04-13 22:30:57.769,0.6467061,0.57012695,0.37815794,0.43965784,0.4684903,0.14911126,0.2968051,0.2792335,0.48097333,0.2598922,0.40179738,0.536524,0.29375824,0.0230434,0.19698323,0.22563411,-0.19031145,-0.46891865,-0.42364258,0.00859887,766.3736,811.9048,801.8315,777.6557,675.31134,0.07342529296875,-0.0693359375,1.00616455078125,4.239349365234375,-5.30853271484375,0.95703125,1,1.0,1.0,1.0,1.0,100.00
2021-04-13 22:30:58.296,0.41457912,0.46671924,0.36717018,0.46667698,0.3034739,0.0978666,0.22054878,0.20641635,0.41214702,0.06324823,0.13066392,0.57729965,0.24736977,-0.04322799,0.040382575,0.27598155,-0.21401332,-0.42232433,-0.3453565,-0.012651293,799.011,801.4286,808.2784,786.52014,674.10254,0.0767822265625,-0.07147216796875,1.00860595703125,4.553375244140625,-4.194488525390625,0.82244873046875,1,1.0,1.0,1.0,1.0,100.00
2021-04-13 22:30:58.803,0.45006204,0.3978237,0.3468665,0.5102896,0.15675849,0.035398643,0.16145656,0.253223,0.4628251,-0.04279592,-0.034957293,0.49239168,0.16416869,-0.017880341,-0.09484327,0.33055818,-0.14063266,-0.47468746,-0.271217,-0.020235447,772.8205,815.9341,802.23444,770.40295,664.43225,0.06805419921875,-0.06622314453125,1.00238037109375,5.674896240234375,-4.239349365234375,-0.2691650390625,1,1.0,1.0,1.0,1.0,100.00
2021-04-13 22:30:59.309,0.4556814,0.37390894,0.264985,0.51640034,0.18991789,-0.11479999,0.08809356,0.20441417,0.47863236,0.27751848,-0.0015184056,0.48293945,0.22513913,0.04426242,-0.054648574,0.38335827,-0.14951877,-0.46343994,-0.28174728,-0.032642692,819.9634,799.41394,801.4286,818.7546,861.4652,0.06414794921875,-0.07452392578125,0.99822998046875,5.323486328125,-4.6356201171875,-0.2392578125,1,1.0,1.0,1.0,1.0,100.00
2021-04-13 22:30:59.816,0.26022846,0.32344097,0.27668735,0.378467,0.11990731,-0.27881584,-0.032391682,0.1540179,0.42763737,0.27128544,-0.017699284,0.5167871,0.23596764,0.044101227,-0.015795652,0.4001107,-0.119404435,-0.51092756,-0.3122454,-0.018916506,832.4542,790.9524,791.3553,814.7253,776.8498,0.0633544921875,-0.05511474609375,1.0150146484375,6.81884765625,-3.536529541015625,-1.18133544921875,1,1.0,1.0,1.0,1.0,100.00
2021-04-13 22:31:00.339,0.19905928,0.3992648,0.22531167,0.32484445,0.0929382,-0.23129864,-0.12419826,-0.07717851,0.43616942,0.23339584,0.05685537,0.48739642,0.30611786,-0.003900443,0.047558367,0.42456797,-0.21918644,-0.48669004,-0.43709204,-0.07353536,774.0293,799.41394,789.34064,766.77655,649.5238,0.083251953125,-0.08428955078125,1.00286865234375,7.31231689453125,-6.721649169921875,3.312225341796875,1,1.0,1.0,1.0,1.0,100.00
2021-04-13 22:31:00.845,0.3982061,0.78743076,0.4933099,0.5311596,0.48996678,0.09531144,-0.02558045,0.18544811,0.6586988,0.28276083,0.37895164,0.50771713,0.38483557,0.008871266,0.08226059,0.48936474,-0.1859832,-0.49968085,-0.47708386,-0.02192718,836.4835,801.02563,809.0842,838.0952,1068.1685,0.0731201171875,-0.07318115234375,1.0003662109375,5.181427001953125,-4.41131591796875,1.233673095703125,1,1.0,1.0,1.0,1.0,100.00
2021-04-13 22:31:01.348,0.486519,0.91863054,0.5147097,0.6014744,0.6384801,0.25596362,-0.08235552,0.4484102,1.0306599,0.54464364,0.39208767,0.70281094,0.4664539,0.07295382,0.07358793,0.5052165,-0.21078454,-0.53429914,-0.45230928,-0.0332367,783.2967,783.2967,781.685,766.77655,760.7326,0.076171875,-0.0860595703125,0.99896240234375,4.83001708984375,-3.96270751953125,2.6019287109375,1,1.0,1.0,1.0,1.0,100.00
2021-04-13 22:31:01.538,0.6868519,1.11070477,0.700301135,0.62981895,0.7569572499999,0.37510586,0.1147336549999,0.50637975,1.1440169,0.5984152199999,0.506101635,0.67623712,0.4895484499999,0.0908878220000,0.0519177875,0.504962275,-0.206637575,-0.53375522,-0.38544333,-0.015302328700,784.70695,785.7143,791.5568,,,,,,,,,,,,,,,/muse/elements/blink
2021-04-13 22:31:01.866,0.8871848,1.302779,0.88589257,0.6581635,0.8754344,0.4942481,0.31182283,0.5643493,1.2573739,0.6521868,0.6201156,0.6496633,0.512643,0.108821824,0.030247645,0.50470805,-0.20249061,-0.5332113,-0.31857738,0.0026320426,786.1172,788.1319,801.4286,792.1612,786.1172,0.07867431640625,-0.07037353515625,0.99884033203125,4.717864990234375,-5.181427001953125,-0.3887939453125,1,1.0,1.0,1.0,1.0,100.00
2021-04-13 22:31:02.383,1.0090921,1.3136165,1.0517837,0.5401977,0.9293878,0.527861,0.46706405,0.668876,1.2576295,0.6521868,0.61287934,0.6348084,0.51889086,0.07794701,0.039436404,0.4472363,-0.18284823,-0.5088232,-0.23292603,-0.042217672,766.3736,799.41394,802.23444,771.6117,787.72894,0.092529296875,-0.07244873046875,0.9993896484375,4.97955322265625,-5.016937255859375,2.1533203125,1,1.0,1.0,1.0,1.0,100.00
2021-04-13 22:31:02.611,1.0788931499999,1.3112728,1.0506564,0.5217308,0.97649865,0.5738863000000,0.479920595,0.6728505499999,1.25436265,0.6249754,0.605952295,0.630748975,0.51071993,0.084226245,0.033888246,0.45336072,-0.16974126,-0.51636433,-0.244239695,-0.050149523,767.78387500000,796.99634,799.01099,,,,,,,,,,,,,,,/muse/elements/blink
2021-04-13 22:31:02.889,1.1486942,1.3089291,1.0495291,0.5032639,1.0236095,0.6199116,0.49277714,0.6768251,1.2510958,0.597764,0.59902525,0.62668955,0.502549,0.09050548,0.028340088,0.45948514,-0.15663429,-0.52390546,-0.25555336,-0.058081374,769.19415,794.57874,795.78754,771.2088,662.4176,0.08111572265625,-0.06103515625,0.99591064453125,4.91973876953125,-4.000091552734375,1.712188720703125,1,1.0,1.0,1.0,1.0,100.00
2021-04-13 22:31:03.404,1.0653208,1.147983,0.9086121,0.5032639,0.96586865,0.6850465,0.4025843,0.6768251,1.0819104,0.56058615,0.570763,0.62668955,0.42369258,0.18302292,0.075781465,0.45948514,-0.06987279,-0.5222479,-0.2765418,-0.058081374,836.8865,795.38464,809.4872,834.87177,828.4249,0.0889892578125,-0.061279296875,0.99609375,5.659942626953125,-4.583282470703125,2.0037841796875,1,1.0,1.0,1.0,1.0,100.00
2021-04-13 22:31:03.908,0.88186985,1.0941595,0.7698666,0.5032639,0.8425531,0.6276882,0.19956324,0.6768251,0.84942985,0.56058615,0.16092741,0.62668955,0.3890822,0.16569445,0.120779306,0.45948514,-0.031234523,-0.49115303,-0.28782445,-0.058081374,823.5897,797.8022,790.54944,805.05493,765.9707,0.087158203125,-0.05169677734375,0.99749755859375,4.02252197265625,-6.422576904296875,0.3289794921875,1,1.0,1.0,1.0,1.0,100.00
2021-04-13 22:31:04.434,1.3437992,1.1380758,1.0402412,0.5032639,0.8719218,0.7108874,0.42088762,0.6768251,0.61827195,0.5488043,0.3454338,0.62668955,0.21925461,0.13767393,0.18776292,0.45948514,-0.18866952,-0.44024432,-0.24515207,-0.058081374,810.293,800.6227,796.99634,803.0403,815.12823,0.10595703125,-0.06048583984375,0.999267578125,4.508514404296875,-4.912261962890625,0.934600830078125,1,1.0,1.0,1.0,1.0,100.00
2021-04-13 22:31:04.958,1.2384,0.8872346,1.0344315,0.7300266,0.8131393,0.5766021,0.37541652,0.38212216,0.6751109,0.25008342,0.32644346,0.42660785,0.29837483,0.04080134,0.18798332,0.5309864,-0.13259867,-0.3871272,-0.23530248,0.062194258,787.72894,798.20514,797.8022,781.685,786.1172,0.097412109375,-0.0633544921875,0.9918212890625,4.882354736328125,-4.628143310546875,1.203765869140625,1,1.0,1.0,1.0,1.0,100.00
2021-04-13 22:31:05.488,1.1366534,0.84467196,0.9523255,0.65272427,0.73255223,0.54291403,0.38982075,0.35600677,0.675863,0.21304336,0.32644346,0.44501808,0.23809181,0.024140064,0.12496205,0.39642173,-0.13399182,-0.40659794,-0.25206307,0.038570713,841.31866,835.6777,803.44324,839.304,872.3443,0.11212158203125,-0.05548095703125,0.9957275390625,4.91973876953125,-5.091705322265625,1.33087158203125,1,1.0,1.0,1.0,1.0,100.00
2021-04-13 22:31:05.992,0.55461055,0.87707055,0.5839311,0.5663155,0.29080257,0.22369711,0.048338313,0.24580412,0.6766172,0.31206378,-0.014847107,0.46763602,0.18576398,-0.10033547,-0.017338231,0.2796043,-0.19574992,-0.50793993,-0.3088989,0.0242843,811.50183,797.8022,793.7729,809.0842,897.326,0.10394287109375,-0.0694580078125,0.9930419921875,3.671112060546875,-4.29168701171875,-0.13458251953125,1,1.0,1.0,1.0,1.0,100.00
2021-04-13 22:31:06.500,0.42000502,0.94318604,0.53438735,0.5183444,-0.079295024,0.16543001,-0.023595525,0.25027746,0.4827125,0.34561422,-0.10059455,0.3847006,0.04629871,-0.14111365,-0.1039176,0.21672717,-0.29011473,-0.5641187,-0.38120386,-0.02274376,775.2381,798.60803,793.36993,775.2381,642.27106,0.104736328125,-0.06005859375,0.9984130859375,4.88983154296875,-4.41131591796875,1.966400146484375,1,1.0,1.0,1.0,1.0,100.00
2021-04-13 22:31:07.034,0.44506183,0.98929596,0.41432574,0.36404732,-0.42566487,0.15417972,0.00659912,0.19656742,0.31192833,0.34239867,0.1756413,0.39323702,0.09610496,-0.14640358,-0.14956811,0.24989934,-0.31039944,-0.6165364,-0.4244641,-0.078736395,766.77655,805.8608,796.5934,766.3736,684.17584,0.108642578125,-0.06158447265625,0.98809814453125,4.104766845703125,-5.031890869140625,1.5850830078125,1,1.0,1.0,1.0,1.0,100.00
2021-04-13 22:31:07.558,0.3540411,0.7375219,0.18974943,0.076207556,-0.35597143,-0.011704255,0.10512851,0.18713343,0.32496303,0.25682673,0.23453063,0.33282754,0.1745021,-0.11266085,-0.145761,0.31287923,-0.14130326,-0.5361728,-0.42580873,-0.04165125,755.89746,807.47253,813.1135,766.77655,667.25275,0.0992431640625,-0.062744140625,0.99261474609375,4.1571044921875,-4.179534912109375,0.635528564453125,1,1.0,1.0,1.0,1.0,100.00
2021-04-13 22:31:08.061,0.25931704,0.5421817,0.18312545,0.043391097,-0.08917225,-0.1637665,0.13331926,0.17541277,0.3628826,0.1002191,0.30526164,0.42452523,0.329685,-0.05760835,0.0018576807,0.38048348,-0.0660594,-0.5678509,-0.3288014,-0.00936582,850.58606,807.0696,804.2491,824.3956,772.8205,0.11102294921875,-0.06134033203125,0.9918212890625,4.05242919921875,-3.81317138671875,0.785064697265625,1,1.0,1.0,1.0,1.0,100.00
2021-04-13 22:31:08.579,0.25073966,0.3950672,0.43678406,0.23287621,0.22832523,-0.13810548,0.2381695,0.2371874,0.95906895,0.17136401,0.3298685,0.41526306,0.42170483,-0.024254307,0.06506561,0.46755028,-0.13153887,-0.5652211,-0.39104572,-0.005896363,805.8608,813.1135,803.8461,776.04395,630.58606,0.1043701171875,-0.0643310546875,1.00067138671875,4.53094482421875,-5.166473388671875,0.70281982421875,1,1.0,1.0,1.0,1.0,100.00
2021-04-13 22:31:09.082,0.31787056,0.6318289,0.4707619,0.4453621,0.23802705,-0.026070558,0.16302295,0.28660226,1.04542,0.4271802,0.38129023,0.6590684,0.5220327,0.04338835,0.22517806,0.6313096,-0.20100643,-0.6078828,-0.4630873,0.004779844,827.619,796.99634,795.38464,803.0403,732.9304,0.11016845703125,-0.057861328125,0.99835205078125,4.306640625,-4.0374755859375,-0.657958984375,1,1.0,1.0,1.0,1.0,100.00
2021-04-13 22:31:09.587,0.3059907,0.7313443,0.4398607,0.49192744,0.25997174,0.24863599,0.18487212,0.45349434,1.0646906,0.56999767,0.5090727,0.78297293,0.6107416,0.060127422,0.19938764,0.6552972,-0.2970268,-0.5858153,-0.5489284,-0.034377042,808.2784,813.5165,799.41394,790.54944,805.4579,0.09490966796875,-0.06097412109375,0.995361328125,4.3365478515625,-3.102874755859375,0.381317138671875,1,1.0,1.0,1.0,1.0,100.00
2021-04-13 22:31:10.095,0.33544695,0.83293605,0.2929137,0.5744784,0.18092656,0.26456243,-0.099970594,0.5339236,1.0692972,0.56999767,0.49568638,0.7881245,0.5763648,0.02075686,0.1620614,0.63073,-0.25943312,-0.5431077,-0.43217567,0.0014513948,793.7729,797.3993,799.011,792.96704,641.8681,0.10906982421875,-0.0548095703125,1.00042724609375,3.850555419921875,-5.1141357421875,0.814971923828125,1,1.0,1.0,1.0,1.0,100.00
2021-04-13 22:31:10.598,0.20407006,0.7385147,0.2529283,0.7045502,0.3475069,0.38691446,-0.031590253,0.57352847,0.866492,0.56476176,0.49568638,0.7869493,0.49132773,-0.025514064,0.03144037,0.46331504,-0.2311159,-0.4616256,-0.4352057,-0.07479966,834.4689,808.2784,802.6374,817.5458,688.60803,0.1082763671875,-0.06048583984375,0.99407958984375,4.613189697265625,-4.11224365234375,1.652374267578125,1,1.0,1.0,1.0,1.0,100.00
2021-04-13 22:31:11.099,0.2076678,0.6632693,0.26496547,0.7910527,0.62252295,0.3017928,0.08942357,0.5482873,0.7795797,0.32006678,0.0602643,0.55203444,0.3715451,-0.077518344,0.03203296,0.3829145,-0.1637689,-0.37480915,-0.41665682,-0.099798106,821.1722,807.47253,798.20514,803.8461,807.8755,0.09991455078125,-0.06756591796875,0.99493408203125,3.820648193359375,-3.4991455078125,0.657958984375,1,1.0,1.0,1.0,1.0,100.00
2021-04-13 22:31:11.607,0.21889116,0.5127956,0.15248923,0.79173505,0.65509814,0.30251867,0.09348192,0.46613812,0.73210496,0.29901943,0.08787668,0.51613885,0.34084377,-0.054185607,0.085840374,0.350613,-0.15881209,-0.4262723,-0.46421358,-0.10839423,828.4249,797.3993,796.1905,823.9927,762.74725,0.10675048828125,-0.05810546875,0.9969482421875,4.85992431640625,-1.136474609375,3.63372802734375,1,1.0,1.0,1.0,1.0,100.00
2021-04-13 22:31:12.122,0.32969955,0.5541222,0.04810101,0.57435405,0.6329463,0.30758628,-0.027815867,0.46575567,0.68635994,0.19092178,0.030347584,0.50932777,0.35504666,-0.045931358,0.075591564,0.3968285,-0.13039209,-0.46021312,-0.39859015,-0.09319747,816.7399,813.5165,799.41394,792.96704,672.49084,0.08251953125,-0.064697265625,0.99786376953125,5.689849853515625,-4.732818603515625,5.988922119140625,1,1.0,1.0,1.0,1.0,100.00
2021-04-13 22:31:12.626,0.30958277,0.5577091,0.048772775,0.3861727,0.44430846,0.3049675,-0.2781332,0.40628245,0.65873873,0.17957841,-0.0036115313,0.49754694,0.25882527,-0.08128392,0.0119715715,0.451416,-0.19181193,-0.6127033,-0.3851416,0.09183707,736.1539,811.50183,763.95605,753.0769,595.12823,0.09307861328125,-0.0386962890625,1.0010986328125,4.7552490234375,-3.416900634765625,-0.0,1,1.0,1.0,1.0,1.0,100.00
2021-04-13 22:31:13.141,0.2642073,0.71356,0.41424003,0.09402875,0.43719524,0.37200138,-0.10884913,0.4188697,0.6116901,0.16476049,-0.064429395,0.48600066,0.32064873,-0.13482852,-0.053664535,0.5166582,-0.18389168,-0.5714079,-0.423063,0.1612898,784.10254,779.2674,796.1905,777.6557,731.7216,0.087646484375,-0.05975341796875,0.9967041015625,4.403839111328125,-3.828125,-0.650482177734375,1,1.0,1.0,1.0,1.0,100.00
2021-04-13 22:31:13.642,-0.16495244,0.72820264,0.5100749,0.16389012,0.4899478,0.2949082,0.031230692,0.42407614,0.59757626,0.0065701385,-0.08596622,0.4594655,0.21693973,-0.22707601,-0.15751441,0.5121749,-0.31673822,-0.55928755,-0.428617,0.28125045,828.8278,777.6557,790.14655,826.8132,890.4762,0.09228515625,-0.0523681640625,0.99212646484375,5.211334228515625,-4.598236083984375,1.443023681640625,1,1.0,1.0,1.0,1.0,100.00
2021-04-13 22:31:14.148,-0.382881,0.98355204,0.8227839,0.041753165,0.4367881,0.32887,0.18991227,0.33648244,0.5926261,0.7151515,0.46202913,0.40379208,0.24959542,-0.09341675,-0.06423195,0.51417905,-0.36944196,-0.5628436,-0.63296676,0.30907813,751.4652,801.02563,798.20514,755.4945,605.6044,0.08856201171875,-0.04547119140625,1.00250244140625,4.403839111328125,-4.777679443359375,1.218719482421875,1,1.0,1.0,1.0,1.0,100.00
2021-04-13 22:31:14.664,0.9402761,0.90151507,0.58631945,0.82682383,0.585022,0.15313023,0.1701613,0.5293887,0.8038136,0.7962724,0.4759422,0.93871164,0.4475513,0.060951587,0.12742914,0.5282002,-0.16629596,-0.6078009,-0.62736493,-0.053217933,792.96704,794.17584,797.8022,796.5934,765.56775,0.0894775390625,-0.04949951171875,0.9984130859375,3.940277099609375,-5.495452880859375,1.77947998046875,1,1.0,1.0,1.0,1.0,100.00
2021-04-13 22:31:15.167,0.87354606,0.843889,0.6115978,0.6994018,0.5923451,0.21436985,0.042181708,0.41496423,0.8360425,0.80504495,0.4759422,0.93871164,0.39357227,0.08871047,0.1185775,0.43711862,-0.22923116,-0.49852037,-0.50699085,0.016803967,842.9304,804.2491,805.8608,844.5421,1055.6776,0.09234619140625,-0.05206298828125,0.99725341796875,4.23187255859375,-5.18890380859375,1.443023681640625,1,1.0,1.0,1.0,1.0,100.00
2021-04-13 22:31:15.684,0.69613385,0.6573845,0.5890515,0.54162073,0.52972245,0.12234922,-0.12723139,0.2744275,0.8351058,0.68172693,0.31813568,0.8600859,0.30197197,0.04412527,0.084924065,0.41402403,-0.09691834,-0.46116975,-0.39489296,0.04935018,821.1722,797.8022,802.6374,812.71063,735.7509,0.09979248046875,-0.04205322265625,1.00250244140625,4.66552734375,-4.179534912109375,0.067291259765625,1,1.0,1.0,1.0,1.0,100.00
2021-04-13 22:31:16.203,0.45891958,0.47993827,0.56964,0.22814858,0.40473247,0.12044412,-0.10342254,-0.06867762,0.8230247,0.1830208,0.15636636,0.5970888,0.220193,-0.06909143,0.02849843,0.36596653,-0.13488665,-0.5043268,-0.40953213,0.038181815,774.0293,801.4286,805.05493,790.9524,695.05493,0.09564208984375,-0.04974365234375,0.99822998046875,3.54400634765625,-6.153411865234375,2.87109375,1,1.0,1.0,1.0,1.0,100.00
2021-04-13 22:31:16.723,0.29109076,0.27660295,0.57975143,0.17579901,0.17337783,-0.09642942,0.051399283,-0.018393125,0.6883253,0.12430449,0.22960432,0.7273337,0.29833934,-0.2445913,0.04142747,0.48316342,-0.15399522,-0.6450192,-0.46599185,-0.0041660746,839.707,798.60803,797.8022,853.4066,812.71063,0.08258056640625,-0.05596923828125,1.00421142578125,2.07855224609375,-2.07855224609375,4.9346923828125,1,1.0,1.0,1.0,1.0,100.00
2021-04-13 22:31:17.248,0.31286272,0.25712097,0.47892433,0.42798182,0.28007102,-0.06978596,0.21303697,0.25834122,0.6951902,0.11204592,0.12805109,0.99533343,0.34683967,-0.22600207,0.0974623,0.6610855,-0.30844763,-0.63293684,-0.43420225,0.30371162,822.381,805.8608,808.68134,815.5311,801.8315,0.087890625,-0.05706787109375,1.00360107421875,3.46923828125,-2.31781005859375,1.256103515625,1,1.0,1.0,1.0,1.0,100.00
2021-04-13 22:31:17.751,0.5539898,0.6199394,0.5611763,0.6253389,0.27090397,0.121350124,0.14315459,0.39515334,0.6835425,0.23033759,0.21964918,0.9924339,0.38328356,-0.18676049,0.081309184,0.739457,-0.25608596,-0.5205092,-0.33147395,0.42939934,793.7729,801.4286,800.6227,787.326,772.4176,0.04119873046875,-0.05718994140625,0.9932861328125,7.379608154296875,-3.087921142578125,7.947845458984375,1,1.0,1.0,1.0,1.0,100.00
2021-04-13 22:31:18.269,0.88476264,0.9621005,0.9111755,0.9633722,0.58172065,0.49841756,0.2882978,0.5957958,0.95627284,0.24660826,0.3016963,0.999152,0.42517444,-0.12374559,0.03270016,0.76499426,-0.13624568,-0.48044956,-0.25115737,0.53351,628.97437,780.87915,801.8315,618.9011,702.71063,0.0306396484375,-0.01544189453125,1.008056640625,8.074951171875,-3.327178955078125,1.039276123046875,1,1.0,1.0,1.0,1.0,100.00
2021-04-13 22:31:18.481,0.9465173200000,0.967461075,0.9157200000000,1.05625665,0.595084755,0.54869613,0.2953148300000,0.6286341,0.95627284,0.37161802,0.3053327649999,0.9363053,0.451746355,-0.116420405,-0.000492216499,0.71748873,-0.131057515,-0.483342880000,-0.284069635,0.49119486,709.157505,793.974375,802.23444999999,,,,,,,,,,,,,,,/muse/elements/blink
2021-04-13 22:31:18.794,1.008272,0.97282165,0.9202645,1.1491411,0.60844886,0.5989747,0.30233186,0.6614724,0.95627284,0.49662778,0.30896923,0.8734586,0.47831827,-0.10909522,-0.033684593,0.6699832,-0.12586935,-0.4862362,-0.3169819,0.44887972,789.34064,807.0696,802.6374,782.8938,675.7143,0.07110595703125,-0.008056640625,0.9871826171875,7.798309326171875,-5.510406494140625,0.01495361328125,1,1.0,1.0,1.0,1.0,100.00
2021-04-13 22:31:19.322,1.175717,0.87900054,0.96158653,1.1491411,0.8275612,0.68836904,0.46233815,0.6614724,0.95627284,0.5374849,0.4422427,0.8734586,0.56432664,-0.10674973,-0.034810375,0.6699832,-0.057159554,-0.451705,-0.24000724,0.44887972,807.0696,808.2784,791.75824,792.96704,830.84247,0.0667724609375,-0.00653076171875,0.9984130859375,3.0804443359375,-2.863616943359375,2.82623291015625,1,1.0,1.0,1.0,1.0,100.00
2021-04-13 22:31:19.849,1.2402416,0.676355,0.59752476,1.1491411,0.87677157,0.6157274,0.40943995,0.6614724,0.95627284,0.55066264,0.34300444,0.8734586,0.56619143,-0.08098408,-0.03051684,0.6699832,-0.024157586,-0.3938716,-0.2462315,0.44887972,793.36993,803.0403,793.7729,776.04395,710.7692,0.070556640625,-0.00640869140625,1.0048828125,4.65057373046875,-5.001983642578125,-0.31402587890625,1,1.0,1.0,1.0,1.0,100.00
2021-04-13 22:31:20.350,1.1685665,0.679788,0.63174427,0.837758,0.93141985,0.4722897,0.3022066,0.4767597,0.8591375,0.46482733,0.32322708,0.5032117,0.4552014,-0.061606243,0.036391098,0.40472108,-0.36617717,-0.4007845,-0.2693809,-0.073810376,746.2271,799.81683,798.20514,738.97437,827.2161,0.0618896484375,-0.01727294921875,1.0084228515625,3.805694580078125,-3.828125,2.729034423828125,1,1.0,1.0,1.0,1.0,100.00
2021-04-13 22:31:20.422,1.1685665,0.70992923,0.5482343000000,0.837758,0.93141985,0.455171685,0.2672351050000,0.4767597,0.8591375,0.443520295,0.042893945,0.5032117,0.4552014,-0.042495147,0.062332819,0.40472108,-0.36617717,-0.406725085,-0.348976984999,-0.073810376,794.377285,800.42122999999,791.75824,,,,,,,,,,,,,,,/muse/elements/blink
2021-04-13 22:31:20.864,1.1685665,0.74007046,0.46472433,0.837758,0.93141985,0.43805367,0.23226361,0.4767597,0.8591375,0.42221326,-0.23743919,0.5032117,0.4552014,-0.023384051,0.08827454,0.40472108,-0.36617717,-0.41266567,-0.42857307,-0.073810376,842.52747,801.02563,785.31134,835.6777,707.1429,0.0927734375,-0.0208740234375,1.01251220703125,4.643096923828125,-7.70111083984375,-1.667327880859375,1,1.0,1.0,1.0,1.0,100.00
2021-04-13 22:31:21.397,0.96216345,0.3568159,0.51894504,0.80187166,0.77893317,0.10969547,0.06686571,0.43188763,0.80206287,0.028287467,-0.31047308,0.46247208,0.48513085,-0.02993205,0.18691434,0.3488134,-0.35490984,-0.43211913,-0.5985768,-0.06977486,797.3993,809.89014,808.68134,788.93774,743.8095,0.060546875,-0.041259765625,0.99896240234375,4.50103759765625,-2.5421142578125,3.1103515625,1,1.0,1.0,1.0,1.0,100.00
2021-04-13 22:31:21.921,0.96216345,0.96475536,0.73993593,0.80187166,0.77893317,0.22258869,0.28783998,0.43188763,0.80206287,0.3148882,0.3864316,0.46247208,0.48513085,0.12785079,0.13159092,0.3488134,-0.35490984,-0.6275106,-0.13030916,-0.06977486,766.77655,792.1612,794.9817,767.1795,767.98535,0.0687255859375,-0.0177001953125,1.00665283203125,4.8748779296875,-4.837493896484375,0.88226318359375,1,1.0,1.0,1.0,1.0,100.00
2021-04-13 22:31:22.447,0.96216345,0.8229472,0.85419613,0.80187166,0.77893317,0.21463737,0.18884563,0.43188763,0.80206287,0.37870595,0.42353883,0.46247208,0.48513085,0.059257288,0.06045571,0.3488134,-0.35490984,-0.53976506,-0.23367831,-0.06977486,877.5824,809.0842,775.64105,855.82416,790.14655,0.0625,-0.03619384765625,1.00286865234375,7.61138916015625,-2.10845947265625,2.355194091796875,1,1.0,1.0,1.0,1.0,100.00
2021-04-13 22:31:22.450,0.96216345,0.86447763,0.9011878950000,0.80187166,0.77893317,0.3385848099999,0.284986405,0.43188763,0.80206287,0.405255915,0.426195695,0.46247208,0.48513085,0.068951244,0.082053192,0.3488134,-0.35490984,-0.56068978,-0.254572765000,-0.06977486,862.27105000000,805.05491499999,787.12454,,,,,,,,,,,,,,,/muse/elements/blink
2021-04-13 22:31:22.975,0.96216345,0.90600806,0.94817966,0.80187166,0.77893317,0.46253225,0.38112718,0.43188763,0.80206287,0.43180588,0.42885256,0.46247208,0.48513085,0.0786452,0.103650674,0.3488134,-0.35490984,-0.5816145,-0.27546722,-0.06977486,846.9597,801.02563,798.60803,844.94507,931.978,-0.00433349609375,-0.01068115234375,1.00323486328125,5.9515380859375,-7.544097900390625,26.91650390625,1,2.0,1.0,1.0,2.0,100.00
2021-04-13 22:31:23.501,0.96216345,0.87335795,1.0161026,0.80187166,0.77893317,0.5461218,0.41692123,0.43188763,0.80206287,0.4279664,0.18001857,0.46247208,0.48513085,0.051780455,0.090631425,0.3488134,-0.35490984,-0.5603658,-0.35974538,-0.06977486,799.011,820.3663,799.81683,787.72894,747.8388,0.0269775390625,0.034423828125,1.00830078125,4.687957763671875,-3.84307861328125,3.81317138671875,1,2.0,1.0,1.0,2.0,100.00
2021-04-13 22:31:24.014,0.96216345,1.0882851,1.0876416,0.80187166,0.77893317,0.7737625,0.65769935,0.43188763,0.80206287,0.30772185,0.052388333,0.46247208,0.48513085,0.12319514,0.15766558,0.3488134,-0.35490984,-0.6372486,-0.377198,-0.06977486,800.2198,806.6667,803.8461,782.0879,703.91943,0.00238037109375,0.01104736328125,1.0010986328125,2.729034423828125,-1.816864013671875,5.99639892578125,1,2.0,1.0,1.0,2.0,100.00
2021-04-13 22:31:24.515,0.76040494,0.9924562,0.7728309,0.94952923,0.37975535,0.37202153,0.05226547,0.46241227,0.77338105,0.28592017,0.3992982,0.38022724,0.42719993,0.14617519,0.073272415,0.2923188,-0.14740315,-0.4910032,-0.37235463,0.039607983,803.44324,831.6484,803.0403,794.17584,630.58606,-0.0399169921875,0.01409912109375,1.0257568359375,3.970184326171875,-4.08233642578125,-1.79443359375,1,1.0,1.0,1.0,1.0,100.00
2021-04-13 22:31:25.033,0.7332613,0.8704927,0.7187201,0.7966013,0.41324747,0.3264615,0.094863325,0.3447012,0.8701336,0.35409588,0.4175331,0.43785197,0.37932664,0.11290998,0.043344643,0.42394698,-0.2139439,-0.40059155,-0.38337693,0.16664973,791.3553,795.78754,789.34064,780.4762,800.6227,-0.06402587890625,0.02691650390625,1.029052734375,0.127105712890625,-2.5421142578125,-3.78326416015625,1,1.0,1.0,1.0,1.0,100.00
2021-04-13 22:31:25.545,0.7929207,0.9786508,0.7434135,0.80901283,0.45309693,0.28428283,0.13182119,0.35335767,0.8193339,0.4438833,0.4175331,0.5491302,0.36382854,0.097059555,0.04896574,0.42221755,-0.17004232,-0.39915338,-0.38770893,0.16727597,793.36993,785.31134,774.43225,784.90845,879.19415,0.004638671875,-0.06298828125,1.04779052734375,6.17584228515625,-6.83380126953125,-8.037567138671875,1,1.0,1.0,1.0,1.0,100.00
2021-04-13 22:31:26.049,0.7368102,0.9656353,0.67919844,0.6425708,0.5354859,0.3296793,0.21732698,0.2353847,0.7661291,0.3928471,0.3291005,0.47939983,0.3222758,0.041933786,0.014962182,0.50694776,-0.3178386,-0.37351325,-0.39926592,0.2508677,757.9121,779.67035,788.93774,761.9414,946.4835,-0.027099609375,-0.03125,1.03851318359375,3.87298583984375,-6.018829345703125,-9.787139892578125,1,1.0,1.0,1.0,1.0,100.00
2021-04-13 22:31:26.562,0.8372391,1.1263673,0.6553955,0.71195996,0.623256,0.42759487,0.26745948,0.28485885,0.65136063,0.39261946,0.053820238,0.4787601,0.33526698,0.03289804,-0.004471318,0.4584124,-0.31820515,-0.47091922,-0.43113256,0.22801429,782.8938,780.4762,795.38464,789.7436,741.79486,-0.07257080078125,0.0155029296875,0.93719482421875,16.9573974609375,18.82659912109375,-27.477264404296875,1,1.0,1.0,1.0,1.0,100.00
2021-04-13 22:31:27.072,0.8372391,1.3622164,0.6553955,0.71195996,0.623256,0.7036692,0.26745948,0.28485885,0.65136063,0.5342235,0.053820238,0.4787601,0.33526698,0.2556009,-0.004471318,0.4584124,-0.31820515,-0.4875167,-0.43113256,0.22801429,760.7326,750.2564,752.674,748.6447,837.28937,-0.246337890625,0.05902099609375,0.89605712890625,5.839385986328125,-7.10296630859375,9.91424560546875,1,1.0,1.0,1.0,1.0,100.00
2021-04-13 22:31:27.500,0.8372391,1.3622164,0.6553955,0.71195996,0.623256,0.7036692,0.26745948,0.28485885,0.65136063,0.5342235,0.053820238,0.4787601,0.33526698,0.2556009,-0.004471318,0.4584124,-0.31820515,-0.4875167,-0.43113256,0.22801429,778.05862,767.17947,748.64468,,,,,,,,,,,,,,,/muse/elements/blink
2021-04-13 22:31:27.596,0.8372391,1.3622164,0.6553955,0.71195996,0.623256,0.7036692,0.26745948,0.28485885,0.65136063,0.5342235,0.053820238,0.4787601,0.33526698,0.2556009,-0.004471318,0.4584124,-0.31820515,-0.4875167,-0.43113256,0.22801429,795.38464,784.10254,744.61536,761.9414,844.1392,-0.1680908203125,0.1702880859375,0.95233154296875,22.789306640625,16.94244384765625,29.189453125,1,1.0,1.0,1.0,1.0,100.00
2021-04-13 22:31:28.112,0.8372391,1.43696,0.6553955,0.71195996,0.623256,0.73737454,0.26745948,0.28485885,0.65136063,0.5342235,0.053820238,0.4787601,0.33526698,0.29500282,-0.004471318,0.4584124,-0.31820515,-0.5071232,-0.43113256,0.22801429,771.6117,783.69965,775.64105,805.8608,655.56775,-0.1866455078125,0.2720947265625,0.9324951171875,-10.370330810546875,13.71246337890625,66.61834716796875,1,2.0,1.0,1.0,2.0,100.00
2021-04-13 22:31:28.617,0.8372391,1.43696,0.6553955,0.71195996,0.623256,0.73737454,0.26745948,0.28485885,0.65136063,0.5342235,0.053820238,0.4787601,0.33526698,0.29500282,-0.004471318,0.4584124,-0.31820515,-0.5071232,-0.43113256,0.22801429,732.9304,801.4286,763.1502,750.2564,858.24176,-0.16943359375,0.20660400390625,0.9493408203125,-8.919830322265625,1.786956787109375,50.535736083984375,1,2.0,1.0,1.0,2.0,100.00
2021-04-13 22:31:29.143,0.8372391,1.4970552,0.6553955,0.71195996,0.623256,1.3054119,0.26745948,0.28485885,0.65136063,0.9897719,0.053820238,0.4787601,0.33526698,0.7093071,-0.004471318,0.4584124,-0.31820515,-0.12608625,-0.43113256,0.22801429,670.87915,791.75824,794.9817,666.8498,793.36993,-0.18170166015625,0.1290283203125,0.97894287109375,-6.587066650390625,3.162689208984375,34.01947021484375,1,2.0,1.0,1.0,2.0,100.00
2021-04-13 22:31:29.353,0.8372391,1.43874835,0.6553955,0.71195996,0.623256,1.29358575,0.26745948,0.28485885,0.65136063,1.00299245,0.053820238,0.4787601,0.33526698,0.6604266999999,-0.004471318,0.4584124,-0.31820515,-0.191900215,-0.43113256,0.22801429,736.153875,786.92307,790.54945,,,,,,,,,,,,,,,/muse/elements/blink
2021-04-13 22:31:29.644,0.8372391,1.3804415,0.6553955,0.71195996,0.623256,1.2817596,0.26745948,0.28485885,0.65136063,1.016213,0.053820238,0.4787601,0.33526698,0.6115463,-0.004471318,0.4584124,-0.31820515,-0.25771418,-0.43113256,0.22801429,801.4286,782.0879,786.1172,807.8755,704.3223,-0.199462890625,0.11590576171875,0.9725341796875,-1.42059326171875,0.471038818359375,12.179718017578125,1,2.0,1.0,1.0,2.0,100.00
2021-04-13 22:31:30.163,0.8372391,1.3778894,0.6553955,0.71195996,0.623256,1.1841521,0.26745948,0.28485885,0.65136063,1.0219764,0.053820238,0.4787601,0.33526698,0.53459483,-0.004471318,0.4584124,-0.31820515,-0.3095522,-0.43113256,0.22801429,780.07324,787.326,805.8608,772.8205,752.674,-0.16998291015625,0.11328125,0.96099853515625,5.42816162109375,-2.145843505859375,-3.18511962890625,1,2.0,1.0,1.0,2.0,100.00
2021-04-13 22:31:30.677,0.8372391,1.1998767,0.78685236,0.71195996,0.623256,0.89120334,-0.38991278,0.28485885,0.65136063,0.8660497,0.046678174,0.4787601,0.33526698,0.2899192,-0.13035065,0.4584124,-0.31820515,-0.41470307,-0.13241407,0.22801429,768.7912,759.12085,782.0879,766.3736,638.6447,-0.173583984375,0.1402587890625,0.98211669921875,7.888031005859375,-6.53472900390625,-0.426177978515625,1,2.0,1.0,1.0,2.0,100.00
2021-04-13 22:31:31.187,0.7105228,1.1136533,0.8066633,0.9021568,0.31289184,0.39918798,-0.26744226,0.7216833,0.47081167,0.57996774,0.05696624,0.4528504,0.38550332,0.055996634,-0.09770723,0.29759336,-0.12618615,-0.36366242,-0.26690277,0.1014679,787.326,769.19415,794.9817,796.99634,740.58606,-0.17529296875,0.125732421875,0.97503662109375,6.602020263671875,-4.74029541015625,4.523468017578125,1,1.0,1.0,1.0,1.0,100.00
2021-04-13 22:31:31.681,0.7407063700000,1.0467493,0.8519676,0.9282204000000,0.2856016,0.271938315,-0.089564437,0.68031895,0.48382825,0.4719628099999,0.05696624,0.471181065,0.3976187599999,-0.013852808000,-0.122902,0.2849677699999,-0.119140374999,-0.381270885,-0.283115919999,0.0921038725,808.6813,782.490845,801.83152,,,,,,,,,,,,,,,/muse/elements/blink
2021-04-13 22:31:31.700,0.77088994,0.9798453,0.8972719,0.954284,0.25831136,0.14468865,0.088313386,0.6389546,0.49684483,0.36395788,0.05696624,0.48951173,0.4097342,-0.08370225,-0.14809677,0.27234218,-0.1120946,-0.39887935,-0.29932907,0.082739845,830.0366,795.78754,808.68134,816.7399,763.5531,-0.14471435546875,0.19036865234375,0.947265625,1.757049560546875,3.147735595703125,31.4923095703125,1,1.0,1.0,1.0,1.0,100.00
2021-04-13 22:31:32.211,0.7794914,1.0165179,0.92521304,1.184503,0.20326093,0.11107892,0.17171694,0.8396354,0.49684483,0.3360633,-0.108872056,0.8131243,0.3788008,-0.16990003,-0.16330272,0.2199444,-0.12985714,-0.42102385,-0.38696638,0.0070343902,794.17584,786.52014,799.41394,762.3443,668.86444,-0.12506103515625,0.1573486328125,0.98345947265625,-7.947845458984375,-9.28619384765625,30.02685546875,1,1.0,1.0,1.0,1.0,100.00
2021-04-13 22:31:32.728,1.0003701,1.0983499,1.0709585,1.4679192,0.52547616,0.16322692,0.44214654,1.0884162,0.55460346,0.27063763,-0.22251184,0.8606449,0.45073226,-0.20858993,-0.27304974,0.4296154,-0.101691164,-0.5812851,-0.412018,-0.09152836,798.60803,786.52014,796.1905,681.3553,825.6044,-0.13934326171875,0.0987548828125,0.94287109375,5.390777587890625,-3.850555419921875,9.37591552734375,1,1.0,1.0,1.0,1.0,100.00
2021-04-13 22:31:33.231,1.0813352,1.050762,0.5130593,1.5787476,0.8500359,0.23428796,-0.14453772,1.2510163,0.32252714,-0.10682234,-0.13020276,0.8597761,0.33336553,0.046258025,0.10248172,0.53094447,-0.09565282,-0.45290402,-0.45067498,-0.15439433,703.91943,755.09155,780.07324,720.0366,849.3773,-0.23541259765625,0.06158447265625,0.97119140625,-3.45428466796875,0.94207763671875,10.87127685546875,1,1.0,1.0,1.0,1.0,100.00
2021-04-13 22:31:33.449,1.0813352,1.06139335,0.576325525,1.5787476,0.8500359,0.265103255,-0.047043463000,1.2510163,0.32252714,-0.078721828,-0.08631961,0.8597761,0.33336553,0.0408497210000,0.0986693449999,0.53094447,-0.09565282,-0.455685675,-0.491367140000,-0.15439433,733.13186500000,745.824155,765.97067,,,,,,,,,,,,,,,/muse/elements/blink
2021-04-13 22:31:33.746,1.0813352,1.0720247,0.63959175,1.5787476,0.8500359,0.29591855,0.050450794,1.2510163,0.32252714,-0.050621316,-0.04243646,0.8597761,0.33336553,0.035441417,0.09485697,0.53094447,-0.09565282,-0.45846733,-0.5320593,-0.15439433,762.3443,736.55676,751.8681,790.54944,703.5165,-0.2236328125,0.06488037109375,0.9417724609375,5.480499267578125,-0.321502685546875,5.62255859375,1,1.0,1.0,1.0,1.0,100.00
2021-04-13 22:31:34.254,1.0260514,1.0720247,0.63959175,1.5787476,0.75577575,0.29591855,0.050450794,1.2510163,0.23513024,-0.050621316,-0.04243646,0.8597761,0.32861447,0.035441417,0.09485697,0.53094447,-0.069530636,-0.45846733,-0.5320593,-0.15439433,763.5531,744.21246,760.32965,740.58606,787.72894,-0.2567138671875,0.106689453125,0.95550537109375,3.84307861328125,-5.38330078125,-1.734619140625,1,1.0,1.0,1.0,1.0,100.00
2021-04-13 22:31:34.767,1.0260514,1.0922948,0.9718093,1.5787476,0.75577575,0.34988022,0.60412204,1.2510163,0.23513024,-0.20309569,0.21019399,0.8597761,0.32861447,0.024348514,0.2830291,0.53094447,-0.069530636,-0.4641028,-0.5011563,-0.15439433,793.7729,796.5934,813.5165,775.64105,788.93774,-0.24462890625,0.13720703125,0.990966796875,4.000091552734375,-11.925506591796875,5.99639892578125,1,1.0,1.0,1.0,1.0,100.00
2021-04-13 22:31:35.294,1.0260514,1.0922948,1.0522953,1.5787476,0.75577575,0.34988022,0.6740555,1.2510163,0.23513024,-0.20309569,0.21019399,0.8597761,0.32861447,0.024348514,0.32849696,0.53094447,-0.069530636,-0.4641028,-0.4740287,-0.15439433,740.18317,740.18317,780.4762,805.4579,827.2161,-0.2762451171875,0.09130859375,0.975341796875,7.917938232421875,-1.203765869140625,7.783355712890625,1,1.0,1.0,1.0,1.0,100.00
