TimeStamp,Delta_TP9,Delta_AF7,Delta_AF8,Delta_TP10,Theta_TP9,Theta_AF7,Theta_AF8,Theta_TP10,Alpha_TP9,Alpha_AF7,Alpha_AF8,Alpha_TP10,Beta_TP9,Beta_AF7,Beta_AF8,Beta_TP10,Gamma_TP9,Gamma_AF7,Gamma_AF8,Gamma_TP10,RAW_TP9,RAW_AF7,RAW_AF8,RAW_TP10,AUX_RIGHT,Accelerometer_X,Accelerometer_Y,Accelerometer_Z,Gyro_X,Gyro_Y,Gyro_Z,HeadBandOn,HSI_TP9,HSI_AF7,HSI_AF8,HSI_TP10,Battery,Elements
2021-04-17 21:59:47.165,0.43209517,-0.08610687,0.26765117,0.53306997,0.35242108,0.19663116,0.22358605,0.7312888,0.5377363,0.32324648,0.6198555,0.74414235,0.83023727,1.0128169,0.88737744,0.92585427,0.581252,0.6337509,0.51002336,0.83538437,950.9158,866.30035,874.35895,966.63007,872.3443,0.4677734375,-0.052978515625,0.8929443359375,4.97955322265625,-4.613189697265625,1.74957275390625,1,1.0,1.0,1.0,1.0,50.00
2021-04-17 21:59:47.672,0.48292765,-0.013265377,0.041967615,0.7616538,0.21256964,0.055897947,0.059311457,0.55481565,0.29278198,0.34851015,0.4951148,0.7038011,0.82049215,1.0000908,0.86685437,1.0146341,0.60776323,0.58678985,0.3896683,0.9114377,821.5751,769.19415,777.25275,826.0073,1063.7362,0.4677734375,-0.06634521484375,0.88641357421875,4.41131591796875,-4.80010986328125,0.291595458984375,1,1.0,1.0,1.0,1.0,50.00
2021-04-17 21:59:48.180,0.48292765,0.03301922,-0.16226201,0.7616538,0.21256964,-0.04076739,0.121228054,0.55481565,0.29278198,0.40178275,0.55564183,0.7038011,0.82049215,0.9648321,0.8682651,1.0146341,0.60776323,0.5410541,0.3908013,0.9114377,822.381,845.7509,838.49817,820.3663,739.7802,0.44134521484375,-0.04766845703125,0.88616943359375,4.6356201171875,-3.6785888671875,-0.9869384765625,1,1.0,1.0,1.0,1.0,50.00
2021-04-17 21:59:48.687,0.48292765,0.06114184,0.098934695,1.0366683,0.21256964,-0.061287772,0.08727697,0.93808055,0.29278198,0.33014527,0.60065097,0.99215496,0.82049215,0.94969934,0.8426719,0.9111339,0.60776323,0.5360453,0.4073351,0.7868401,872.74725,838.9011,845.34796,882.4176,766.3736,0.47802734375,-0.052978515625,0.96795654296875,2.280426025390625,4.957122802734375,0.4486083984375,1,1.0,1.0,1.0,1.0,50.00
2021-04-17 21:59:49.191,0.48292765,0.029745536,0.18562196,1.0366683,0.21256964,0.24042143,0.1392277,0.93808055,0.29278198,0.22251676,0.5719621,0.99215496,0.82049215,0.90797204,0.86233103,0.9111339,0.60776323,0.64044017,0.5386892,0.7868401,817.5458,853.8095,805.8608,809.0842,748.6447,0.2493896484375,-0.05523681640625,0.96630859375,4.807586669921875,22.2808837890625,-4.32159423828125,1,1.0,1.0,1.0,1.0,50.00
2021-04-17 21:59:49.698,0.48292765,0.029745536,0.37934583,1.0548755,0.21256964,0.24042143,0.15834361,0.80077475,0.29278198,0.22251676,0.4667492,0.8835018,0.82049215,0.90797204,0.9046298,0.9377362,0.60776323,0.64044017,0.5111467,0.76480925,640.65936,823.5897,809.89014,654.7619,701.9048,0.002197265625,0.0347900390625,0.97314453125,7.663726806640625,-9.91424560546875,-15.252685546875,1,1.0,1.0,1.0,1.0,50.00
2021-04-17 21:59:50.198,0.48292765,0.029745536,0.24162342,1.0548755,0.21256964,0.24042143,0.34896007,0.80077475,0.29278198,0.22251676,0.3892806,0.8835018,0.82049215,0.90797204,0.8965697,0.9377362,0.60776323,0.64044017,0.53747386,0.76480925,720.84247,784.10254,787.72894,725.2747,776.04395,0.08709716796875,0.0306396484375,0.98876953125,5.00946044921875,-7.185211181640625,-6.3104248046875,1,1.0,1.0,1.0,1.0,50.00
2021-04-17 21:59:50.704,0.48292765,0.029745536,0.31416225,1.0548755,0.21256964,0.24042143,0.4246385,0.80077475,0.29278198,0.22251676,0.46926054,0.8835018,0.82049215,0.90797204,0.89174706,0.9377362,0.60776323,0.64044017,0.5579133,0.76480925,772.8205,768.7912,774.43225,800.2198,1060.5128,0.1328125,0.0506591796875,1.00128173828125,10.564727783203125,-8.411407470703125,-5.96649169921875,1,1.0,1.0,1.0,1.0,50.00
2021-04-17 21:59:51.222,1.1407475,0.029745536,0.34934196,0.950194,0.94495666,0.24042143,0.4375956,0.7674222,0.72139007,0.22251676,0.37415278,0.90366673,0.8703779,0.90797204,0.856029,0.92866635,0.41972303,0.64044017,0.580765,0.48240325,614.87177,827.2161,801.8315,639.45056,756.7033,0.1064453125,0.1055908203125,0.980224609375,7.080535888671875,-8.553466796875,-10.998382568359375,1,1.0,1.0,1.0,1.0,50.00
2021-04-17 21:59:51.734,1.1407475,0.029745536,0.42769653,0.9994241,0.94495666,0.24042143,0.48025155,0.7782889,0.72139007,0.22251676,0.36305615,0.92167604,0.8703779,0.90797204,0.871994,0.9232665,0.41972303,0.64044017,0.5848568,0.48854196,742.6007,799.41394,791.3553,724.0659,749.45056,0.19683837890625,0.1650390625,0.9710693359375,10.699310302734375,-9.6600341796875,-16.830291748046875,1,1.0,1.0,1.0,1.0,50.00
2021-04-17 21:59:52.255,0.85295373,0.02673163,0.23957106,0.86318326,0.40664592,-0.04041276,0.1269801,0.61876607,0.6639307,0.26643884,0.47165826,0.91248083,0.87478966,0.98119473,0.97211665,0.8541041,0.5131473,0.5673994,0.49005952,0.5399783,961.79486,826.0073,838.49817,919.89014,905.78754,0.17193603515625,0.21136474609375,0.9615478515625,-0.171966552734375,-2.55706787109375,-6.3702392578125,1,1.0,1.0,1.0,1.0,50.00
2021-04-17 21:59:52.781,0.9233127,0.20795149,0.56610006,0.93861467,0.21890785,0.24386087,0.14157814,0.4164499,0.6376173,0.4391572,0.67205364,0.67462474,0.8594047,0.9774661,0.97323036,0.77487886,0.48109236,0.5725317,0.5481291,0.58136314,844.94507,860.2564,859.0476,818.7546,721.2454,0.19110107421875,0.11492919921875,0.966064453125,-4.0972900390625,-6.796417236328125,6.3702392578125,1,1.0,1.0,1.0,1.0,50.00
2021-04-17 21:59:53.306,1.0684377,0.21150784,0.56610006,0.9736666,0.3775143,0.2553069,0.14157814,0.22023664,0.6962904,0.4391572,0.67205364,0.46450812,0.8475232,0.9856762,0.97323036,0.80799603,0.5081547,0.5578846,0.5481291,0.53255767,679.7436,816.7399,784.5055,714.3956,753.0769,0.1265869140625,0.09783935546875,0.9774169921875,9.031982421875,-2.026214599609375,16.247100830078125,1,1.0,1.0,1.0,1.0,50.00
2021-04-17 21:59:53.819,1.1333646,0.38742846,0.7907312,1.0401462,0.4459812,0.47951487,0.43124813,0.29818282,0.67897755,0.42695177,0.8661194,0.35477605,0.8441585,0.97181255,0.9733144,0.83890474,0.50075096,0.5801183,0.72026885,0.5008118,683.7729,805.8608,802.23444,687.3993,670.87915,0.11822509765625,0.04083251953125,0.99822998046875,3.551483154296875,0.49346923828125,18.908843994140625,1,1.0,1.0,1.0,1.0,50.00
2021-04-17 21:59:54.345,1.1526997,0.38742846,0.6938976,0.99386233,0.65418303,0.47951487,0.47686464,0.6571959,0.96066403,0.42695177,0.8149554,0.7304336,0.75732887,0.97181255,0.9646251,0.88177425,0.49537775,0.5801183,0.7684827,0.5408571,867.50916,820.3663,818.7546,808.2784,728.9011,0.03228759765625,0.1181640625,0.98834228515625,8.486175537109375,2.10845947265625,31.559600830078125,1,1.0,1.0,1.0,1.0,50.00
2021-04-17 21:59:54.872,0.83882713,0.38742846,0.56467193,0.92230976,0.7300834,0.47951487,0.39992046,0.7826768,1.0681205,0.42695177,0.84124845,0.8576743,0.7284824,0.97181255,0.907165,0.906764,0.34755975,0.5801183,0.6885447,0.43381593,724.4689,794.9817,811.0989,751.8681,727.28937,-0.0390625,0.16888427734375,0.97088623046875,-1.158905029296875,14.5947265625,45.496368408203125,1,1.0,1.0,1.0,1.0,50.00
2021-04-17 21:59:55.380,0.8335747,0.53702766,0.3555265,0.8905796,0.7118731,0.46345353,0.19553642,0.7204524,1.1024814,0.4090695,0.64580977,0.88413495,0.7686716,0.8789859,0.8124945,0.9803441,0.35074684,0.49761924,0.5805071,0.44914275,884.43225,825.6044,827.619,879.19415,746.63007,-0.19195556640625,0.06561279296875,1.0208740234375,-1.30096435546875,0.620574951171875,41.15234375,1,1.0,1.0,1.0,1.0,50.00
2021-04-17 21:59:55.896,0.8929514,0.53702766,-0.040968247,0.9419858,0.65778166,0.46345353,0.10892792,0.65014327,0.99145573,0.4090695,0.28597072,0.6943944,0.84325945,0.8789859,0.7539339,1.0389589,0.3626446,0.49761924,0.41606125,0.34044766,826.8132,807.8755,815.12823,847.3626,895.31134,-0.296142578125,0.07257080078125,0.94830322265625,-2.983245849609375,11.058197021484375,21.2939453125,1,1.0,1.0,1.0,1.0,50.00
2021-04-17 21:59:56.401,0.9408761,0.53702766,-0.010632088,0.92126715,0.64011204,0.46345353,0.10460764,0.54452246,0.98139864,0.4090695,0.27012217,0.6794695,0.87435055,0.8789859,0.7576939,1.1202142,0.3546887,0.49761924,0.40750962,0.3719357,813.1135,821.5751,815.5311,620.10986,662.01465,-0.2828369140625,0.1435546875,0.95013427734375,1.069183349609375,-6.542205810546875,16.927490234375,1,1.0,1.0,1.0,1.0,50.00
2021-04-17 21:59:56.925,0.76476556,0.53702766,0.49570158,0.92126715,0.89472586,0.46345353,0.37902498,0.54452246,0.9484108,0.4090695,0.36097035,0.6794695,0.56224144,0.8789859,0.7208595,1.1202142,0.42779282,0.49761924,0.62544835,0.3719357,757.50916,834.0659,824.7985,960.18317,849.7802,-0.29742431640625,0.09173583984375,0.95904541015625,6.041259765625,-1.353302001953125,0.37384033203125,1,1.0,1.0,1.0,1.0,50.00
2021-04-17 21:59:57.444,0.76476556,0.53702766,0.5594013,0.92126715,0.89472586,0.46345353,0.52280515,0.54452246,0.9484108,0.4090695,0.5250081,0.6794695,0.56224144,0.8789859,0.8223293,1.1202142,0.42779282,0.49761924,0.57289404,0.3719357,778.0586,814.3223,796.1905,953.3333,931.1722,-0.34503173828125,0.074462890625,0.87481689453125,13.17413330078125,4.224395751953125,-14.258270263671875,1,1.0,1.0,1.0,1.0,50.00
2021-04-17 21:59:57.961,0.7420905,0.39498395,0.63478726,0.92126715,0.89002746,0.49855664,0.5630052,0.54452246,0.90054333,0.5638662,0.5396665,0.6794695,0.5479685,0.9596685,0.83873194,1.1202142,0.39305916,0.55243814,0.5372757,0.3719357,747.03296,787.72894,766.3736,537.1062,733.3333,-0.3409423828125,0.028564453125,0.89898681640625,-11.132965087890625,-3.21502685546875,-1.0467529296875,1,1.0,1.0,1.0,1.0,50.00
2021-04-17 21:59:58.465,0.7420905,0.39498395,0.7570153,0.92126715,0.89002746,0.49855664,0.6759665,0.54452246,0.90054333,0.5638662,0.5210496,0.6794695,0.5479685,0.9596685,0.9092543,1.1202142,0.39305916,0.55243814,0.43556204,0.3719357,799.81683,806.26373,798.60803,682.5641,701.50183,-0.32818603515625,0.0667724609375,0.9364013671875,-2.504730224609375,-4.725341796875,0.261688232421875,1,1.0,1.0,1.0,1.0,50.00
2021-04-17 21:59:58.981,0.7420905,0.39498395,0.85364825,0.92126715,0.89002746,0.49855664,0.7214449,0.54452246,0.90054333,0.5638662,0.48154032,0.6794695,0.5479685,0.9596685,0.90191966,1.1202142,0.39305916,0.55243814,0.40083215,0.3719357,755.89746,811.50183,817.1429,935.6044,947.6923,-0.27838134765625,0.0946044921875,0.976318359375,9.28619384765625,-3.551483154296875,-8.92730712890625,1,1.0,1.0,1.0,1.0,50.00
2021-04-17 21:59:59.504,0.64414406,0.39498395,0.85364825,0.80634516,0.17737448,0.49855664,0.7214449,0.63462305,0.6878206,0.5638662,0.48154032,0.6645815,0.5531774,0.9596685,0.90191966,0.6711104,0.39133137,0.55243814,0.40083215,0.82349974,778.0586,844.1392,835.6777,906.1905,789.7436,-0.30743408203125,0.06884765625,0.95050048828125,4.553375244140625,-2.61688232421875,-0.91217041015625,1,2.0,1.0,1.0,2.0,50.00
2021-04-17 22:00:00.012,0.58241236,0.39498395,0.85364825,0.8622995,0.19723292,0.49855664,0.7214449,0.6030859,0.7512181,0.5638662,0.48154032,0.6645815,0.544539,0.9596685,0.90191966,0.6531076,0.38847372,0.55243814,0.40083215,0.82118356,809.0842,813.91943,826.0073,1007.72894,901.3553,-0.3028564453125,0.0633544921875,0.9486083984375,4.53094482421875,-5.241241455078125,1.831817626953125,1,1.0,1.0,1.0,1.0,50.00
2021-04-17 22:00:00.517,0.58241236,0.39498395,0.3105569,0.8622995,0.19723292,0.49855664,0.16972303,0.6030859,0.7512181,0.5638662,0.42859724,0.6645815,0.544539,0.9596685,0.8352631,0.6531076,0.38847372,0.55243814,0.6061752,0.82118356,647.1062,800.2198,806.26373,468.20514,701.50183,-0.30389404296875,0.06304931640625,0.9517822265625,4.5458984375,-3.252410888671875,2.729034423828125,1,1.0,1.0,1.0,1.0,50.00
2021-04-17 22:00:01.029,0.51327014,0.19369048,0.06260627,0.8612262,0.17627619,0.34812358,0.35203132,0.585239,0.7296943,0.37728247,0.73928213,0.64582604,0.5316662,0.89917845,0.8072839,0.61399376,0.38303494,0.5600886,0.47771782,0.832175,749.85345,821.1722,824.7985,814.7253,833.663,-0.31060791015625,0.06341552734375,0.95672607421875,4.179534912109375,-4.972076416015625,2.130889892578125,1,1.0,1.0,1.0,1.0,50.00
2021-04-17 22:00:01.548,0.51327014,0.19369048,0.06260627,0.8612262,0.17627619,0.34812358,0.35203132,0.585239,0.7296943,0.37728247,0.73928213,0.64582604,0.5316662,0.89917845,0.8072839,0.61399376,0.38303494,0.5600886,0.47771782,0.832175,780.87915,831.2454,774.0293,948.0952,936.4103,-0.3238525390625,0.0535888671875,0.9476318359375,4.269256591796875,-4.02252197265625,-1.383209228515625,1,1.0,1.0,1.0,1.0,50.00
2021-04-17 22:00:02.069,0.51327014,0.19369048,0.11554482,0.8612262,0.17627619,0.34812358,0.39668885,0.585239,0.7296943,0.37728247,0.73928213,0.64582604,0.5316662,0.89917845,0.7726905,0.61399376,0.38303494,0.5600886,0.41938102,0.832175,781.28204,817.5458,815.12823,765.9707,753.8828,-0.31182861328125,0.04498291015625,0.95208740234375,4.66552734375,-7.828216552734375,1.03179931640625,1,1.0,1.0,1.0,1.0,50.00
2021-04-17 22:00:02.579,0.51327014,0.19369048,0.11554482,0.8612262,0.17627619,0.34812358,0.39668885,0.585239,0.7296943,0.37728247,0.73928213,0.64582604,0.5316662,0.89917845,0.7726905,0.61399376,0.38303494,0.5600886,0.41938102,0.832175,801.02563,817.1429,807.8755,587.47253,574.9817,-0.30084228515625,0.03961181640625,0.95147705078125,4.2169189453125,-4.373931884765625,1.30096435546875,1,2.0,1.0,1.0,2.0,50.00
2021-04-17 22:00:03.105,0.51327014,0.19369048,0.11554482,0.8612262,0.17627619,0.34812358,0.39668885,0.585239,0.7296943,0.37728247,0.73928213,0.64582604,0.5316662,0.89917845,0.7726905,0.61399376,0.38303494,0.5600886,0.41938102,0.832175,771.6117,786.52014,784.10254,728.0952,935.2015,-0.31201171875,0.043701171875,0.94793701171875,3.222503662109375,-5.27862548828125,4.972076416015625,1,2.0,1.0,1.0,2.0,50.00
2021-04-17 22:00:03.615,0.51327014,0.19369048,0.11554482,0.8612262,0.17627619,0.34812358,0.39668885,0.585239,0.7296943,0.37728247,0.73928213,0.64582604,0.5316662,0.89917845,0.7726905,0.61399376,0.38303494,0.5600886,0.41938102,0.832175,780.4762,848.97437,809.0842,611.6484,676.9231,-0.29534912109375,0.03375244140625,0.96063232421875,4.463653564453125,-5.495452880859375,-9.114227294921875,1,2.0,1.0,1.0,2.0,50.00
2021-04-17 22:00:04.144,0.51327014,0.19369048,0.11554482,0.8612262,0.17627619,0.34812358,0.39668885,0.585239,0.7296943,0.37728247,0.73928213,0.64582604,0.5316662,0.89917845,0.7726905,0.61399376,0.38303494,0.5600886,0.41938102,0.832175,811.9048,830.0366,829.6337,877.1795,831.2454,-0.25537109375,-4.8828125E-4,0.9754638671875,5.06927490234375,-5.435638427734375,2.325286865234375,1,2.0,1.0,1.0,2.0,50.00
2021-04-17 22:00:04.649,0.8105262,0.19369048,0.66522664,1.0468967,0.5514309,0.34812358,0.18445809,0.57280725,0.1939275,0.37728247,0.17667256,0.6348102,0.58463717,0.89917845,0.8928123,0.6546665,0.1905106,0.5600886,0.31105518,0.3175514,835.6777,778.46155,787.326,688.20514,996.04395,-0.24505615234375,0.0120849609375,0.9752197265625,4.822540283203125,-7.708587646484375,3.282318115234375,1,2.0,1.0,1.0,2.0,50.00
2021-04-17 22:00:05.159,0.7632187,0.19369048,0.43536824,0.92340934,0.5698659,0.34812358,0.016103124,0.5333474,0.54541683,0.37728247,0.2951058,0.66577774,0.51312166,0.89917845,0.8071614,0.6477316,0.2685549,0.5600886,0.4026071,0.3977023,777.6557,809.4872,823.5897,657.98535,676.1172,-0.1988525390625,0.0255126953125,0.98291015625,4.074859619140625,-4.314117431640625,5.450592041015625,1,1.0,1.0,1.0,1.0,50.00
2021-04-17 22:00:05.666,0.7632187,0.19369048,0.36607847,0.92340934,0.5698659,0.34812358,-0.03927242,0.5333474,0.54541683,0.37728247,0.46678683,0.66577774,0.51312166,0.89917845,0.8095951,0.6477316,0.2685549,0.5600886,0.44391796,0.3977023,731.7216,794.17584,803.8461,888.46155,921.0989,-0.206787109375,0.03131103515625,0.95855712890625,6.47491455078125,-1.65985107421875,0.276641845703125,1,1.0,1.0,1.0,1.0,50.00
2021-04-17 22:00:06.175,0.71012086,0.442723,0.2845346,0.8078208,0.58755004,0.3516864,-0.17478274,0.5213262,0.5224106,0.49037033,0.5325988,0.5546409,0.42746243,0.69442165,0.7382248,0.6440289,0.33468774,0.55974954,0.4534963,0.46890983,781.28204,809.89014,804.2491,639.85345,670.07324,-0.20684814453125,0.0360107421875,0.978759765625,2.43743896484375,-3.06549072265625,6.975860595703125,1,1.0,1.0,1.0,1.0,50.00
2021-04-17 22:00:06.682,0.71012086,0.48314548,0.48021212,0.8078208,0.58755004,0.41279897,-0.10109717,0.5213262,0.5224106,0.5265892,0.52631944,0.5546409,0.42746243,0.68225616,0.7506297,0.6440289,0.33468774,0.56373453,0.42143786,0.46890983,750.2564,821.978,815.12823,873.1502,804.2491,-0.20013427734375,0.01202392578125,0.97235107421875,5.263671875,-4.246826171875,-3.6187744140625,1,1.0,1.0,1.0,1.0,50.00
2021-04-17 22:00:07.188,0.71012086,0.4484494,0.5619897,0.8078208,0.58755004,0.41544402,0.063436605,0.5213262,0.5224106,0.5265892,0.5017567,0.5546409,0.42746243,0.7196945,0.6986252,0.6440289,0.33468774,0.5796299,0.4519446,0.46890983,754.2857,802.6374,834.87177,900.54944,817.5458,-0.2044677734375,0.0260009765625,0.9793701171875,2.654266357421875,-3.536529541015625,2.220611572265625,1,1.0,1.0,1.0,1.0,50.00
2021-04-17 22:00:07.713,0.71012086,0.46401882,0.6731863,0.8078208,0.58755004,0.39824623,0.20358516,0.5213262,0.5224106,0.40575513,0.36305493,0.5546409,0.42746243,0.7555443,0.72814363,0.6440289,0.33468774,0.5806807,0.5141423,0.46890983,730.5128,788.1319,770.0,641.4652,834.4689,-0.21124267578125,0.0411376953125,0.97039794921875,6.519775390625,-3.671112060546875,-3.192596435546875,1,1.0,1.0,1.0,1.0,50.00
2021-04-17 22:00:08.214,0.71012086,0.34144095,0.49196357,0.8078208,0.58755004,0.16123945,0.1764941,0.5213262,0.5224106,0.07083008,0.29087517,0.5546409,0.42746243,0.80399054,0.77278584,0.6440289,0.33468774,0.5877661,0.57830137,0.46890983,753.47986,813.91943,817.5458,919.0842,894.90845,-0.21405029296875,0.03594970703125,0.978759765625,4.613189697265625,-4.837493896484375,-0.76263427734375,1,2.0,1.0,1.0,2.0,50.00
2021-04-17 22:00:08.722,1.1403713,0.4109855,0.49196357,0.8078208,1.1851268,0.16724731,0.1764941,0.5213262,1.2900603,-0.03819458,0.29087517,0.5546409,0.8098454,0.8098843,0.77278584,0.6440289,0.05699248,0.5759522,0.57830137,0.46890983,787.326,812.71063,841.7216,874.35895,790.54944,-0.2125244140625,0.03363037109375,0.9749755859375,4.85992431640625,-6.153411865234375,-1.353302001953125,1,1.0,1.0,1.0,1.0,50.00
2021-04-17 22:00:09.238,1.3172722,0.48439023,-0.057812992,0.8078208,1.2444586,0.2954385,0.30054563,0.5213262,1.3103,0.51167023,0.10487621,0.5546409,0.76706856,0.7788575,0.6711319,0.6440289,-0.021639396,0.27079132,0.35310182,0.46890983,816.337,792.1612,796.5934,688.20514,701.9048,-0.20172119140625,0.03814697265625,0.98028564453125,4.68048095703125,-9.04693603515625,0.755157470703125,1,1.0,1.0,1.0,1.0,50.00
2021-04-17 22:00:09.745,1.3172722,0.48439023,-0.057812992,0.8078208,1.2444586,0.2954385,0.30054563,0.5213262,1.3103,0.51167023,0.10487621,0.5546409,0.76706856,0.7788575,0.6711319,0.6440289,-0.021639396,0.27079132,0.35310182,0.46890983,770.0,801.8315,809.0842,653.1502,738.1685,-0.15618896484375,0.03076171875,0.9959716796875,5.929107666015625,-6.68426513671875,2.160797119140625,1,1.0,1.0,1.0,1.0,50.00
2021-04-17 22:00:10.254,1.3427306,0.53367853,0.04049828,0.8078208,1.2486763,0.36403418,0.40213054,0.5213262,1.3052685,0.3798843,0.07707899,0.5546409,0.7410779,0.8225069,0.7009517,0.6440289,0.0031124374,0.27332482,0.32861245,0.46890983,783.2967,812.3077,820.3663,909.41394,877.1795,-0.1824951171875,0.0302734375,0.98370361328125,4.583282470703125,-1.024322509765625,3.0206298828125,1,1.0,1.0,1.0,1.0,50.00
2021-04-17 22:00:10.769,1.3427306,0.53367853,0.34868464,0.8078208,1.2486763,0.36403418,0.5794687,0.5213262,1.3052685,0.3798843,0.31213024,0.5546409,0.7410779,0.8225069,0.69033563,0.6440289,0.0031124374,0.27332482,0.2802301,0.46890983,832.0513,773.22345,790.54944,967.03296,1185.0183,-0.20965576171875,0.03076171875,0.97381591796875,4.852447509765625,-4.35150146484375,0.52337646484375,1,1.0,1.0,1.0,1.0,50.00
2021-04-17 22:00:11.273,1.3427306,0.53367853,0.6010779,0.8078208,1.2486763,0.36403418,0.50890607,0.5213262,1.3052685,0.3798843,0.4454674,0.5546409,0.7410779,0.8225069,0.7094654,0.6440289,0.0031124374,0.27332482,0.36402634,0.46890983,763.1502,827.2161,835.2747,651.13556,637.03296,-0.214111328125,0.04229736328125,0.98114013671875,4.478607177734375,-3.46923828125,1.039276123046875,1,1.0,1.0,1.0,1.0,50.00
2021-04-17 22:00:11.779,1.3427306,0.53367853,0.57624865,0.8078208,1.2486763,0.36403418,0.4876561,0.5213262,1.3052685,0.3798843,0.6104335,0.5546409,0.7410779,0.8225069,0.7249098,0.6440289,0.0031124374,0.27332482,0.36120585,0.46890983,773.22345,803.8461,820.3663,934.7985,823.1868,-0.2208251953125,0.02264404296875,0.980224609375,3.955230712890625,-5.1739501953125,-0.299072265625,1,2.0,1.0,1.0,2.0,50.00
2021-04-17 22:00:12.301,1.099889,0.84296757,0.58644015,0.97819674,0.7374746,0.6864134,0.34361824,1.0300097,0.99682915,0.6501431,0.7210376,1.0208125,0.8776252,0.80058986,0.7290525,0.9528529,0.26355264,0.59779406,0.418132,0.6066806,800.6227,815.12823,821.1722,836.8865,786.9231,-0.22125244140625,0.0433349609375,0.973388671875,6.23565673828125,-5.084228515625,-1.547698974609375,1,1.0,1.0,1.0,1.0,50.00
2021-04-17 22:00:12.812,0.96016353,0.84296757,0.6399195,0.8859763,0.67048806,0.6864134,0.40835297,0.8964485,0.99682915,0.6501431,0.77395594,1.0856869,0.8156646,0.80058986,0.7907082,0.9422377,0.35472077,0.59779406,0.4034057,0.6069055,800.2198,808.2784,798.60803,898.93774,767.1795,-0.2305908203125,0.03955078125,0.97418212890625,4.658050537109375,-4.74029541015625,0.0897216796875,1,1.0,1.0,1.0,1.0,50.00
2021-04-17 22:00:13.316,0.8731688,0.84296757,0.6653564,0.76029253,0.70035595,0.6864134,0.42171487,0.86153644,1.3682129,0.6501431,0.77395594,1.4701043,1.0468022,0.80058986,0.7858744,1.242511,0.5220583,0.59779406,0.4101044,0.7941855,811.50183,805.05493,801.4286,713.1868,699.89014,-0.2281494140625,0.03692626953125,0.9749755859375,4.149627685546875,-3.895416259765625,0.037384033203125,1,1.0,1.0,1.0,1.0,50.00
2021-04-17 22:00:13.831,0.61243385,0.84296757,0.8459733,0.471191,0.658775,0.6864134,0.5495978,0.6850186,1.3417987,0.6501431,0.6069714,1.427298,1.134272,0.80058986,0.8684404,1.3668518,0.64647704,0.59779406,0.39787865,0.8809377,788.93774,819.15753,831.2454,942.0513,874.7619,-0.2259521484375,0.03936767578125,0.9766845703125,4.53094482421875,-5.824432373046875,1.36077880859375,1,1.0,1.0,1.0,1.0,50.00
2021-04-17 22:00:14.356,0.79562616,0.84296757,0.8459733,0.7472009,0.9703843,0.6864134,0.5495978,0.871465,1.6541545,0.6501431,0.6069714,1.5366638,1.5668832,0.80058986,0.8684404,1.5151902,0.97402406,0.59779406,0.39787865,0.9792615,773.22345,834.4689,829.2308,819.5604,730.5128,-0.2247314453125,0.03363037109375,0.97943115234375,4.62066650390625,-5.21881103515625,1.592559814453125,1,1.0,1.0,1.0,1.0,50.00
2021-04-17 22:00:14.860,0.79562616,0.84296757,0.8459733,0.9746352,0.9703843,0.6864134,0.5495978,1.0450224,1.6541545,0.6501431,0.6069714,1.5491644,1.5668832,0.80058986,0.8684404,1.5169082,0.97402406,0.59779406,0.39787865,0.9622019,813.1135,805.4579,813.5165,663.6264,724.0659,-0.20819091796875,0.0389404296875,0.98406982421875,5.51788330078125,-6.033782958984375,0.321502685546875,1,1.0,1.0,1.0,1.0,50.00
2021-04-17 22:00:15.377,0.79562616,0.84296757,0.8459733,1.1049725,0.9703843,0.6864134,0.5495978,1.1038829,1.6541545,0.6501431,0.6069714,1.498237,1.5668832,0.80058986,0.8684404,1.5130091,0.97402406,0.59779406,0.39787865,0.96452886,880.80585,934.7985,940.4396,820.7692,720.4396,-0.2198486328125,0.04425048828125,0.97802734375,4.658050537109375,-9.428253173828125,1.09161376953125,1,1.0,1.0,1.0,1.0,50.00
2021-04-17 22:00:15.905,0.79562616,0.84296757,0.8459733,1.1482036,0.9703843,0.6864134,0.5495978,1.1244614,1.6541545,0.6501431,0.6069714,1.498237,1.5668832,0.80058986,0.8684404,1.5012494,0.97402406,0.59779406,0.39787865,0.9644663,771.2088,809.0842,811.0989,912.6374,861.8681,-0.13763427734375,0.04656982421875,0.98858642578125,7.04315185546875,-9.10675048828125,2.429962158203125,1,1.0,1.0,1.0,1.0,50.00
2021-04-17 22:00:16.413,0.79562616,0.84296757,0.8459733,1.1482036,0.9703843,0.6864134,0.5495978,1.1244614,1.6541545,0.6501431,0.6069714,1.498237,1.5668832,0.80058986,0.8684404,1.5012494,0.97402406,0.59779406,0.39787865,0.9644663,781.685,803.0403,811.0989,837.28937,938.8278,-0.1236572265625,0.05438232421875,0.994873046875,4.179534912109375,-3.27484130859375,0.58319091796875,1,1.0,1.0,1.0,1.0,50.00
2021-04-17 22:00:16.917,0.79562616,0.84296757,0.8459733,1.1482036,0.9703843,0.6864134,0.5495978,1.1244614,1.6541545,0.6501431,0.6069714,1.498237,1.5668832,0.80058986,0.8684404,1.5012494,0.97402406,0.59779406,0.39787865,0.9644663,842.52747,828.4249,811.0989,686.99634,976.30035,-0.13555908203125,0.056396484375,0.991455078125,4.8150634765625,-7.484283447265625,1.757049560546875,1,1.0,1.0,1.0,1.0,50.00
2021-04-17 22:00:17.426,0.79562616,0.84296757,0.8459733,1.1482036,0.9703843,0.6864134,0.5495978,1.1244614,1.6541545,0.6501431,0.6069714,1.498237,1.5668832,0.80058986,0.8684404,1.5012494,0.97402406,0.59779406,0.39787865,0.9644663,653.1502,762.74725,767.5824,576.5934,834.0659,-0.13336181640625,0.04815673828125,0.9964599609375,4.852447509765625,-2.504730224609375,4.194488525390625,1,2.0,1.0,1.0,2.0,50.00
2021-04-17 22:00:17.957,0.79562616,0.84296757,0.8459733,1.1482036,0.9703843,0.6864134,0.5495978,1.1244614,1.6541545,0.6501431,0.6069714,1.498237,1.5668832,0.80058986,0.8684404,1.5012494,0.97402406,0.59779406,0.39787865,0.9644663,778.46155,796.1905,786.1172,936.4103,1069.7803,-0.15765380859375,0.01849365234375,0.99072265625,1.77947998046875,-1.07666015625,-0.814971923828125,1,2.0,4.0,4.0,2.0,50.00
2021-04-17 22:00:18.483,0.79562616,0.84296757,0.8459733,1.1482036,0.9703843,0.6864134,0.5495978,1.1244614,1.6541545,0.6501431,0.6069714,1.498237,1.5668832,0.80058986,0.8684404,1.5012494,0.97402406,0.59779406,0.39787865,0.9644663,777.25275,814.3223,823.9927,819.15753,757.50916,-0.2021484375,-0.01788330078125,0.97589111328125,2.04864501953125,-5.480499267578125,7.110443115234375,1,2.0,4.0,4.0,2.0,50.00
2021-04-17 22:00:18.994,0.79562616,0.84296757,0.8459733,1.1482036,0.9703843,0.6864134,0.5495978,1.1244614,1.6541545,0.6501431,0.6069714,1.498237,1.5668832,0.80058986,0.8684404,1.5012494,0.97402406,0.59779406,0.39787865,0.9644663,786.9231,791.3553,804.65204,926.7399,832.8571,-0.204833984375,0.011962890625,0.9727783203125,3.57391357421875,-5.8917236328125,15.80596923828125,1,2.0,4.0,4.0,2.0,50.00
2021-04-17 22:00:19.522,1.3953437,0.84296757,0.8459733,1.4323851,1.2204998,0.6864134,0.5495978,1.2034525,1.7227042,0.6501431,0.6069714,1.7336084,1.6581639,0.80058986,0.8684404,1.6619295,1.2151344,0.59779406,0.39787865,1.1621662,748.6447,781.28204,796.1905,673.69965,688.60803,-0.25592041015625,0.0535888671875,0.99176025390625,6.347808837890625,-2.1234130859375,7.783355712890625,1,1.0,1.0,1.0,1.0,50.00
2021-04-17 22:00:20.048,1.3953437,0.84296757,0.8459733,1.3591628,1.2204998,0.6864134,0.5495978,1.307746,1.7227042,0.6501431,0.6069714,1.8484054,1.6581639,0.80058986,0.8684404,1.6776687,1.2151344,0.59779406,0.39787865,1.1418973,806.6667,797.8022,802.6374,632.1978,687.3993,-0.2642822265625,0.00762939453125,0.97784423828125,-2.70660400390625,3.30474853515625,2.58697509765625,1,1.0,1.0,1.0,1.0,50.00
2021-04-17 22:00:20.552,1.3910074,0.84296757,0.8459733,1.3074538,1.2532879,0.6864134,0.5495978,1.40597,1.6309754,0.6501431,0.6069714,1.8105433,1.6506807,0.80058986,0.8684404,1.6809195,1.2102008,0.59779406,0.39787865,1.1432729,746.2271,809.0842,809.0842,892.0879,853.4066,-0.27203369140625,0.08306884765625,0.9586181640625,6.347808837890625,-0.91217041015625,3.940277099609375,1,1.0,1.0,1.0,1.0,50.00
2021-04-17 22:00:21.070,1.3910074,0.84296757,0.8459733,1.238088,1.2532879,0.6864134,0.5495978,1.4991508,1.6309754,0.6501431,0.6069714,1.8057979,1.6506807,0.80058986,0.8684404,1.7030529,1.2102008,0.59779406,0.39787865,1.1420465,821.978,839.707,824.7985,615.6777,736.55676,-0.2921142578125,0.0101318359375,0.950927734375,-2.01873779296875,-3.81317138671875,1.308441162109375,1,1.0,1.0,1.0,1.0,50.00
2021-04-17 22:00:21.577,1.3910074,0.84296757,0.8459733,1.3279457,1.2532879,0.6864134,0.5495978,1.6171321,1.6309754,0.6501431,0.6069714,1.7962162,1.6506807,0.80058986,0.8684404,1.7866853,1.2102008,0.59779406,0.39787865,1.221025,819.5604,780.4762,795.38464,679.7436,735.7509,-0.287841796875,0.0538330078125,0.9541015625,2.803802490234375,-0.6280517578125,0.64300537109375,1,1.0,4.0,4.0,1.0,50.00
2021-04-17 22:00:22.088,1.3910074,0.84296757,0.8459733,1.3279457,1.2532879,0.6864134,0.5495978,1.6171321,1.6309754,0.6501431,0.6069714,1.7962162,1.6506807,0.80058986,0.8684404,1.7866853,1.2102008,0.59779406,0.39787865,1.221025,780.07324,813.91943,809.0842,624.5421,720.84247,-0.2725830078125,0.01470947265625,0.953125,6.5496826171875,-6.14593505859375,-2.97576904296875,1,1.0,1.0,1.0,1.0,50.00
2021-04-17 22:00:22.593,1.3910074,0.84296757,0.8459733,1.3279457,1.2532879,0.6864134,0.5495978,1.6171321,1.6309754,0.6501431,0.6069714,1.7962162,1.6506807,0.80058986,0.8684404,1.7866853,1.2102008,0.59779406,0.39787865,1.221025,645.09155,692.6374,844.5421,787.326,867.50916,-0.27197265625,0.03118896484375,0.96484375,6.602020263671875,-7.476806640625,-0.35888671875,1,1.0,1.0,1.0,1.0,50.00
2021-04-17 22:00:23.102,1.3910074,0.84296757,0.8459733,1.3279457,1.2532879,0.6864134,0.5495978,1.6171321,1.6309754,0.6501431,0.6069714,1.7962162,1.6506807,0.80058986,0.8684404,1.7866853,1.2102008,0.59779406,0.39787865,1.221025,869.12085,869.12085,836.08057,679.7436,678.5348,-0.248046875,0.04962158203125,0.9732666015625,5.241241455078125,-4.47113037109375,1.114044189453125,1,2.0,1.0,1.0,2.0,50.00
2021-04-17 22:00:23.612,1.3910074,0.84296757,0.8459733,1.3279457,1.2532879,0.6864134,0.5495978,1.6171321,1.6309754,0.6501431,0.6069714,1.7962162,1.6506807,0.80058986,0.8684404,1.7866853,1.2102008,0.59779406,0.39787865,1.221025,835.6777,821.5751,792.1612,1037.9487,1129.414,-0.27703857421875,0.04034423828125,0.94964599609375,6.041259765625,-0.800018310546875,-0.396270751953125,1,2.0,1.0,1.0,2.0,50.00
2021-04-17 22:00:24.121,1.3910074,0.84296757,0.8459733,1.3279457,1.2532879,0.6864134,0.5495978,1.6171321,1.6309754,0.6501431,0.6069714,1.7962162,1.6506807,0.80058986,0.8684404,1.7866853,1.2102008,0.59779406,0.39787865,1.221025,783.2967,820.7692,825.6044,958.97437,864.68866,-0.29571533203125,0.05224609375,0.96466064453125,2.878570556640625,-2.998199462890625,0.418701171875,1,2.0,1.0,1.0,2.0,50.00
2021-04-17 22:00:24.635,1.3910074,0.84296757,0.8459733,1.3279457,1.2532879,0.6864134,0.5495978,1.6171321,1.6309754,0.6501431,0.6069714,1.7962162,1.6506807,0.80058986,0.8684404,1.7866853,1.2102008,0.59779406,0.39787865,1.221025,855.42126,807.47253,803.44324,660.80585,761.53845,-0.29913330078125,0.0098876953125,0.952392578125,0.964508056640625,-3.46923828125,-4.687957763671875,1,2.0,1.0,1.0,2.0,50.00
2021-04-17 22:00:25.140,1.3910074,0.84296757,1.2428418,1.3279457,1.2532879,0.6864134,1.0292432,1.6171321,1.6309754,0.6501431,0.91188395,1.7962162,1.6506807,0.80058986,0.52195203,1.7866853,1.2102008,0.59779406,0.47389612,1.221025,773.22345,820.7692,816.337,817.9487,962.6007,-0.3135986328125,4.8828125E-4,0.95574951171875,5.435638427734375,-5.345916748046875,0.538330078125,1,2.0,1.0,1.0,2.0,50.00
2021-04-17 22:00:25.650,1.3910074,0.84296757,1.0795722,1.3279457,1.2532879,0.6864134,0.88452643,1.6171321,1.6309754,0.6501431,0.91188395,1.7962162,1.6506807,0.80058986,0.44205233,1.7866853,1.2102008,0.59779406,0.5442752,1.221025,793.7729,812.71063,826.4103,998.46155,838.0952,-0.30462646484375,0.01092529296875,0.9549560546875,5.256195068359375,-4.9945068359375,2.0635986328125,1,2.0,1.0,1.0,2.0,50.00
2021-04-17 22:00:26.163,1.3910074,0.7878798,1.0296131,1.3279457,1.2532879,0.2841515,0.7245383,1.6171321,1.6309754,0.45207974,0.9146162,1.7962162,1.6506807,0.7524087,0.4749885,1.7866853,1.2102008,0.639856,0.49923846,1.221025,815.5311,811.50183,830.84247,770.80585,792.96704,-0.31768798828125,0.00933837890625,0.9544677734375,5.24871826171875,-4.53094482421875,0.538330078125,1,2.0,1.0,1.0,2.0,50.00
2021-04-17 22:00:26.678,1.3910074,0.6405485,0.72737026,1.3279457,1.2532879,0.27318063,0.3331234,1.6171321,1.6309754,0.5186072,0.611807,1.7962162,1.6506807,0.72888434,0.53438276,1.7866853,1.2102008,0.5754067,0.43654326,1.221025,844.5421,826.4103,823.5897,891.685,786.1172,-0.3260498046875,0.01123046875,0.94940185546875,4.0972900390625,-4.29168701171875,1.86920166015625,1,2.0,1.0,1.0,2.0,50.00
2021-04-17 22:00:27.190,1.3910074,0.5571367,0.5003339,1.3279457,1.2532879,0.31001464,-0.021761775,1.6171321,1.6309754,0.53773576,0.46926785,1.7962162,1.6506807,0.7146688,0.569174,1.7866853,1.2102008,0.5818702,0.39480132,1.221025,847.76556,799.011,805.4579,663.6264,745.42126,-0.30816650390625,0.01849365234375,0.9505615234375,4.777679443359375,-3.985137939453125,1.016845703125,1,2.0,1.0,1.0,2.0,50.00
2021-04-17 22:00:27.697,1.3910074,0.49682537,0.29658273,1.3279457,1.2532879,0.2575529,0.030841867,1.6171321,1.6309754,0.46961665,0.34959814,1.7962162,1.6506807,0.691467,0.5797144,1.7866853,1.2102008,0.49481604,0.36164856,1.221025,778.0586,807.0696,814.3223,960.989,871.13556,-0.30096435546875,0.01324462890625,0.95196533203125,3.15521240234375,-1.218719482421875,4.314117431640625,1,2.0,1.0,1.0,2.0,50.00
2021-04-17 22:00:28.218,0.5281667,0.5553954,0.29777852,0.5421636,0.20405453,0.25992805,0.1211208,-0.14976129,0.30824542,0.5134152,0.48373228,0.6112091,0.6038093,0.70782727,0.52967435,0.5468279,-0.024855476,0.42793798,0.34664482,0.30150986,768.3883,813.91943,834.0659,712.381,659.59705,-0.32318115234375,0.06707763671875,0.9005126953125,7.873077392578125,-2.549591064453125,3.058013916015625,1,2.0,1.0,1.0,2.0,50.00
2021-04-17 22:00:28.726,0.80551636,0.79565495,0.23761006,0.8925565,0.20756978,0.17308009,0.12558499,0.078014314,0.323033,0.5842504,0.5118618,0.6554523,0.5861112,0.7375204,0.545393,0.6058148,0.09764689,0.32341614,0.3337329,0.43026853,811.0989,835.6777,775.2381,640.2564,657.1795,-0.37457275390625,0.08795166015625,0.923583984375,12.27691650390625,-7.738494873046875,-35.06622314453125,1,1.0,1.0,1.0,1.0,50.00
2021-04-17 22:00:29.239,0.80551636,0.89535916,0.19767576,0.88616246,0.20756978,0.27402142,0.14473921,0.52995586,0.323033,0.5541313,0.47668272,0.88849944,0.5861112,0.763291,0.5212032,0.6430052,0.09764689,0.36306664,0.3574217,0.43090323,788.1319,798.20514,817.1429,807.0696,859.85345,-0.27508544921875,0.02459716796875,0.939208984375,14.49005126953125,-12.538604736328125,-22.50518798828125,1,1.0,1.0,1.0,1.0,50.00
2021-04-17 22:00:29.745,0.93184024,0.9408281,0.29586923,1.0496753,0.18082465,0.25217146,0.12546417,0.94463176,0.105995305,0.54174286,0.43228585,0.9007758,0.5734835,0.7653128,0.53608537,0.65229523,0.15902606,0.40001267,0.39169276,0.52567935,736.55676,805.05493,823.1868,734.1392,716.8132,-0.24627685546875,0.04144287109375,0.9788818359375,12.792816162109375,-11.880645751953125,-22.86407470703125,1,1.0,1.0,1.0,1.0,50.00
2021-04-17 22:00:30.275,1.4526559,0.99177533,0.29909888,1.1979865,0.9139379,0.21084666,-0.16675001,1.0753627,0.6906819,0.48118234,-0.004238129,0.9235491,0.51074964,0.76281667,0.5691473,0.6766585,0.16296157,0.44283694,0.3933387,0.48577657,736.9597,773.6264,780.4762,751.8681,858.6447,-0.24530029296875,0.0595703125,0.94952392578125,5.585174560546875,-5.90667724609375,-10.72174072265625,1,1.0,1.0,1.0,1.0,50.00
2021-04-17 22:00:30.783,1.2286892,0.99177533,0.29909888,1.1784132,0.6855855,0.21084666,-0.16675001,1.0494576,0.77073,0.48118234,-0.004238129,0.8916674,0.5203827,0.76281667,0.5691473,0.64997613,0.22973734,0.44283694,0.3933387,0.46362963,696.26373,813.1135,808.68134,689.011,718.022,-0.2227783203125,-0.0213623046875,0.953369140625,2.474822998046875,-17.9144287109375,-11.761016845703125,1,1.0,1.0,1.0,1.0,50.00
2021-04-17 22:00:31.313,0.99659216,0.20981543,0.037026297,0.972349,0.489191,0.007784833,0.10289398,0.60069466,0.8243818,0.4661559,0.50057423,0.98949593,0.65340376,0.7906614,0.6579905,0.76358896,0.3217205,0.4064634,0.17782138,0.38736975,826.0073,796.99634,814.3223,815.9341,755.4945,-0.07000732421875,-0.01416015625,0.9990234375,5.45806884765625,-15.791015625,-20.688323974609375,1,1.0,1.0,1.0,1.0,50.00
2021-04-17 22:00:31.822,1.0568653,0.4467321,0.5235031,0.80926985,0.93372226,0.226563,0.08282494,0.749666,1.107284,0.49499592,0.57886916,1.0732877,0.7274888,0.76357126,0.6167683,0.7524562,0.32949793,0.45326027,0.28100675,0.43380713,743.4066,774.43225,796.99634,755.89746,921.50183,0.10003662109375,0.04180908203125,1.0201416015625,6.706695556640625,-13.458251953125,-7.5665283203125,1,1.0,1.0,1.0,1.0,50.00
2021-04-17 22:00:32.335,1.1475177,0.509973,0.49008992,0.9175847,1.0343608,0.22659075,0.10300897,0.86953527,1.1045136,0.49497628,0.52829546,1.0732877,0.7682846,0.7639126,0.60192263,0.82874614,0.3358715,0.44201115,0.28602144,0.4862511,788.1319,825.6044,826.8132,794.57874,736.1539,0.09307861328125,0.0238037109375,1.0128173828125,6.422576904296875,-1.996307373046875,-2.16827392578125,1,1.0,1.0,1.0,1.0,50.00
2021-04-17 22:00:32.859,1.1699233,0.59472126,0.5618177,0.86541206,1.0496554,0.30308372,0.07777577,0.89007777,1.0740622,0.37698886,0.4946716,1.036897,0.70474434,0.69659364,0.5403843,0.77426904,0.24718599,0.47310126,0.34536597,0.4797301,727.6923,789.7436,792.5641,728.49817,843.3333,0.06329345703125,0.027587890625,0.99835205078125,5.076751708984375,-5.2337646484375,1.831817626953125,1,1.0,1.0,1.0,1.0,50.00
2021-04-17 22:00:33.384,0.789233,0.2166016,0.29018402,0.29300162,0.67186594,-0.15399402,0.06932127,0.49326804,0.90096873,0.10707239,0.35100368,0.6857895,0.61737394,0.63961875,0.5330241,0.7186149,0.18143341,0.30070814,0.25317338,0.45429227,782.0879,807.0696,819.15753,768.3883,785.31134,0.04901123046875,0.0286865234375,0.997802734375,4.83001708984375,-4.523468017578125,-1.74957275390625,1,1.0,1.0,1.0,1.0,50.00
2021-04-17 22:00:33.915,0.5399598,-0.24980724,0.36116064,0.29382053,0.5366984,-0.3372085,0.025416736,0.44924834,0.8310635,-0.13685922,0.24265002,0.6529991,0.6556926,0.6353512,0.5345686,0.67622983,0.25078908,0.1149321,0.22048582,0.44852188,909.41394,822.7839,844.5421,889.67035,819.5604,0.06292724609375,0.01800537109375,0.99462890625,4.119720458984375,-5.914154052734375,0.28411865234375,1,1.0,1.0,1.0,1.0,50.00
2021-04-17 22:00:34.421,0.31363863,-0.24980724,0.24838188,0.23362634,0.5372219,-0.3372085,-0.072020315,0.2655303,0.7415259,-0.13685922,0.12727863,0.3227049,0.7054759,0.6353512,0.5578228,0.5786392,0.29526922,0.1149321,0.0806087,0.4339129,896.9231,836.4835,846.55676,884.43225,888.86444,0.07733154296875,0.0509033203125,1.0101318359375,7.469329833984375,-5.689849853515625,5.405731201171875,1,1.0,1.0,1.0,1.0,50.00
2021-04-17 22:00:34.945,1.2621444,-0.24980724,0.1983922,0.23299049,0.8486407,-0.3372085,-0.11815744,0.22684588,0.91922647,-0.13685922,0.1041189,0.18830206,0.6761509,0.6353512,0.553907,0.56707335,0.4394373,0.1149321,0.09810382,0.45739874,687.8022,810.696,807.8755,695.4579,751.8681,0.055419921875,0.0584716796875,1.0076904296875,-0.299072265625,0.381317138671875,10.818939208984375,1,1.0,1.0,1.0,1.0,50.00
2021-04-17 22:00:35.476,1.3096092,-0.24980724,0.1983922,1.3156463,0.89371324,-0.3372085,-0.11815744,0.43988383,0.9179667,-0.13685922,0.1041189,0.7718114,0.65127754,0.6353512,0.553907,0.89052045,0.4406339,0.1149321,0.09810382,0.5810343,720.0366,805.4579,803.44324,716.4103,722.8571,-0.078369140625,-0.0198974609375,0.967041015625,0.9271240234375,0.43365478515625,16.620941162109375,1,1.0,1.0,1.0,1.0,50.00
2021-04-17 22:00:35.980,1.2777474,-0.24980724,0.3014661,1.3156463,0.8555735,-0.3372085,-0.5992686,0.43988383,0.9179667,-0.13685922,-0.13772856,0.7718114,0.66504824,0.6353512,0.5299182,0.89052045,0.4228686,0.1149321,-0.11880858,0.5810343,781.28204,803.0403,799.81683,779.67035,832.8571,-0.17083740234375,0.01177978515625,0.9986572265625,8.217010498046875,-1.1065673828125,42.1990966796875,1,1.0,1.0,1.0,1.0,50.00
2021-04-17 22:00:36.487,1.257863,-0.24980724,0.4997304,1.3156463,0.82077795,-0.3372085,-0.5355931,0.43988383,0.47911495,-0.13685922,-0.13104458,0.7718114,0.7188279,0.6353512,0.5160367,0.89052045,0.39865258,0.1149321,-0.11769092,0.5810343,850.18317,832.4542,827.2161,818.3516,780.4762,-0.2412109375,0.05975341796875,0.96826171875,-1.547698974609375,-1.547698974609375,31.59698486328125,1,1.0,1.0,1.0,1.0,50.00
2021-04-17 22:00:36.999,1.257863,-0.24980724,0.4997304,1.3156463,0.82077795,-0.3372085,-0.5355931,0.43988383,0.47911495,-0.13685922,-0.13104458,0.7718114,0.7188279,0.6353512,0.5160367,0.89052045,0.39865258,0.1149321,-0.11769092,0.5810343,790.54944,782.0879,791.75824,764.35895,743.8095,-0.19573974609375,-4.8828125E-4,0.9788818359375,-4.508514404296875,-4.23187255859375,20.3369140625,1,1.0,1.0,1.0,1.0,50.00
2021-04-17 22:00:37.519,1.257863,-0.24980724,0.56697935,1.3156463,0.82077795,-0.3372085,-0.54251623,0.43988383,0.47911495,-0.13685922,-0.33613968,0.7718114,0.7188279,0.6353512,0.51405156,0.89052045,0.39865258,0.1149321,-0.15125538,0.5810343,792.1612,781.685,806.26373,684.9817,637.03296,-0.24212646484375,0.020751953125,0.971923828125,-1.443023681640625,-5.0244140625,6.392669677734375,1,1.0,1.0,1.0,1.0,50.00
2021-04-17 22:00:38.037,1.257863,-0.24980724,0.56697935,1.3156463,0.82077795,-0.3372085,-0.54251623,0.43988383,0.47911495,-0.13685922,-0.33613968,0.7718114,0.7188279,0.6353512,0.51405156,0.89052045,0.39865258,0.1149321,-0.15125538,0.5810343,799.41394,801.4286,811.0989,870.32965,693.44324,-0.208740234375,0.039306640625,0.98541259765625,4.015045166015625,-2.91595458984375,14.856414794921875,1,2.0,1.0,1.0,2.0,50.00
2021-04-17 22:00:38.543,1.257863,-0.24980724,0.56697935,1.3156463,0.82077795,-0.3372085,-0.54251623,0.43988383,0.47911495,-0.13685922,-0.33613968,0.7718114,0.7188279,0.6353512,0.51405156,0.89052045,0.39865258,0.1149321,-0.15125538,0.5810343,884.0293,801.4286,844.94507,758.315,913.44324,-0.25946044921875,0.04302978515625,0.97088623046875,5.24871826171875,-2.40753173828125,11.903076171875,1,2.0,1.0,1.0,2.0,50.00
2021-04-17 22:00:39.056,1.257863,-0.24980724,0.56697935,1.3156463,0.82077795,-0.3372085,-0.54251623,0.43988383,0.47911495,-0.13685922,-0.33613968,0.7718114,0.7188279,0.6353512,0.51405156,0.89052045,0.39865258,0.1149321,-0.15125538,0.5810343,800.6227,790.14655,789.34064,679.34064,770.0,-0.31243896484375,0.08673095703125,0.974609375,3.072967529296875,5.286102294921875,3.48419189453125,1,2.0,1.0,1.0,2.0,50.00
2021-04-17 22:00:39.561,1.257863,-0.24980724,0.56697935,1.3156463,0.82077795,-0.3372085,-0.54251623,0.43988383,0.47911495,-0.13685922,-0.33613968,0.7718114,0.7188279,0.6353512,0.51405156,0.89052045,0.39865258,0.1149321,-0.15125538,0.5810343,745.0183,804.65204,801.02563,927.5458,944.4689,-0.3079833984375,0.082275390625,0.953857421875,12.6806640625,-11.5740966796875,-5.323486328125,1,2.0,1.0,1.0,2.0,50.00
2021-04-17 22:00:40.079,1.5581224,-0.24980724,0.56697935,1.3156463,1.4035337,-0.3372085,-0.54251623,0.43988383,1.5858448,-0.13685922,-0.33613968,0.7718114,0.6370237,0.6353512,0.51405156,0.89052045,0.24644639,0.1149321,-0.15125538,0.5810343,788.1319,809.89014,810.293,889.67035,875.16486,-0.28436279296875,-6.7138671875E-4,0.95733642578125,9.34600830078125,-0.949554443359375,-4.673004150390625,1,2.0,1.0,1.0,2.0,50.00
2021-04-17 22:00:40.602,1.3088312,-0.24980724,0.8413389,0.81779516,1.1560344,-0.3372085,0.35585046,0.72457653,1.5858448,-0.13685922,0.39216343,0.45581302,0.5927847,0.6353512,0.66474485,0.7189341,0.20061415,0.1149321,0.11795069,0.38649502,806.6667,820.3663,817.1429,614.0659,608.8278,-0.33050537109375,0.03826904296875,0.93701171875,6.3702392578125,-0.07476806640625,-1.4654541015625,1,1.0,1.0,1.0,1.0,50.00
2021-04-17 22:00:41.116,0.74466884,-0.24980724,0.8828614,0.90050274,0.5211424,-0.3372085,0.40007973,0.712674,0.18131074,-0.13685922,0.4619956,0.48935592,0.54704267,0.6353512,0.6618053,0.7092643,0.18233892,0.1149321,0.1380695,0.3993174,790.9524,789.34064,790.9524,693.0403,732.9304,-0.35003662109375,-0.013427734375,0.959716796875,7.97027587890625,-5.9814453125,1.652374267578125,1,1.0,1.0,1.0,1.0,50.00
2021-04-17 22:00:41.625,0.6602808,-0.24980724,0.9381922,0.9474129,0.5213923,-0.3372085,0.57694066,0.7616168,-0.15755145,-0.13685922,0.4619956,0.48935592,0.54352283,0.6353512,0.68092656,0.70751923,0.14936817,0.1149321,0.13332914,0.41116685,731.7216,796.5934,794.57874,909.41394,903.36993,-0.283935546875,-0.0205078125,0.90838623046875,-1.801910400390625,0.59814453125,-6.258087158203125,1,1.0,1.0,1.0,1.0,50.00
2021-04-17 22:00:42.133,0.6602808,-0.24980724,0.9602878,1.0010661,0.5213923,-0.3372085,0.6071929,0.75383663,-0.15755145,-0.13685922,0.45957896,0.48888043,0.54352283,0.6353512,0.6720217,0.70124155,0.14936817,0.1149321,0.13803273,0.40700343,801.02563,839.707,831.2454,861.4652,730.10986,-0.343505859375,0.04058837890625,0.94122314453125,-1.203765869140625,-16.807861328125,5.271148681640625,1,1.0,1.0,1.0,1.0,50.00
2021-04-17 22:00:42.645,0.6602808,-0.24980724,0.9602878,1.0010661,0.5213923,-0.3372085,0.6071929,0.75383663,-0.15755145,-0.13685922,0.45957896,0.48888043,0.54352283,0.6353512,0.6720217,0.70124155,0.14936817,0.1149321,0.13803273,0.40700343,781.685,795.78754,807.8755,811.9048,842.1245,-0.3331298828125,-0.0164794921875,0.9412841796875,3.043060302734375,-3.30474853515625,3.401947021484375,1,1.0,1.0,1.0,1.0,50.00
2021-04-17 22:00:43.159,0.6602808,-0.24980724,0.9602878,1.0010661,0.5213923,-0.3372085,0.6071929,0.75383663,-0.15755145,-0.13685922,0.45957896,0.48888043,0.54352283,0.6353512,0.6720217,0.70124155,0.14936817,0.1149321,0.13803273,0.40700343,769.19415,747.8388,749.45056,700.293,723.663,-0.330810546875,-0.00689697265625,0.94891357421875,5.016937255859375,-3.342132568359375,0.7177734375,1,1.0,1.0,1.0,1.0,50.00
2021-04-17 22:00:43.663,0.6602808,-0.24980724,0.9602878,1.0010661,0.5213923,-0.3372085,0.6071929,0.75383663,-0.15755145,-0.13685922,0.45957896,0.48888043,0.54352283,0.6353512,0.6720217,0.70124155,0.14936817,0.1149321,0.13803273,0.40700343,774.83514,842.9304,820.3663,947.6923,859.85345,-0.33770751953125,-0.00714111328125,0.944091796875,3.566436767578125,-3.551483154296875,-5.78704833984375,1,2.0,1.0,1.0,2.0,50.00
2021-04-17 22:00:44.191,0.6602808,-0.24980724,0.9602878,1.0010661,0.5213923,-0.3372085,0.6071929,0.75383663,-0.15755145,-0.13685922,0.45957896,0.48888043,0.54352283,0.6353512,0.6720217,0.70124155,0.14936817,0.1149321,0.13803273,0.40700343,744.21246,785.7143,784.5055,779.67035,736.1539,-0.3531494140625,-0.01568603515625,0.9447021484375,4.23187255859375,-6.452484130859375,0.59814453125,1,2.0,1.0,1.0,2.0,50.00
2021-04-17 22:00:44.696,0.6602808,-0.24980724,0.9602878,1.0010661,0.5213923,-0.3372085,0.6071929,0.75383663,-0.15755145,-0.13685922,0.45957896,0.48888043,0.54352283,0.6353512,0.6720217,0.70124155,0.14936817,0.1149321,0.13803273,0.40700343,827.619,803.8461,810.696,648.71796,658.7912,-0.2750244140625,0.01715087890625,0.9598388671875,-10.041351318359375,-0.575714111328125,-4.85992431640625,1,2.0,1.0,1.0,2.0,50.00
2021-04-17 22:00:45.207,0.6602808,-0.24980724,0.9602878,1.0010661,0.5213923,-0.3372085,0.6071929,0.75383663,-0.15755145,-0.13685922,0.45957896,0.48888043,0.54352283,0.6353512,0.6720217,0.70124155,0.14936817,0.1149321,0.13803273,0.40700343,770.0,791.75824,800.2198,723.663,774.83514,-0.3851318359375,0.001708984375,0.9285888671875,1.293487548828125,-13.779754638671875,9.3310546875,1,2.0,1.0,1.0,2.0,50.00
2021-04-17 22:00:45.718,0.6602808,-0.24980724,0.9602878,1.0010661,0.5213923,-0.3372085,0.6071929,0.75383663,-0.15755145,-0.13685922,0.45957896,0.48888043,0.54352283,0.6353512,0.6720217,0.70124155,0.14936817,0.1149321,0.13803273,0.40700343,729.304,784.10254,801.8315,920.293,911.02563,-0.345703125,-0.00457763671875,0.9461669921875,5.944061279296875,-12.538604736328125,8.321685791015625,1,2.0,4.0,4.0,2.0,50.00
2021-04-17 22:00:46.228,0.6602808,-0.24980724,0.9602878,1.0010661,0.5213923,-0.3372085,0.6071929,0.75383663,-0.15755145,-0.13685922,0.45957896,0.48888043,0.54352283,0.6353512,0.6720217,0.70124155,0.14936817,0.1149321,0.13803273,0.40700343,782.0879,775.2381,789.34064,618.9011,778.46155,-0.32806396484375,0.0103759765625,0.94488525390625,4.942169189453125,-2.3626708984375,-0.13458251953125,1,2.0,1.0,4.0,2.0,50.00
2021-04-17 22:00:46.736,0.6602808,-0.24980724,0.9602878,1.0010661,0.5213923,-0.3372085,0.6071929,0.75383663,-0.15755145,-0.13685922,0.45957896,0.48888043,0.54352283,0.6353512,0.6720217,0.70124155,0.14936817,0.1149321,0.13803273,0.40700343,741.79486,804.65204,809.89014,842.1245,786.52014,-0.344482421875,0.0020751953125,0.9351806640625,5.136566162109375,-4.134674072265625,-1.60003662109375,1,2.0,4.0,4.0,2.0,50.00
2021-04-17 22:00:47.245,1.7108992,-0.24980724,0.9602878,1.6329635,1.5749986,-0.3372085,0.6071929,1.5383867,1.7190964,-0.13685922,0.45957896,1.578075,1.2170182,0.6353512,0.6720217,1.2513096,0.45285884,0.1149321,0.13803273,0.6837811,732.9304,803.8461,804.2491,880.40295,760.7326,-0.34881591796875,0.021728515625,0.94830322265625,4.3365478515625,-2.19818115234375,2.392578125,1,1.0,4.0,1.0,1.0,50.00
2021-04-17 22:00:47.756,1.6533947,-0.24980724,0.9602878,1.5790535,1.6789068,-0.3372085,0.6071929,1.6542773,1.9300433,-0.13685922,0.45957896,1.8255363,1.2313267,0.6353512,0.6720217,1.2516499,0.48901695,0.1149321,0.13803273,0.689056,796.99634,806.6667,799.011,687.8022,630.18317,-0.3460693359375,-0.0137939453125,0.9359130859375,4.747772216796875,-4.897308349609375,0.545806884765625,1,1.0,1.0,1.0,1.0,50.00
2021-04-17 22:00:48.266,1.5380559,-0.24980724,0.9602878,1.5424886,1.7242155,-0.3372085,0.6071929,1.6651776,1.8701596,-0.13685922,0.45957896,1.8176553,1.1526891,0.6353512,0.6720217,1.2119367,0.44770744,0.1149321,0.13803273,0.7081317,811.50183,782.49084,782.49084,656.3736,735.7509,-0.34539794921875,-0.01446533203125,0.9388427734375,3.96270751953125,-5.525360107421875,-1.6748046875,1,1.0,4.0,4.0,1.0,50.00
2021-04-17 22:00:48.777,1.4201614,-0.24980724,0.9602878,1.4703062,1.8196503,-0.3372085,0.6071929,1.7559887,1.8367405,-0.13685922,0.45957896,1.77076,1.1684302,0.6353512,0.6720217,1.1622754,0.5261456,0.1149321,0.13803273,0.7322424,749.45056,807.8755,818.7546,874.35895,831.6484,-0.3350830078125,-0.00958251953125,0.94207763671875,5.09918212890625,-5.0543212890625,2.026214599609375,1,1.0,1.0,4.0,1.0,50.00
2021-04-17 22:00:49.285,1.6032375,-0.24980724,0.9602878,1.4703062,1.6309178,-0.3372085,0.6071929,1.7559887,1.2091231,-0.13685922,0.45957896,1.77076,0.8265705,0.6353512,0.6720217,1.1622754,0.23576511,0.1149321,0.13803273,0.7322424,748.6447,817.9487,826.0073,882.8205,772.8205,-0.337890625,-1.8310546875E-4,0.94464111328125,5.465545654296875,-5.674896240234375,1.951446533203125,1,1.0,1.0,1.0,1.0,50.00
2021-04-17 22:00:49.799,1.401887,-0.24980724,0.9602878,1.4235365,1.5057464,-0.3372085,0.6071929,1.4703311,1.2958727,-0.13685922,0.45957896,1.1908576,0.83434206,0.6353512,0.6720217,0.92708516,0.2664632,0.1149321,0.13803273,0.40652403,851.39197,817.1429,823.5897,722.8571,726.08057,-0.32379150390625,0.00396728515625,0.94757080078125,4.8748779296875,-4.583282470703125,0.590667724609375,1,1.0,1.0,1.0,1.0,50.00
2021-04-17 22:00:50.311,1.5011497,-0.24980724,0.9602878,1.4953295,1.3766853,-0.3372085,0.6071929,1.353843,1.3371495,-0.13685922,0.45957896,1.2199901,0.80017024,0.6353512,0.6720217,0.88370544,0.23278601,0.1149321,0.13803273,0.37115267,781.685,826.4103,844.94507,962.6007,877.1795,-0.33355712890625,0.00872802734375,0.95172119140625,5.316009521484375,-3.96270751953125,0.8074951171875,1,1.0,1.0,1.0,1.0,50.00
2021-04-17 22:00:50.815,1.4524888,-0.24980724,0.9602878,1.4069513,1.2102926,-0.3372085,0.6071929,1.2185727,1.1351991,-0.13685922,0.45957896,1.0245008,0.78914374,0.6353512,0.6720217,0.86038214,0.23158862,0.1149321,0.13803273,0.36659223,782.0879,804.2491,817.5458,789.34064,774.83514,-0.33087158203125,0.0069580078125,0.94281005859375,5.689849853515625,-4.59075927734375,2.220611572265625,1,1.0,1.0,1.0,1.0,50.00
2021-04-17 22:00:51.325,1.6164433,-0.24980724,0.9602878,1.5867089,1.4922262,-0.3372085,0.6071929,1.4480134,1.7486503,-0.13685922,0.45957896,1.7213973,0.9712466,0.6353512,0.6720217,0.917362,0.31845453,0.1149321,0.13803273,0.41313687,839.304,786.52014,794.17584,655.56775,797.8022,-0.3262939453125,0.0096435546875,0.94818115234375,4.85992431640625,-4.62066650390625,1.248626708984375,1,1.0,1.0,1.0,1.0,50.00
2021-04-17 22:00:51.838,1.4097519,-0.24980724,0.9602878,1.3109071,1.608496,-0.3372085,0.6071929,1.5755038,1.7659495,-0.13685922,0.45957896,1.7877002,0.989234,0.6353512,0.6720217,0.9996844,0.2913083,0.1149321,0.13803273,0.4312656,759.92676,811.9048,811.9048,745.82416,903.36993,-0.32470703125,0.00994873046875,0.95550537109375,4.598236083984375,-5.54779052734375,0.725250244140625,1,1.0,1.0,1.0,1.0,50.00
2021-04-17 22:00:52.346,1.3285135,-0.24980724,0.9602878,1.2500637,1.5016445,-0.3372085,0.6071929,1.5285527,1.7659495,-0.13685922,0.45957896,1.7877002,0.9199515,0.6353512,0.6720217,0.975881,0.23197526,0.1149321,0.13803273,0.40884292,739.3773,803.44324,814.7253,920.696,840.9158,-0.328125,0.005126953125,0.95074462890625,4.837493896484375,-4.17205810546875,1.24114990234375,1,1.0,1.0,1.0,1.0,50.00
2021-04-17 22:00:52.858,1.0019189,-0.24980724,0.9602878,0.7485268,1.2640067,-0.3372085,0.6071929,1.3189775,1.7159861,-0.13685922,0.45957896,1.7648721,0.7142597,0.6353512,0.6720217,0.9129246,0.034659844,0.1149321,0.13803273,0.32489,837.28937,788.93774,805.05493,832.4542,1164.8718,-0.3062744140625,-0.0538330078125,0.92327880859375,-4.486083984375,-3.386993408203125,3.536529541015625,1,1.0,1.0,1.0,1.0,50.00
2021-04-17 22:00:53.390,0.8292315,-0.24980724,0.9602878,0.44900614,0.36189806,-0.3372085,0.6071929,0.5677524,0.9605712,-0.13685922,0.45957896,1.1666028,0.5693209,0.6353512,0.6720217,0.7934247,-0.06310807,0.1149321,0.13803273,0.22651468,771.6117,841.7216,852.1978,877.5824,754.2857,-0.3232421875,0.0224609375,0.96429443359375,9.353485107421875,-11.252593994140625,12.882537841796875,1,1.0,1.0,1.0,1.0,50.00
2021-04-17 22:00:53.894,0.8292315,-0.24980724,0.9602878,0.44900614,0.36189806,-0.3372085,0.6071929,0.5677524,0.9605712,-0.13685922,0.45957896,1.1666028,0.5693209,0.6353512,0.6720217,0.7934247,-0.06310807,0.1149321,0.13803273,0.22651468,782.49084,806.6667,823.1868,790.9524,800.6227,-0.31976318359375,-0.01434326171875,0.9544677734375,6.1907958984375,-5.211334228515625,-4.97955322265625,1,1.0,1.0,1.0,1.0,50.00
2021-04-17 22:00:54.410,1.5444834,-0.24980724,0.9602878,0.44900614,1.4861747,-0.3372085,0.6071929,0.5677524,1.4778458,-0.13685922,0.45957896,1.1666028,1.3346117,0.6353512,0.6720217,0.7934247,0.4356629,0.1149321,0.13803273,0.22651468,819.9634,811.0989,808.68134,689.41394,700.696,-0.30914306640625,-0.01568603515625,0.9552001953125,5.016937255859375,-7.49176025390625,0.059814453125,1,1.0,4.0,1.0,1.0,50.00
2021-04-17 22:00:54.914,1.6286788,-0.24980724,0.9602878,1.6233737,1.5435175,-0.3372085,0.6071929,1.5842708,1.6009182,-0.13685922,0.45957896,1.5061029,1.2719462,0.6353512,0.6720217,1.2636422,0.38983047,0.1149321,0.13803273,0.4980842,875.9707,866.30035,880.0,823.9927,632.6007,-0.2987060546875,-0.00286865234375,0.95355224609375,5.75714111328125,-4.844970703125,3.910369873046875,1,1.0,1.0,1.0,1.0,50.00
2021-04-17 22:00:55.434,1.7032086,-0.24980724,0.9602878,1.7867241,1.6206261,-0.3372085,0.6071929,1.6061333,1.699624,-0.13685922,0.45957896,1.6349363,1.1952182,0.6353512,0.6720217,1.2733961,0.35891443,0.1149321,0.13803273,0.52353823,785.7143,820.7692,834.87177,912.6374,942.0513,-0.31103515625,0.00128173828125,0.955810546875,5.944061279296875,-3.581390380859375,0.859832763671875,1,1.0,1.0,1.0,1.0,50.00
2021-04-17 22:00:55.940,1.7112178,-0.24980724,0.9602878,1.8598326,1.5516032,-0.3372085,0.6071929,1.6255007,1.6857007,-0.13685922,0.45957896,1.6349363,1.0580268,0.6353512,0.6720217,1.275581,0.30844688,0.1149321,0.13803273,0.49632648,747.03296,790.54944,802.23444,797.8022,838.49817,-0.30889892578125,-1.8310546875E-4,0.94940185546875,3.94775390625,-4.44122314453125,-0.485992431640625,1,1.0,1.0,1.0,1.0,50.00
2021-04-17 22:00:56.445,1.6856129,-0.24980724,0.9602878,1.9101089,1.5528046,-0.3372085,0.6071929,1.6430334,1.6857007,-0.13685922,0.45957896,1.6349363,0.9985667,0.6353512,0.6720217,1.2337229,0.33609948,0.1149321,0.13803273,0.5142565,798.20514,776.4469,799.41394,722.0513,641.4652,-0.31451416015625,-0.00115966796875,0.95208740234375,4.5159912109375,-4.47113037109375,0.485992431640625,1,1.0,1.0,1.0,1.0,50.00
2021-04-17 22:00:56.946,1.4467248,-0.24980724,0.9602878,1.8922911,1.4106722,-0.3372085,0.6071929,1.5538282,1.6323652,-0.13685922,0.45957896,1.6272469,0.92665845,0.6353512,0.6720217,1.2313343,0.37904528,0.1149321,0.13803273,0.5487713,933.1868,860.2564,861.4652,776.4469,1011.75824,-0.317138671875,0.00433349609375,0.95147705078125,5.09918212890625,-4.777679443359375,1.428070068359375,1,1.0,1.0,1.0,1.0,50.00
2021-04-17 22:00:57.447,1.0645832,-0.24980724,0.9602878,1.8922911,1.4217774,-0.3372085,0.6071929,1.5538282,1.1581163,-0.13685922,0.45957896,1.6272469,0.7847528,0.6353512,0.6720217,1.2313343,0.40885496,0.1149321,0.13803273,0.5487713,738.1685,801.8315,805.8608,805.4579,759.92676,-0.31219482421875,-0.00189208984375,0.9508056640625,4.59075927734375,-3.715972900390625,0.471038818359375,1,1.0,1.0,1.0,1.0,50.00
2021-04-17 22:00:57.967,1.0645832,-0.24980724,0.9602878,1.8922911,1.4217774,-0.3372085,0.6071929,1.5538282,1.1581163,-0.13685922,0.45957896,1.6272469,0.7847528,0.6353512,0.6720217,1.2313343,0.40885496,0.1149321,0.13803273,0.5487713,799.41394,805.05493,828.8278,950.9158,877.1795,-0.321533203125,-1.8310546875E-4,0.94976806640625,5.09918212890625,-4.486083984375,1.435546875,1,1.0,1.0,1.0,1.0,50.00
2021-04-17 22:00:58.476,1.0645832,-0.24980724,0.9602878,1.8922911,1.4217774,-0.3372085,0.6071929,1.5538282,1.1581163,-0.13685922,0.45957896,1.6272469,0.7847528,0.6353512,0.6720217,1.2313343,0.40885496,0.1149321,0.13803273,0.5487713,818.7546,814.7253,822.7839,715.6044,729.707,-0.31805419921875,-1.8310546875E-4,0.9500732421875,5.0543212890625,-5.061798095703125,1.502838134765625,1,1.0,1.0,1.0,1.0,50.00
2021-04-17 22:00:58.999,1.0645832,-0.24980724,0.9602878,1.8922911,1.4217774,-0.3372085,0.6071929,1.5538282,1.1581163,-0.13685922,0.45957896,1.6272469,0.7847528,0.6353512,0.6720217,1.2313343,0.40885496,0.1149321,0.13803273,0.5487713,671.28204,802.6374,814.3223,842.1245,794.9817,-0.32086181640625,0.00665283203125,0.95281982421875,4.029998779296875,-4.9945068359375,1.263580322265625,1,2.0,1.0,1.0,2.0,50.00
2021-04-17 22:00:59.509,1.0645832,-0.24980724,0.9602878,1.8922911,1.4217774,-0.3372085,0.6071929,1.5538282,1.1581163,-0.13685922,0.45957896,1.6272469,0.7847528,0.6353512,0.6720217,1.2313343,0.40885496,0.1149321,0.13803273,0.5487713,768.7912,776.04395,799.011,818.3516,797.3993,-0.3212890625,0.006591796875,0.94873046875,4.844970703125,-4.418792724609375,1.71966552734375,1,2.0,1.0,1.0,2.0,50.00
2021-04-17 22:01:00.031,1.0645832,-0.24980724,0.9602878,1.8922911,1.4217774,-0.3372085,0.6071929,1.5538282,1.1581163,-0.13685922,0.45957896,1.6272469,0.7847528,0.6353512,0.6720217,1.2313343,0.40885496,0.1149321,0.13803273,0.5487713,762.74725,811.50183,815.9341,885.64105,786.1172,-0.31207275390625,0.01385498046875,0.951416015625,4.65057373046875,-5.06927490234375,1.158905029296875,1,2.0,1.0,1.0,2.0,50.00
2021-04-17 22:01:00.564,1.0645832,-0.24980724,0.9602878,1.8922911,1.4217774,-0.3372085,0.6071929,1.5538282,1.1581163,-0.13685922,0.45957896,1.6272469,0.7847528,0.6353512,0.6720217,1.2313343,0.40885496,0.1149321,0.13803273,0.5487713,816.7399,811.0989,819.15753,685.38464,596.337,-0.30718994140625,0.0064697265625,0.9517822265625,4.523468017578125,-4.209442138671875,0.186920166015625,1,2.0,1.0,1.0,2.0,50.00
2021-04-17 22:01:01.089,0.00731289,0.44733998,0.75864047,1.8922911,-0.32620847,0.22401032,0.44704378,1.5538282,0.19486277,-0.33506897,0.3550528,1.6272469,0.43438083,0.6085635,0.34296,1.2313343,0.033066567,0.13504238,0.039451253,0.5487713,812.71063,808.68134,805.4579,698.2784,757.9121,-0.31396484375,0.01287841796875,0.95184326171875,4.583282470703125,-4.957122802734375,1.502838134765625,1,1.0,1.0,1.0,1.0,50.00
2021-04-17 22:01:01.592,0.16574572,0.3441316,0.6122724,0.48628655,0.14685448,0.25054473,0.3809627,0.33242473,0.3070472,-0.01627147,0.371108,0.31967315,0.48701927,0.5299374,0.4229653,0.73814356,-0.08366378,0.05994957,-0.074203335,0.270955,740.58606,815.12823,821.5751,873.1502,768.3883,-0.31451416015625,0.00567626953125,0.94952392578125,4.3365478515625,-5.42816162109375,0.8074951171875,1,1.0,1.0,1.0,1.0,50.00
2021-04-17 22:01:02.107,0.46112457,0.3428973,0.70413727,0.5682709,0.08130266,0.14595059,0.28789887,0.2174104,0.70640033,0.07414347,0.371108,0.38511744,0.50881535,0.51172626,0.4494669,0.7241107,-0.059051678,0.1115702,-0.01055687,0.2546355,784.90845,796.99634,811.50183,866.30035,797.3993,-0.30853271484375,0.0054931640625,0.95343017578125,5.323486328125,-4.29168701171875,1.4056396484375,1,1.0,1.0,1.0,1.0,50.00
2021-04-17 22:01:02.612,0.75172937,0.43592173,0.70033675,0.5897294,0.1216325,0.11512517,0.16852514,0.1118301,0.75451934,0.26497766,0.10089045,0.08427818,0.5347803,0.42526352,0.49042818,0.7281057,-0.070016675,0.15388706,-0.016505243,0.19493276,831.6484,786.1172,797.8022,686.1905,756.30035,-0.3060302734375,0.00628662109375,0.9576416015625,4.089813232421875,-5.031890869140625,0.58319091796875,1,1.0,1.0,1.0,1.0,50.00
2021-04-17 22:01:03.123,0.89769727,0.6980734,0.85434335,0.6270091,0.15484565,0.41974598,0.012118919,0.040298328,0.7701127,0.671576,0.0039068228,0.06568459,0.520157,0.37629125,0.49036855,0.71857935,0.22303782,0.2606944,0.10470673,0.20042007,777.6557,795.78754,806.26373,692.6374,711.5751,-0.30963134765625,0.006103515625,0.9539794921875,4.8150634765625,-5.24871826171875,1.173858642578125,1,1.0,1.0,1.0,1.0,50.00
2021-04-17 22:01:03.632,0.8158254,0.73192626,0.43497238,0.01905996,0.1765048,0.41176003,0.1432875,0.45558867,0.76759183,0.67584807,0.27330142,0.44840696,0.4769489,0.34774095,0.42675722,0.66027325,0.3463914,0.31512648,0.23382631,0.64511037,734.1392,768.3883,838.9011,940.4396,951.31866,-0.29498291015625,0.00555419921875,0.9564208984375,4.687957763671875,-5.00946044921875,1.5252685546875,1,1.0,1.0,1.0,1.0,50.00
2021-04-17 22:01:04.154,0.6598881,0.7597601,0.34606838,0.01905996,0.38792047,0.43675822,0.11783096,0.45558867,1.0036036,0.67896426,0.2458535,0.44840696,0.5074984,0.37933362,0.41356668,0.66027325,0.40994883,0.35092345,0.23424266,0.64511037,794.17584,815.9341,825.6044,828.022,780.4762,-0.29266357421875,0.0142822265625,0.96533203125,4.418792724609375,-5.704803466796875,0.657958984375,1,1.0,1.0,1.0,1.0,50.00
2021-04-17 22:01:04.666,0.65719944,0.6607982,0.4946932,0.5265412,0.45328182,-0.4092191,0.13481358,0.3732051,1.0108526,0.38274884,0.5275054,0.8710745,0.5732021,0.45696574,0.3318967,0.6005771,0.262886,0.39196768,0.17832807,0.46535197,846.9597,827.2161,805.05493,663.22345,575.78754,-0.29022216796875,0.0072021484375,0.95770263671875,4.486083984375,-4.882354736328125,1.054229736328125,1,1.0,1.0,1.0,1.0,50.00
2021-04-17 22:01:05.182,0.87924093,0.7189922,0.8890677,0.90963846,0.62281084,-0.46334457,0.75035876,0.51318794,1.0170169,0.2928921,0.7739838,0.87291646,0.6299948,0.48390138,0.39155105,0.7285981,0.17367904,0.4236112,0.06607696,0.3655464,779.2674,781.685,805.4579,938.8278,1010.14655,-0.29364013671875,0.00738525390625,0.95654296875,5.091705322265625,-3.72344970703125,1.293487548828125,1,1.0,1.0,1.0,1.0,50.00
2021-04-17 22:01:05.685,0.8717243,0.7189922,0.93219835,0.94319886,0.6309038,-0.46334457,0.7578854,0.5654469,0.9840637,0.2928921,0.8122972,0.9004108,0.6005727,0.48390138,0.45066223,0.7422457,0.18418176,0.4236112,-0.032799546,0.3652203,812.3077,799.81683,807.8755,732.9304,842.1245,-0.299560546875,0.00592041015625,0.95294189453125,4.14215087890625,-4.658050537109375,1.31591796875,1,1.0,1.0,1.0,1.0,50.00
2021-04-17 22:01:06.196,0.91756505,1.0529667,0.9770273,0.99561566,0.68635076,0.761048,0.7568836,0.7713144,0.92847997,0.68168867,0.8741292,0.8930971,0.561395,0.60323507,0.4649944,0.8094678,0.24211971,0.042139288,-0.041041195,0.3870279,808.68134,812.71063,808.2784,670.87915,686.5934,-0.30010986328125,0.009521484375,0.95794677734375,4.643096923828125,-5.390777587890625,1.398162841796875,1,1.0,1.0,1.0,1.0,50.00
2021-04-17 22:01:06.706,0.7471704,0.8051997,0.86352885,0.78645074,0.63581777,0.66384387,0.5689974,0.72255397,0.9389669,0.57624143,0.6944632,0.9279692,0.51491195,0.5196604,0.40871838,0.77413493,0.24344072,0.040187363,-0.009761596,0.37334505,743.00366,800.6227,800.2198,862.27106,842.9304,-0.2950439453125,0.00323486328125,0.95751953125,4.5758056640625,-4.3963623046875,0.3289794921875,1,1.0,1.0,1.0,1.0,50.00
2021-04-17 22:01:07.218,0.5541689,0.605324,0.6501433,0.59510076,0.46876654,0.35400137,0.3632756,0.57876676,0.93805456,0.4182282,0.651474,0.9179993,0.43779704,0.4043997,0.3176952,0.6924207,0.18739884,-0.068169795,-0.015653064,0.31950098,773.22345,822.7839,830.0366,899.7436,866.7033,-0.2882080078125,0.00152587890625,0.95599365234375,4.673004150390625,-6.347808837890625,0.964508056640625,1,1.0,1.0,1.0,1.0,50.00
2021-04-17 22:01:07.722,0.16518201,0.4652501,0.38013476,0.35801953,0.09230851,0.13290296,0.032997612,0.17065299,0.6560163,0.43261522,0.26704836,0.65468276,0.37431785,0.41325298,0.28725886,0.61748356,0.1324602,-0.13019069,-0.016872646,0.28939062,838.9011,797.3993,828.022,727.28937,626.9597,-0.28985595703125,0.008544921875,0.962646484375,5.226287841796875,-4.18701171875,2.325286865234375,1,1.0,1.0,1.0,1.0,50.00
2021-04-17 22:01:08.226,0.36210296,0.4160246,0.5162864,0.44452664,0.28901643,0.072142735,0.08980479,0.40084153,0.65982336,0.4384291,0.23244575,0.72415864,0.3215279,0.4659258,0.35112476,0.55829704,0.13620542,0.05910112,-0.018965742,0.34333456,816.7399,787.72894,800.6227,709.5604,782.0879,-0.27667236328125,0.0074462890625,0.96160888671875,4.78515625,-4.762725830078125,1.74957275390625,1,1.0,1.0,1.0,1.0,50.00
2021-04-17 22:01:08.739,0.5140604,0.3457411,0.58498484,0.43186122,0.33743143,0.18847865,0.16600317,0.4471523,0.6354351,0.48466104,0.34179416,0.7462027,0.30045626,0.47316504,0.38796848,0.57311153,0.18376513,0.11590398,-0.0136976605,0.37880355,740.18317,815.12823,829.6337,894.5055,797.3993,-0.2784423828125,0.00872802734375,0.95953369140625,4.11224365234375,-4.85992431640625,0.79254150390625,1,1.0,1.0,1.0,1.0,50.00
2021-04-17 22:01:09.263,0.5929477,0.39494568,0.50436354,0.4550785,0.38484627,0.2034393,0.1417411,0.5115419,0.7463837,0.35860634,0.3158598,0.8367291,0.32556605,0.46925232,0.4325427,0.57486033,0.1449284,0.12906693,-0.0077427863,0.36361432,780.4762,801.8315,809.89014,850.58606,843.73627,-0.287841796875,0.00408935546875,0.96282958984375,4.127197265625,-3.45428466796875,0.710296630859375,1,1.0,1.0,1.0,1.0,50.00
2021-04-17 22:01:09.773,0.6070555,0.34733868,0.6557626,0.40947288,0.31431344,0.25371668,0.24436201,0.44348606,0.7647786,0.24061601,0.5014907,0.84347713,0.32679614,0.42526677,0.46693602,0.58575624,0.14875108,0.01651793,-0.048620507,0.2947197,773.22345,801.4286,805.8608,791.3553,900.54944,-0.2921142578125,-1.220703125E-4,0.96014404296875,4.822540283203125,-3.39447021484375,0.710296630859375,1,1.0,1.0,1.0,1.0,50.00
2021-04-17 22:01:10.282,0.54860574,0.43600145,0.55488706,0.33766192,0.33083826,0.26430458,0.21245661,0.4011142,0.78868204,0.119881205,0.4285436,0.7632932,0.39759916,0.45898077,0.47987664,0.6237957,0.07400225,-0.08389285,-0.009803411,0.2498168,751.06226,803.44324,823.1868,906.99634,827.2161,-0.29449462890625,0.0057373046875,0.9541015625,4.0972900390625,-5.061798095703125,0.755157470703125,1,1.0,1.0,1.0,1.0,50.00
2021-04-17 22:01:10.783,0.6806411,0.77213085,0.6951345,0.52779007,0.34489158,0.29567286,0.30007443,0.29150575,0.5460932,0.38733137,0.38127032,0.7814622,0.4468792,0.47719574,0.4818366,0.71015024,0.10947094,0.0963151,0.006369187,0.32832468,751.8681,804.65204,821.1722,930.3663,844.5421,-0.300537109375,0.0115966796875,0.95751953125,5.42816162109375,-4.88983154296875,1.667327880859375,1,1.0,1.0,1.0,1.0,50.00
2021-04-17 22:01:11.301,0.6279994,0.6744022,0.44527537,0.5211484,0.34757203,0.16945429,0.13406631,0.22168766,0.5239077,0.35828373,0.2958878,0.823465,0.51758116,0.39279404,0.41529953,0.74282235,0.11211464,0.34065887,0.06604333,0.41933236,822.7839,793.7729,795.78754,658.3883,666.04395,-0.29833984375,0.0111083984375,0.9573974609375,4.942169189453125,-4.62066650390625,1.383209228515625,1,1.0,1.0,1.0,1.0,50.00
2021-04-17 22:01:11.805,0.64984024,0.6354321,0.5227849,0.59771806,0.34225363,0.1688195,0.086645015,0.15973757,0.5210545,0.3626954,0.3739208,0.7755591,0.505351,0.42082715,0.35937387,0.72838914,0.17082147,0.34730244,0.19705527,0.48239446,848.1685,796.99634,803.44324,669.67035,717.2161,-0.3026123046875,0.00262451171875,0.95025634765625,2.923431396484375,-4.2767333984375,3.36456298828125,1,1.0,1.0,1.0,1.0,50.00
2021-04-17 22:01:12.316,0.6164879,0.51771086,0.46314964,0.63048106,0.34903258,0.18093713,-0.06875635,0.2667504,0.46406907,0.13904639,0.41630632,0.746042,0.41207534,0.37515336,0.22625257,0.6412095,0.222778,0.34213534,0.228823,0.5151628,770.0,807.47253,821.978,906.1905,805.4579,-0.31439208984375,0.02789306640625,0.9617919921875,4.344024658203125,-3.925323486328125,12.583465576171875,1,1.0,1.0,1.0,1.0,50.00
2021-04-17 22:01:12.822,0.8381081,0.59885865,0.71418965,0.78290004,0.23695077,0.20626327,-0.115766786,0.2772922,0.57617927,0.29191247,0.41260585,0.53891766,0.3593764,0.38841394,0.17334326,0.6497563,0.20827737,0.3025747,0.20355825,0.44460136,813.5165,798.60803,803.44324,709.5604,691.8315,-0.32672119140625,0.05340576171875,0.9677734375,2.729034423828125,4.0374755859375,8.8226318359375,1,1.0,1.0,1.0,1.0,50.00
2021-04-17 22:01:13.343,0.9776563,0.71826047,0.78910065,0.8487268,0.27185076,0.2999255,0.20698632,0.31942034,0.8070593,0.5323776,0.36385518,0.58148354,0.37755316,0.3726915,0.22458585,0.6546372,0.1782117,0.24861267,0.04943094,0.31074333,817.1429,790.14655,794.57874,688.20514,736.1539,-0.33648681640625,-0.01568603515625,0.9342041015625,7.58148193359375,0.9869384765625,-0.381317138671875,1,1.0,1.0,1.0,1.0,50.00
2021-04-17 22:01:13.870,0.9414368,0.7380915,0.7240838,0.85209984,0.37096155,0.3423034,0.3068463,0.3111383,0.8596825,0.6089242,0.41160974,0.61515236,0.40966338,0.44493574,0.33814898,0.6930621,0.14135438,0.12567234,-0.014077641,0.090953685,741.79486,777.6557,808.2784,873.95605,923.91943,-0.294189453125,0.06890869140625,0.95770263671875,5.286102294921875,-15.731201171875,-1.009368896484375,1,1.0,1.0,1.0,1.0,50.00
2021-04-17 22:01:14.381,0.9116982,0.6978506,0.39545432,0.852378,0.41690242,0.3874446,0.25462988,0.36458772,0.8297521,0.57534534,0.41160974,0.6119619,0.4092435,0.49187586,0.4293159,0.6274541,0.14076845,0.052551053,0.0632106,-0.027256893,765.16486,817.5458,827.2161,853.4066,712.7839,-0.27740478515625,0.04620361328125,0.96087646484375,6.362762451171875,-4.3963623046875,-1.1065673828125,1,1.0,1.0,1.0,1.0,50.00
2021-04-17 22:01:14.889,0.690376,0.52538913,0.22502665,0.7265158,0.35456842,0.36540407,0.077826984,0.43925297,0.79966635,0.5643411,0.39817622,0.7189585,0.51359516,0.53604245,0.4480365,0.6378707,0.1603364,-0.06657585,0.13950503,0.3101318,838.0952,799.41394,791.3553,689.81683,693.0403,-0.28436279296875,0.04620361328125,0.95867919921875,4.91973876953125,-6.826324462890625,-6.62445068359375,1,1.0,1.0,1.0,1.0,50.00
2021-04-17 22:01:15.391,0.7215241,0.54948854,0.4050445,0.75148994,0.46306258,0.6474369,-0.052177213,0.8034756,0.42675737,0.5277012,0.21003236,0.6770123,0.5937197,0.42818677,0.46068436,0.60366094,0.119208835,0.09000576,0.17970693,0.39717156,763.95605,803.0403,817.1429,931.1722,889.2674,-0.28118896484375,0.03985595703125,0.95849609375,5.81695556640625,-4.3365478515625,0.657958984375,1,1.0,1.0,1.0,1.0,50.00
2021-04-17 22:01:15.899,0.69113034,0.6109971,0.6278174,0.7506421,0.5375332,0.607335,0.08491281,0.769368,0.5309571,0.5032188,0.15552405,0.7519276,0.5548879,0.122935385,0.43681964,0.63539284,0.16422151,0.10507724,0.1360482,0.4510277,741.79486,793.7729,825.2015,910.6227,774.43225,-0.3304443359375,0.0362548828125,0.94561767578125,4.029998779296875,-3.701019287109375,1.77947998046875,1,1.0,1.0,1.0,1.0,50.00
2021-04-17 22:01:16.408,0.59962445,0.5605529,0.73840857,0.78561825,0.5555535,0.53241414,-0.040036663,0.8310998,0.45963812,0.5032188,0.14343429,0.7152032,0.486543,0.15364432,0.2599623,0.6468511,0.25367737,0.12314708,0.00703314,0.49046373,817.1429,774.83514,771.6117,644.68866,668.0586,-0.307861328125,0.04364013671875,0.9483642578125,4.598236083984375,-5.196380615234375,1.861724853515625,1,1.0,1.0,1.0,1.0,50.00
2021-04-17 22:01:16.929,0.49449512,0.5609761,0.67884856,0.7445604,0.47053722,0.30399394,-0.10917992,0.67315006,0.45963812,0.15578891,0.013966942,0.696294,0.39807132,0.13125323,0.21723427,0.69356626,0.317618,0.14485045,0.018360639,0.57744354,756.30035,795.78754,798.60803,831.6484,903.7729,-0.30352783203125,0.0428466796875,0.95068359375,4.0972900390625,-6.048736572265625,0.874786376953125,1,1.0,1.0,1.0,1.0,50.00
2021-04-17 22:01:17.457,0.24710412,0.6302425,0.7638078,0.63226193,0.21736641,0.2869869,0.46738026,0.6183872,0.0966118,0.47855654,0.27001065,0.67697203,0.33143988,0.405002,0.31210288,0.66938925,0.36909407,0.30981475,0.22610673,0.6594652,775.64105,816.337,821.1722,917.8755,786.9231,-0.30938720703125,0.052490234375,0.9490966796875,5.36834716796875,-3.880462646484375,2.803802490234375,1,1.0,1.0,1.0,1.0,50.00
2021-04-17 22:01:17.978,0.24710412,0.6302425,0.8207847,0.63226193,0.21736641,0.2869869,0.6644742,0.6183872,0.0966118,0.47855654,0.28234762,0.67697203,0.33143988,0.405002,0.40320176,0.66938925,0.36909407,0.30981475,0.30556434,0.6594652,758.315,820.3663,830.84247,936.8132,895.31134,-0.315185546875,0.0517578125,0.9495849609375,4.747772216796875,-5.286102294921875,2.115936279296875,1,1.0,1.0,1.0,1.0,50.00
2021-04-17 22:01:18.510,0.24710412,0.6302425,0.8207847,0.63226193,0.21736641,0.2869869,0.6644742,0.6183872,0.0966118,0.47855654,0.28234762,0.67697203,0.33143988,0.405002,0.40320176,0.66938925,0.36909407,0.30981475,0.30556434,0.6594652,866.30035,845.7509,807.47253,676.9231,590.696,-0.30126953125,0.05255126953125,0.95404052734375,3.8580322265625,-4.844970703125,-0.49346923828125,1,1.0,1.0,1.0,1.0,50.00
2021-04-17 22:01:19.030,0.8555176,0.6302425,0.7656748,0.93322945,0.64942354,0.2869869,0.38353452,0.69308335,0.6915212,0.47855654,0.12852973,0.8079196,0.4970075,0.405002,0.5049774,0.6607579,0.25336927,0.30981475,0.047199197,0.5378483,863.8828,813.5165,820.3663,703.91943,759.12085,-0.29559326171875,0.04150390625,0.95391845703125,4.605712890625,-4.508514404296875,1.143951416015625,1,1.0,1.0,1.0,1.0,50.00
2021-04-17 22:01:19.539,0.97187066,0.6302425,0.7656748,0.9007111,0.72080004,0.2869869,0.38353452,0.6173106,0.72294396,0.47855654,0.12852973,0.8248199,0.48516184,0.405002,0.5049774,0.6026958,0.27906913,0.30981475,0.047199197,0.51328874,800.2198,816.7399,798.20514,727.6923,687.3993,-0.3001708984375,0.041259765625,0.9510498046875,4.50103759765625,-4.628143310546875,-0.16448974609375,1,1.0,1.0,1.0,1.0,50.00
2021-04-17 22:01:20.054,1.0850478,0.6302425,0.6813801,0.95231575,0.6691307,0.2869869,0.5040289,0.51868266,0.72294396,0.47855654,0.54697573,0.843592,0.5063454,0.405002,0.6315647,0.64569956,0.29835814,0.30981475,0.31905463,0.44952866,743.00366,784.10254,802.23444,916.6667,775.64105,-0.298828125,0.04022216796875,0.962646484375,4.88983154296875,-4.912261962890625,1.42059326171875,1,1.0,1.0,1.0,1.0,50.00
2021-04-17 22:01:20.561,1.184236,0.6302425,0.37850043,0.95972145,0.6810085,0.2869869,0.4712006,0.42303625,0.642838,0.47855654,0.53738236,0.79504883,0.51208127,0.405002,0.53074855,0.6395269,0.3242796,0.30981475,0.2471439,0.40847117,799.011,805.4579,810.293,823.1868,784.10254,-0.29742431640625,0.04248046875,0.95428466796875,4.7552490234375,-4.5159912109375,2.160797119140625,1,1.0,1.0,1.0,1.0,50.00
2021-04-17 22:01:21.091,1.091369,0.5505254,0.7206923,0.96014446,0.4645201,0.18554705,0.5967298,0.4129451,0.2790856,0.1715922,0.5468547,0.70305437,0.46754763,0.31060177,0.49212807,0.652872,0.25103965,0.17592072,0.26578453,0.33995083,844.5421,828.8278,831.2454,674.10254,691.02563,-0.29632568359375,0.0465087890625,0.95330810546875,4.97955322265625,-4.2767333984375,1.71966552734375,1,1.0,1.0,1.0,1.0,50.00
2021-04-17 22:01:21.606,0.70688385,0.5517096,0.7277962,0.837275,0.44735482,0.31503063,0.54523546,0.545179,0.2394042,0.39123535,0.5162238,0.40556857,0.32805574,0.2770172,0.41505262,0.4930061,0.19363376,0.2705265,0.29326615,0.57831955,814.3223,790.54944,803.8461,709.5604,730.9158,-0.29705810546875,0.0478515625,0.95440673828125,4.3963623046875,-4.957122802734375,1.3458251953125,1,1.0,1.0,1.0,1.0,50.00
2021-04-17 22:01:22.119,0.6097138,0.5145287,0.8346468,0.7667767,0.4446258,0.2788597,0.53493726,0.5127383,0.2504144,0.39355987,0.5014787,0.4888272,0.33136314,0.3154038,0.39777637,0.5738775,0.19189945,0.20495513,0.27196872,0.6082224,661.2088,800.2198,821.978,802.23444,902.5641,-0.2921142578125,0.04705810546875,0.9544677734375,4.972076416015625,-3.84307861328125,0.515899658203125,1,1.0,1.0,1.0,1.0,50.00
2021-04-17 22:01:22.637,0.4940107,0.5774394,0.64471966,0.75151235,0.41341847,0.3587207,0.29165503,0.47800127,0.10477301,0.33077213,0.47515666,0.39005977,0.30315134,0.32267803,0.38284838,0.5900946,0.21770276,0.11439056,0.14219986,0.66743463,790.9524,811.50183,824.3956,845.7509,657.1795,-0.30059814453125,0.05169677734375,0.9544677734375,4.007568359375,-5.2337646484375,1.375732421875,1,1.0,1.0,1.0,1.0,50.00
2021-04-17 22:01:23.139,0.48434126,0.7446372,0.5717963,0.66358066,0.44187954,0.33494216,0.27696717,0.47031215,0.10477301,0.23797199,0.37814385,0.29564926,0.33464554,0.35088784,0.3141239,0.6544622,0.19015819,0.07198221,0.019398252,0.64158356,846.55676,793.7729,810.696,703.1135,721.6484,-0.29766845703125,0.0521240234375,0.95758056640625,4.388885498046875,-5.136566162109375,0.755157470703125,1,1.0,1.0,1.0,1.0,50.00
2021-04-17 22:01:23.644,0.5041478,0.774204,0.6445131,0.69053155,0.47924423,0.36430714,0.3234815,0.46012166,0.101757996,0.20580116,0.48106354,0.29110327,0.37834057,0.35588473,0.26844493,0.68806225,0.15357347,0.19941378,0.1564085,0.5831278,784.90845,809.4872,817.5458,717.619,725.6777,-0.29193115234375,0.04541015625,0.9547119140625,4.6356201171875,-4.044952392578125,1.218719482421875,1,1.0,1.0,1.0,1.0,50.00
2021-04-17 22:01:24.158,0.2844714,0.78697485,0.8530251,0.70843357,0.4335503,0.2534935,0.40859622,0.5745143,0.724415,0.16770528,0.4886187,0.74093866,0.7243289,0.35815585,0.289895,0.83865005,0.21918331,0.3234999,0.3128154,0.49657923,772.8205,790.9524,808.2784,940.0366,832.0513,-0.29815673828125,0.04931640625,0.9561767578125,4.927215576171875,-4.314117431640625,0.59814453125,1,1.0,1.0,1.0,1.0,50.00
2021-04-17 22:01:24.670,0.2844714,0.53629416,0.8748539,0.70843357,0.4335503,0.2715522,0.3897856,0.5745143,0.724415,0.73121727,0.47839224,0.74093866,0.7243289,0.4006718,0.3265032,0.83865005,0.21918331,0.30007082,0.3073736,0.49657923,837.28937,805.4579,809.0842,689.41394,733.3333,-0.30255126953125,0.05316162109375,0.9581298828125,5.27862548828125,-4.8748779296875,1.532745361328125,1,1.0,1.0,1.0,1.0,50.00
2021-04-17 22:01:25.184,0.24277562,0.29270744,0.73428386,0.7238779,0.35828632,0.086096026,0.2866107,0.6137454,0.67917454,0.7379078,0.42979607,0.72949827,0.75151503,0.3064397,0.30979735,0.8221703,0.2659723,0.28405228,0.24840274,0.49823743,842.9304,808.68134,811.9048,678.93774,655.16486,-0.29730224609375,0.0511474609375,0.95831298828125,4.3365478515625,-5.203857421875,1.136474609375,1,1.0,1.0,1.0,1.0,50.00
2021-04-17 22:01:25.716,0.15517795,0.2696234,0.26302764,0.20424984,0.12750368,0.03788226,0.17959826,0.2700231,0.16824839,0.7379078,0.53756315,0.7714494,0.22769359,0.29555476,0.26657203,0.5742275,-0.16835149,0.21015316,0.1051995,0.09039857,770.40295,798.60803,802.6374,906.5934,845.7509,-0.30438232421875,0.0361328125,0.95086669921875,5.899200439453125,-4.91973876953125,1.936492919921875,1,1.0,1.0,1.0,1.0,50.00
2021-04-17 22:01:26.241,0.37595618,0.40065777,0.10588442,0.19847566,0.17449927,0.051004052,0.20608713,0.44740382,0.5552275,0.43169987,0.5478192,0.87292296,0.29348487,0.24704264,0.26164484,0.6189675,-0.101471625,0.14397472,-0.025837006,0.13187212,739.7802,792.1612,809.4872,916.26373,1029.4872,-0.28955078125,0.05999755859375,0.95794677734375,4.59075927734375,-4.246826171875,0.58319091796875,1,1.0,1.0,1.0,1.0,50.00
2021-04-17 22:01:26.768,0.48151,0.5612997,0.3080963,0.31103316,0.19682972,0.15308276,0.22363244,0.46654734,0.5589537,0.0950303,0.5478192,0.88329405,0.34106642,0.3590029,0.328593,0.6160107,-0.05831628,-0.011732605,-0.089699835,0.28841782,801.02563,800.6227,810.293,778.0586,692.6374,-0.29931640625,0.05352783203125,0.9542236328125,4.987030029296875,-3.96270751953125,-0.052337646484375,1,1.0,1.0,1.0,1.0,50.00
2021-04-17 22:01:27.270,0.65082633,0.6049863,0.4783784,0.59747267,0.5476228,0.24445081,0.15916562,0.5836636,0.91133094,2.3342468E-4,0.47010872,0.8450616,0.47804174,0.48551065,0.36846942,0.6563719,0.014424168,0.02792133,-0.030775448,0.3500138,817.1429,787.72894,791.75824,659.19415,740.989,-0.27178955078125,0.047119140625,0.9730224609375,4.5159912109375,-4.26177978515625,-3.72344970703125,1,1.0,1.0,1.0,1.0,50.00
2021-04-17 22:01:27.780,1.0252291,0.5411373,0.6410522,0.93470716,0.70040625,0.21468098,0.23097783,0.601089,0.8812444,-0.0091099,0.6012231,0.8352325,0.5629086,0.506605,0.43867806,0.67335886,0.080560796,0.04306169,0.005515626,0.43430328,773.22345,807.8755,813.91943,807.47253,880.0,-0.30889892578125,0.09564208984375,0.947265625,15.32745361328125,-1.24114990234375,6.527252197265625,1,1.0,1.0,1.0,1.0,50.00
2021-04-17 22:01:28.292,1.1025695,0.34653127,0.66409254,1.0501946,0.78577995,0.25871834,0.27903134,0.61680263,0.89946175,-0.12704992,0.70005655,0.90845406,0.5394928,0.5759861,0.4554247,0.66439396,0.15491751,0.056855164,0.06644041,0.3709814,776.04395,790.9524,810.293,942.0513,863.8828,-0.36956787109375,0.1044921875,0.91656494140625,3.7982177734375,-0.61309814453125,-0.16448974609375,1,1.0,1.0,1.0,1.0,50.00
2021-04-17 22:01:28.801,1.2781363,0.34653127,0.8314674,1.2086265,0.6474001,0.25871834,0.43741807,0.5076713,0.88302106,-0.12704992,0.71060336,0.9922724,0.37546957,0.5759861,0.4830517,0.63438207,0.17639981,0.056855164,0.016760824,0.35040686,779.67035,782.0879,792.1612,715.2015,653.95605,-0.33843994140625,0.1280517578125,0.9267578125,9.0020751953125,-5.9814453125,2.01873779296875,1,1.0,1.0,1.0,1.0,50.00
2021-04-17 22:01:29.320,0.993797,0.86693484,1.0041486,1.1156148,0.5395182,0.4640761,0.5089381,0.57223475,0.79722804,0.48148152,0.5831177,0.927864,0.32350618,0.42613888,0.43128154,0.6034051,0.10380289,0.24113868,0.03049871,0.2819179,767.98535,795.78754,804.2491,657.1795,700.696,-0.3138427734375,0.10028076171875,0.93585205078125,5.39825439453125,-3.3197021484375,1.016845703125,1,1.0,1.0,1.0,1.0,50.00
2021-04-17 22:01:29.833,1.3069146,0.86693484,1.2887971,1.3113494,0.587308,0.4640761,0.56086403,0.67026865,0.79222965,0.48148152,0.6168496,0.9140989,0.46750504,0.42613888,0.38583893,0.60214293,0.11967857,0.24113868,-0.004950174,0.34493446,768.7912,785.7143,788.93774,837.6923,868.71796,-0.29010009765625,0.09912109375,0.9482421875,-2.175750732421875,-7.79083251953125,3.22998046875,1,1.0,1.0,1.0,1.0,50.00
2021-04-17 22:01:30.355,1.268648,0.8078666,1.340828,1.2662122,0.5712324,0.41899788,0.53047585,0.628791,0.7890585,0.5029985,0.564779,0.57420963,0.5720633,0.43925497,0.35906732,0.61191624,0.045402605,0.21283068,0.04268165,0.38358814,794.9817,778.46155,787.72894,642.27106,597.9487,-0.2547607421875,0.118408203125,0.98040771484375,3.050537109375,-8.740386962890625,5.323486328125,1,1.0,1.0,1.0,1.0,50.00
2021-04-17 22:01:30.881,1.2133344,0.73529494,1.317599,1.2422487,0.4878831,0.10306738,0.4434509,0.55157703,0.6348122,0.22874127,0.54710144,0.73472303,0.5750882,0.41232228,0.3283957,0.5902987,0.070819475,-0.02122611,0.016719263,0.4127678,818.7546,802.23444,805.8608,666.4469,522.1978,-0.29144287109375,0.13189697265625,0.9468994140625,8.71795654296875,-3.96270751953125,0.231781005859375,1,1.0,1.0,1.0,1.0,50.00
2021-04-17 22:01:31.391,1.0333769,0.73529494,1.1751728,1.1456658,0.5861334,0.10306738,0.49417964,0.5762672,0.9773929,0.22874127,0.45029682,0.75315833,0.5648871,0.41232228,0.2796775,0.6072326,0.06741667,-0.02122611,-0.018492984,0.4320164,798.20514,798.60803,817.5458,982.3443,928.7546,-0.227783203125,0.1220703125,0.966064453125,-1.263580322265625,-2.31781005859375,3.551483154296875,1,1.0,1.0,1.0,1.0,50.00
2021-04-17 22:01:31.893,0.9172224,0.9698065,1.1751728,1.1030588,0.66859716,0.60525143,0.49417964,0.7189409,1.0357399,0.7070828,0.45029682,0.7520772,0.5232146,0.3403598,0.2796775,0.584507,0.17029585,-0.0324181,-0.018492984,0.47797975,784.10254,812.3077,820.7692,919.89014,887.6557,-0.32135009765625,0.11370849609375,0.9495849609375,2.459869384765625,1.9439697265625,1.6748046875,1,1.0,1.0,1.0,1.0,50.00
2021-04-17 22:01:32.402,0.96114373,1.0574616,1.1751728,1.1067607,0.8066247,0.713022,0.49417964,0.7827111,1.0357399,0.7070828,0.45029682,0.7520772,0.5282268,0.3101221,0.2796775,0.591361,0.2033126,-0.0342882,-0.018492984,0.50031567,798.20514,794.57874,816.337,863.47986,720.84247,-0.3148193359375,0.116943359375,0.94512939453125,3.289794921875,-1.2860107421875,8.14971923828125,1,1.0,1.0,1.0,1.0,50.00
2021-04-17 22:01:32.920,0.8265068,1.0583918,0.79772365,1.1067607,0.7641146,0.6077798,0.09112144,0.7827111,1.0357399,0.7070828,0.32131612,0.7520772,0.5598369,0.38445368,0.33140978,0.591361,0.19990396,0.08187857,-0.05799921,0.50031567,798.60803,770.40295,794.9817,843.3333,1158.4249,-0.30120849609375,0.10906982421875,0.948974609375,4.0673828125,-3.5888671875,0.6280517578125,1,1.0,1.0,1.0,1.0,50.00
2021-04-17 22:01:33.423,0.50504655,0.90519875,0.78647995,0.48099327,0.54857725,0.2609394,0.08461827,0.4417854,0.26293412,0.35364237,0.33514416,0.4471519,0.4850324,0.40223223,0.30730647,0.57903135,-0.044594385,0.12704644,0.0056590056,0.29694626,772.01465,813.91943,817.9487,919.4872,969.45056,-0.31585693359375,0.08282470703125,0.9490966796875,2.549591064453125,-3.147735595703125,-5.51788330078125,1,1.0,1.0,1.0,1.0,50.00
2021-04-17 22:01:33.943,0.7767948,0.8606644,0.9532993,0.67204106,0.5253432,0.24750455,0.5521112,0.70580333,0.43801174,0.21544158,0.4705929,0.6020798,0.55680555,0.4286967,0.3303327,0.6634766,0.04197386,0.1696088,0.051678486,0.34209093,800.6227,805.4579,817.1429,739.3773,630.989,-0.3319091796875,0.05853271484375,0.9471435546875,3.0206298828125,-5.091705322265625,1.607513427734375,1,1.0,1.0,1.0,1.0,50.00
2021-04-17 22:01:34.461,0.73864055,0.5976818,0.8889907,0.6609893,0.39841035,0.11618617,0.5962009,0.69530725,0.43801174,0.16688365,0.46274123,0.6018852,0.5402142,0.37329373,0.3407443,0.69888574,0.023255669,0.061105408,-0.0119204745,0.34417138,813.5165,769.19415,777.25275,689.011,984.35895,-0.32720947265625,0.049072265625,0.9468994140625,5.0543212890625,-4.538421630859375,0.620574951171875,1,1.0,1.0,1.0,1.0,50.00
2021-04-17 22:01:34.975,0.7653779,0.46490434,0.7961205,0.7205801,0.2995582,-0.113314845,0.5943062,0.77184886,0.41969228,0.19509257,0.4628549,0.623579,0.52010816,0.4520341,0.36975172,0.73118603,0.07012874,-0.101191424,-0.06405613,0.35477892,828.022,794.57874,801.02563,677.326,638.24176,-0.32684326171875,0.0599365234375,0.94598388671875,5.061798095703125,-4.2169189453125,1.79443359375,1,1.0,1.0,1.0,1.0,50.00
2021-04-17 22:01:35.507,0.57148397,0.6513277,0.55541545,0.5998288,0.062228687,0.49103105,0.49022084,0.6228088,0.2181081,0.8381781,0.42621422,0.47819087,0.4331903,0.40121004,0.36163595,0.70978564,0.035732035,0.09831935,0.025789844,0.3207702,790.9524,792.96704,814.7253,905.38464,861.8681,-0.313232421875,0.06024169921875,0.950927734375,4.88983154296875,-7.319793701171875,0.276641845703125,1,1.0,1.0,1.0,1.0,50.00
2021-04-17 22:01:36.014,0.38145623,0.61450815,0.51046544,0.64408875,0.15754893,0.4749337,0.4837465,0.7413512,0.040798225,0.8669425,0.4484987,0.44472948,0.27889547,0.41490254,0.294478,0.6499144,0.12693775,0.08933615,0.05147806,0.32264817,780.87915,812.3077,832.0513,921.50183,853.4066,-0.320556640625,0.0625,0.95159912109375,4.2767333984375,-5.211334228515625,0.456085205078125,1,1.0,1.0,1.0,1.0,50.00
2021-04-17 22:01:36.519,1.0937282,0.7609165,0.6743878,0.64408875,0.37707865,0.5943089,0.56268495,0.7413512,0.21698846,0.8697844,0.4547961,0.44472948,0.32856002,0.40069658,0.24909133,0.6499144,0.010141897,0.15539785,0.060206186,0.32264817,795.38464,806.26373,811.9048,693.44324,617.28937,-0.31024169921875,0.06201171875,0.9481201171875,4.568328857421875,-5.615081787109375,-0.545806884765625,1,1.0,1.0,1.0,1.0,50.00
2021-04-17 22:01:37.037,0.8938694,0.87828004,0.58777297,0.64408875,0.32905623,0.5801679,0.31046438,0.7413512,0.28131053,0.8147083,0.33750314,0.44472948,0.22440563,0.43149424,0.1983661,0.6499144,-0.022746641,0.06508742,-0.16313262,0.32264817,773.22345,774.0293,784.5055,904.17584,897.326,-0.30230712890625,0.05450439453125,0.95220947265625,4.42626953125,-4.6954345703125,1.353302001953125,1,1.0,1.0,1.0,1.0,50.00
2021-04-17 22:01:37.539,0.8938694,1.0543956,0.6890881,0.64408875,0.32905623,0.71646345,0.13164832,0.7413512,0.28131053,0.78663504,0.0821965,0.44472948,0.22440563,0.42386287,0.1616971,0.6499144,-0.022746641,0.080705516,-0.23128912,0.32264817,805.8608,826.8132,828.8278,861.06226,793.36993,-0.310791015625,0.05755615234375,0.942626953125,5.435638427734375,-5.241241455078125,0.919647216796875,1,1.0,1.0,1.0,1.0,45.00
2021-04-17 22:01:38.042,0.89015764,1.0405109,0.6890881,0.64408875,0.26079908,0.78290135,0.13164832,0.7413512,0.49527967,0.78663504,0.0821965,0.44472948,0.15179923,0.40015644,0.1616971,0.6499144,-0.044237696,0.090466686,-0.23128912,0.32264817,813.5165,793.36993,808.2784,664.43225,606.8132,-0.31451416015625,0.05999755859375,0.95037841796875,5.78704833984375,-4.164581298828125,2.75146484375,1,1.0,1.0,1.0,1.0,45.00
2021-04-17 22:01:38.565,1.1538402,1.0405109,0.53578424,0.9289116,0.34143758,0.78290135,-0.5360447,0.17242941,0.553201,0.78663504,0.19129555,0.14094198,0.43687353,0.40015644,0.4372985,0.7911054,0.00999951,0.090466686,0.005147975,0.43191352,784.90845,790.14655,807.0696,751.8681,779.2674,-0.313720703125,0.06011962890625,0.94873046875,4.246826171875,-5.988922119140625,1.136474609375,1,1.0,1.0,1.0,1.0,45.00
2021-04-17 22:01:39.092,0.9870821,0.65562177,0.72493666,0.80148935,0.29437688,0.23288561,0.12850718,0.24520712,0.5738457,0.32398438,0.3732418,0.23856968,0.48084155,0.2002049,0.37392044,0.75635713,0.017898543,0.17300704,0.010970938,0.42827225,773.22345,804.2491,816.7399,933.1868,821.1722,-0.310302734375,0.05169677734375,0.9486083984375,4.47113037109375,-4.149627685546875,-0.037384033203125,1,1.0,1.0,1.0,1.0,45.00
2021-04-17 22:01:39.594,0.8673001,0.58418256,0.7540245,0.8311402,0.34075266,0.24246022,0.18056084,0.29625756,0.6548796,0.4158355,0.48711023,0.32091677,0.4999215,0.19098201,0.31772828,0.7437913,-0.025338411,0.14095646,0.018560847,0.41428947,807.0696,791.3553,798.20514,783.2967,751.8681,-0.30517578125,0.03778076171875,0.951904296875,3.9178466796875,-6.10107421875,-0.485992431640625,1,1.0,1.0,1.0,1.0,45.00
2021-04-17 22:01:40.102,0.58905625,0.40360042,0.71860355,0.663192,0.2546273,0.11466454,0.27434403,0.34249592,0.6004606,0.40572008,0.42071414,0.254313,0.48488495,0.20988373,0.28464523,0.6703573,-0.050507903,0.12770073,0.011714499,0.3653434,782.8938,795.78754,807.0696,886.4469,928.7546,-0.27178955078125,0.02044677734375,0.95916748046875,3.162689208984375,-7.91046142578125,1.9439697265625,1,1.0,1.0,1.0,1.0,45.00
2021-04-17 22:01:40.618,0.62152416,0.46071154,0.55732316,0.6124031,0.28024387,0.18785334,0.10579806,0.33281875,0.5728995,0.34634838,0.45304868,0.2258667,0.4415178,0.21361169,0.27278093,0.5834288,-0.1010314,0.096639976,0.0528161,0.29848316,750.2564,795.78754,820.3663,781.28204,786.52014,-0.26690673828125,0.03009033203125,0.9674072265625,5.24871826171875,-2.03369140625,-1.323394775390625,1,1.0,1.0,1.0,1.0,45.00
2021-04-17 22:01:41.122,0.3990363,0.5612223,0.37507686,0.4682645,0.026492618,0.08286766,-0.07582135,0.29575402,0.40027615,0.24283582,0.45757407,0.14475365,0.43342564,0.21869746,0.29590678,0.59874743,-0.051290665,0.097898275,0.03141159,0.29433924,779.67035,811.50183,789.34064,679.34064,564.5055,-0.29296875,0.0218505859375,0.94842529296875,5.38330078125,-5.48797607421875,0.515899658203125,1,1.0,1.0,1.0,1.0,45.00
2021-04-17 22:01:41.638,0.3990363,0.66199225,0.41494846,0.72271925,0.026492618,0.14183481,-0.28133163,0.23716536,0.40027615,0.17270131,0.24306956,0.32674712,0.43342564,0.18698242,0.30103302,0.81924313,-0.051290665,0.08425254,0.03453796,0.44300735,816.7399,778.86444,778.0586,718.8278,1065.348,-0.29766845703125,0.019775390625,0.95513916015625,4.844970703125,-4.05242919921875,1.6448974609375,1,1.0,1.0,1.0,1.0,45.00
2021-04-17 22:01:42.149,0.3990363,0.77383095,0.9888569,0.72271925,0.026492618,-0.16952458,0.37295404,0.23716536,0.40027615,0.081031516,0.7813184,0.32674712,0.43342564,0.213631,0.3237399,0.81924313,-0.051290665,0.08296564,-0.05329642,0.44300735,818.3516,805.8608,807.0696,668.0586,639.0476,-0.3099365234375,0.03167724609375,0.951904296875,5.330963134765625,-5.061798095703125,0.201873779296875,1,1.0,1.0,1.0,1.0,45.00
2021-04-17 22:01:42.677,0.3990363,0.77383095,1.1415968,0.72271925,0.026492618,-0.16952458,0.5272815,0.23716536,0.40027615,0.081031516,0.77374476,0.32674712,0.43342564,0.213631,0.34570011,0.81924313,-0.051290665,0.08296564,-0.04836718,0.44300735,799.41394,789.34064,798.60803,856.2271,759.12085,-0.30712890625,0.022216796875,0.9534912109375,4.56085205078125,-4.433746337890625,1.136474609375,1,1.0,1.0,1.0,1.0,45.00
2021-04-17 22:01:43.188,0.3990363,0.77383095,1.0646392,0.72271925,0.026492618,-0.16952458,0.49428684,0.23716536,0.40027615,0.081031516,0.7738156,0.32674712,0.43342564,0.213631,0.27609187,0.81924313,-0.051290665,0.08296564,-0.21146742,0.44300735,784.5055,797.3993,812.3077,895.7143,790.9524,-0.31451416015625,0.02752685546875,0.9537353515625,4.2767333984375,-5.630035400390625,1.921539306640625,1,2.0,1.0,1.0,2.0,45.00
2021-04-17 22:01:43.695,0.3990363,0.97279006,0.91831934,0.72271925,0.026492618,0.5419725,0.30430338,0.23716536,0.40027615,0.21992356,0.43235862,0.32674712,0.43342564,0.39843225,0.19211175,0.81924313,-0.051290665,-0.018478528,-0.27611884,0.44300735,789.7436,795.38464,805.05493,749.85345,706.7399,-0.3111572265625,0.01959228515625,0.95147705078125,4.643096923828125,-5.42816162109375,1.801910400390625,1,2.0,1.0,1.0,2.0,45.00
2021-04-17 22:01:44.198,0.8132614,0.80375654,0.8877809,0.97150844,0.75388414,0.49536082,0.2401448,0.77117795,0.4919344,-0.013077889,0.46033344,0.50464326,0.40467653,0.33221567,0.16826083,0.6629415,0.025998306,-0.045305703,-0.27391207,0.26339823,794.17584,792.5641,793.36993,685.78754,734.94507,-0.29632568359375,0.02532958984375,0.9527587890625,4.972076416015625,-4.29168701171875,0.8074951171875,1,1.0,1.0,1.0,1.0,45.00
2021-04-17 22:01:44.715,0.7728105,0.7322751,0.940926,0.92616105,0.6027584,0.47740373,0.32008177,0.64116627,0.49390993,0.3909798,0.5685401,0.45519695,0.41250226,0.31903264,0.22228684,0.64139396,0.06074802,-0.10265691,-0.21130678,0.2458698,788.5348,801.8315,811.0989,801.4286,641.8681,-0.31390380859375,0.02044677734375,0.95068359375,4.119720458984375,-4.56085205078125,-0.299072265625,1,1.0,1.0,1.0,1.0,45.00
2021-04-17 22:01:45.217,0.72283703,0.6619553,0.630026,0.749961,0.5268619,0.5256594,0.1973441,0.57495123,0.47760448,0.47249237,0.26655486,0.38770783,0.41776186,0.29738212,0.2705715,0.65549093,0.12202778,-0.06776787,-0.09441436,0.33142436,810.293,776.8498,782.0879,654.35895,711.5751,-0.31500244140625,0.02142333984375,0.94854736328125,4.6356201171875,-4.17205810546875,0.964508056640625,1,1.0,1.0,1.0,1.0,45.00
2021-04-17 22:01:45.723,0.9057745,0.7189187,0.8289367,1.0243431,0.4724162,0.551024,0.43236545,0.7023453,0.47346786,0.59273493,0.30503097,0.7304127,0.4622345,0.4000798,0.30624577,0.6969268,0.109478205,0.015258557,0.037519313,0.3624672,775.64105,781.685,795.78754,787.326,874.35895,-0.310791015625,0.02288818359375,0.952392578125,5.510406494140625,-4.702911376953125,2.130889892578125,1,1.0,1.0,1.0,1.0,45.00
2021-04-17 22:01:46.238,0.9038832,0.7110283,0.89406604,1.1193401,0.451655,0.47467166,0.5010654,0.7939502,0.5561156,0.6349251,0.10220798,0.71395546,0.5089106,0.39274275,0.29831043,0.72738564,0.16099913,0.07066202,0.113830954,0.42092443,792.5641,806.6667,813.91943,693.0403,665.2381,-0.31964111328125,0.03179931640625,0.95306396484375,4.0972900390625,-5.51788330078125,1.921539306640625,1,1.0,1.0,1.0,1.0,45.00
2021-04-17 22:01:46.749,0.7976433,0.58981043,0.8948801,1.1067648,0.26703447,0.23019141,0.5118003,0.745425,0.53335905,0.6069406,0.052015897,0.717825,0.5635968,0.3940882,0.39969105,0.69848174,0.10192952,0.07425267,0.16055891,0.3524199,805.8608,792.96704,801.02563,701.0989,749.45056,-0.29876708984375,0.024658203125,0.95343017578125,4.35150146484375,-5.87677001953125,0.919647216796875,1,1.0,1.0,1.0,1.0,45.00
2021-04-17 22:01:47.262,0.62242144,0.59776676,0.6275662,0.8148827,0.060978632,0.08147144,0.37318784,0.47309944,0.5563665,0.48212326,0.22389325,0.43131924,0.52243924,0.28882253,0.42211193,0.6188933,0.11490578,0.07294611,0.09726608,0.34884012,805.8608,799.011,794.17584,657.98535,807.0696,-0.3016357421875,0.01849365234375,0.95166015625,4.77020263671875,-3.730926513671875,-0.538330078125,1,1.0,1.0,1.0,1.0,45.00
2021-04-17 22:01:47.768,0.5856507,0.93460846,0.9651277,0.7052928,-0.041261643,0.32564756,0.57457787,0.47029242,0.44258997,0.42258248,0.52079433,0.77746147,0.42224753,0.24667345,0.38216513,0.57860655,0.039840173,0.035834488,0.078105696,0.29368153,770.80585,807.0696,821.978,852.6007,717.2161,-0.3096923828125,0.02423095703125,0.95782470703125,5.585174560546875,-3.850555419921875,2.086029052734375,1,1.0,1.0,1.0,1.0,50.00
2021-04-17 22:01:48.290,0.7635086,0.95589757,0.995775,0.9014747,0.04881798,0.315304,0.57127875,0.49457678,0.40997428,0.2736068,0.52079433,0.8042091,0.35432437,0.14018142,0.33564445,0.6121049,0.048033256,0.042475235,0.023961205,0.3781485,787.326,794.9817,798.20514,789.7436,800.2198,-0.30853271484375,0.0203857421875,0.95404052734375,3.93280029296875,-5.562744140625,0.770111083984375,1,1.0,1.0,1.0,1.0,50.00
2021-04-17 22:01:48.795,0.92835337,0.9866362,1.0826325,0.9354384,0.2125876,0.31302047,0.5036365,0.5648369,0.5642256,0.33606896,0.4949137,0.8042091,0.37396103,0.15859944,0.23559025,0.61612654,0.008435199,0.028604938,-0.042781748,0.34954724,805.4579,823.1868,827.2161,724.0659,606.4103,-0.30401611328125,0.02032470703125,0.9561767578125,4.538421630859375,-4.598236083984375,1.1962890625,1,1.0,1.0,1.0,1.0,50.00
2021-04-17 22:01:49.323,0.9690767,0.87247777,0.9936732,1.0163176,0.2977989,0.2677056,0.36549124,0.36144298,0.58195525,0.37001207,0.4398456,0.5813086,0.5382146,0.1467568,0.19705263,0.67553693,0.059628505,0.124031276,-0.11123914,0.44454843,796.99634,822.7839,837.28937,947.28937,863.0769,-0.2950439453125,0.019775390625,0.95465087890625,4.5458984375,-4.613189697265625,2.444915771484375,1,1.0,1.0,1.0,1.0,50.00
2021-04-17 22:01:49.849,1.0512544,1.0078324,1.0687537,1.0163176,0.3352463,0.4198663,0.43696037,0.36144298,0.55728304,0.8056773,0.579729,0.5813086,0.54485255,0.2529275,0.259799,0.67553693,0.038060736,0.13716984,-0.05862692,0.44454843,821.5751,826.0073,845.34796,857.4359,767.98535,-0.30224609375,0.02789306640625,0.95721435546875,4.725341796875,-4.78515625,1.622467041015625,1,1.0,1.0,1.0,1.0,50.00
2021-04-17 22:01:50.374,0.9746076,1.0402435,1.0356925,0.89844793,0.37057734,0.58454335,0.6141976,0.60197246,0.478457,0.83094746,0.5927238,0.6449753,0.5176341,0.32852638,0.2893339,0.58736277,-0.003745269,0.122781835,-0.052596457,0.33468282,823.1868,845.34796,774.0293,641.06226,612.4542,-0.29327392578125,0.02587890625,0.9610595703125,4.732818603515625,-4.83001708984375,-0.037384033203125,1,1.0,1.0,1.0,1.0,50.00
2021-04-17 22:01:50.899,1.0094769,1.119936,1.0081908,0.9292824,0.32532278,0.65373075,0.74392635,0.7405875,0.47920555,0.83094746,0.65757006,0.6925778,0.40857944,0.41620353,0.31010932,0.61586463,-0.031947423,0.06634191,-0.06171741,0.26774225,821.978,801.02563,811.50183,701.9048,634.61536,-0.310791015625,0.0240478515625,0.9578857421875,5.345916748046875,-3.9776611328125,1.577606201171875,1,1.0,1.0,1.0,1.0,50.00
2021-04-17 22:01:51.405,0.83705294,1.0894271,0.9133436,0.8334905,0.27840787,0.7040799,0.8086065,0.6966638,0.83427244,0.44304177,0.6493935,0.7785252,0.43199754,0.42316517,0.2232995,0.5861297,-0.01196982,0.04687875,-0.1040047,0.24215429,799.41394,793.7729,798.20514,697.8755,684.9817,-0.31060791015625,0.0211181640625,0.95166015625,4.329071044921875,-4.486083984375,0.9869384765625,1,1.0,1.0,1.0,1.0,50.00
2021-04-17 22:01:51.914,0.7901752,0.36049965,0.76379555,0.8181767,0.3558174,0.12696029,0.69812894,0.69998235,0.89179945,0.2818412,0.6275702,0.8693893,0.41785973,0.2562313,0.27150375,0.62493855,0.026268259,-0.002819088,-0.10662267,0.17719619,784.90845,795.38464,812.3077,910.2198,1003.69965,-0.31024169921875,0.017822265625,0.95550537109375,5.390777587890625,-4.568328857421875,2.011260986328125,1,1.0,1.0,1.0,1.0,50.00
2021-04-17 22:01:52.427,0.66605777,0.43295807,0.625489,0.67045534,0.39104554,0.002374083,0.54291254,0.47150087,0.90655106,0.31806192,0.48487708,0.8693893,0.39921138,0.2572304,0.2676917,0.6185093,0.048930198,0.12939762,-0.11514087,0.28395268,815.9341,816.337,828.8278,879.19415,838.0952,-0.29681396484375,0.03302001953125,0.9603271484375,3.69354248046875,-6.4898681640625,1.757049560546875,1,1.0,1.0,1.0,1.0,50.00
2021-04-17 22:01:52.941,0.6382327,0.4635928,0.7855851,0.9209925,0.38916916,0.007907976,0.46919906,0.5396958,0.86615276,0.3196351,0.45477438,0.87881106,0.34861434,0.2461772,0.27290106,0.6812424,0.099091366,0.12819777,-0.16758282,0.28188562,777.25275,800.2198,805.4579,788.93774,838.0952,-0.29351806640625,0.02081298828125,0.9610595703125,4.47113037109375,-4.246826171875,-0.04486083984375,1,1.0,1.0,1.0,1.0,50.00
2021-04-17 22:01:53.450,0.7862214,0.74933696,1.006322,1.0740688,0.18357944,0.0053756787,0.55886924,0.5064533,0.4401829,0.14003946,0.40606728,0.7124309,0.3209731,0.3029875,0.2345408,0.60098267,0.119472034,0.14839286,-0.14797361,0.31949702,796.5934,788.93774,801.8315,738.5714,746.63007,-0.29736328125,0.0164794921875,0.9595947265625,4.17205810546875,-5.301055908203125,1.024322509765625,1,1.0,1.0,1.0,1.0,50.00
2021-04-17 22:01:53.978,0.82179713,0.8357818,1.0249081,1.0970094,0.021542568,0.17123885,0.5601701,0.5529713,0.19935708,0.41215464,0.5773965,0.6797185,0.20077848,0.3855417,0.22295421,0.5692597,0.14843154,0.07213024,-0.064886466,0.3417983,809.89014,791.75824,810.696,964.61536,1180.586,-0.29962158203125,0.01312255859375,0.95086669921875,5.510406494140625,-4.6356201171875,1.51031494140625,1,1.0,1.0,1.0,1.0,50.00
2021-04-17 22:01:54.487,0.6586241,0.87604237,1.0104836,0.9363362,-0.050135322,0.38018543,0.57236695,0.50121665,0.15724286,0.58868587,0.5765336,0.49528465,0.2609508,0.35639045,0.31262976,0.5126639,0.15533257,0.0467229,-0.0073901927,0.4203674,817.1429,808.68134,809.0842,680.9524,649.92676,-0.292724609375,0.01531982421875,0.96051025390625,4.366455078125,-5.600128173828125,1.86920166015625,1,1.0,1.0,1.0,1.0,50.00
2021-04-17 22:01:54.991,0.27404857,0.75301296,0.90948325,0.6949164,-0.16388057,0.43151775,0.478107,0.42517152,0.22189751,0.6113889,0.54176635,0.28947982,0.25370866,0.36526698,0.35247552,0.5200839,0.13554011,0.057260193,0.022020044,0.37861407,815.5311,781.685,778.46155,662.01465,704.7253,-0.286376953125,0.010498046875,0.962158203125,4.74029541015625,-5.0244140625,1.016845703125,1,1.0,1.0,1.0,1.0,50.00
2021-04-17 22:01:55.496,0.08401922,0.6921099,0.9684833,0.66133165,-0.13352641,0.40421477,0.6037926,0.36544052,0.39464894,0.61796504,0.41283944,0.29491508,0.25882518,0.30808133,0.3580248,0.5024496,0.050134,0.026079936,0.055720404,0.27957278,786.52014,799.011,813.1135,908.60803,816.337,-0.29150390625,0.00982666015625,0.95819091796875,5.405731201171875,-4.65057373046875,1.54022216796875,1,1.0,1.0,1.0,1.0,50.00
2021-04-17 22:01:56.018,0.08333932,0.39562958,0.5601177,0.5004744,-0.102275774,0.22416656,0.3740121,0.23318562,0.45703226,0.54656965,0.3988703,0.34715104,0.15082662,0.348263,0.09320251,0.5555025,0.05036007,0.0067194602,-0.044373974,0.20476282,794.9817,799.011,814.7253,700.696,596.337,-0.2750244140625,0.01873779296875,0.96490478515625,3.970184326171875,-5.99639892578125,1.801910400390625,1,1.0,1.0,1.0,1.0,50.00
2021-04-17 22:01:56.546,0.15137103,0.19062693,0.58068436,0.24924995,0.14311226,0.006504945,0.3862654,0.27864397,0.46047103,0.4439705,0.41829008,0.33409652,0.14855306,0.30930096,0.1273712,0.5755222,0.06293417,-0.021266649,-0.013249712,0.3273136,811.0989,789.7436,792.96704,692.23444,640.2564,-0.271484375,0.01177978515625,0.96783447265625,4.418792724609375,-4.56085205078125,-0.059814453125,1,1.0,1.0,1.0,1.0,50.00
2021-04-17 22:01:57.070,0.10355987,0.059488907,0.4479405,0.27048165,0.21086894,0.027540797,0.27965638,0.33555874,0.5130961,0.42966768,0.28420624,0.27376747,0.22093168,0.29364696,0.11430066,0.5679523,0.15129471,-0.005922214,-0.009326571,0.43006364,780.07324,797.3993,807.47253,873.5531,804.65204,-0.28021240234375,-0.001220703125,0.9560546875,4.224395751953125,-4.0374755859375,1.114044189453125,1,1.0,1.0,1.0,1.0,50.00
2021-04-17 22:01:57.596,0.2714146,0.2801693,0.33137336,0.3967492,0.25286487,-0.042119693,0.16660152,0.33324736,0.5485637,0.2684771,0.382789,0.47615245,0.31556156,0.2835922,0.18517488,0.52873015,0.13901024,0.0013605825,0.05265532,0.5070127,781.685,812.71063,785.7143,793.36993,776.04395,-0.2794189453125,0.0093994140625,0.9649658203125,5.031890869140625,-4.164581298828125,1.682281494140625,1,1.0,1.0,1.0,1.0,50.00
2021-04-17 22:01:58.098,0.34416327,0.6397281,0.48670045,0.49129227,0.17964025,0.2820418,0.2943384,0.49135494,0.6478472,0.3053093,0.5251061,0.78035897,0.37402675,0.30403483,0.2074893,0.6165718,0.14052889,-0.013798698,0.04841987,0.47859555,784.90845,792.1612,810.696,919.0842,832.4542,-0.2791748046875,0.010498046875,0.96258544921875,4.403839111328125,-5.465545654296875,0.3887939453125,1,1.0,1.0,1.0,1.0,50.00
2021-04-17 22:01:58.607,0.35684273,0.72421414,0.5877698,0.48661482,0.29407874,0.3451145,0.43171826,0.5310387,0.7343802,0.31442657,0.5645588,0.8757715,0.3955881,0.37152156,0.29526266,0.6520431,0.08661537,-0.082409285,-0.046628784,0.37579808,788.1319,790.54944,807.47253,726.8865,644.68866,-0.2825927734375,0.008056640625,0.96307373046875,4.673004150390625,-4.762725830078125,2.0635986328125,1,1.0,1.0,1.0,1.0,50.00
2021-04-17 22:01:59.117,0.33558047,0.6898303,0.5538668,0.37710398,0.2573685,0.43848377,0.46682376,0.50409603,0.7653667,0.33326083,0.55981165,0.8766918,0.37557563,0.3927005,0.29847065,0.6454663,0.07445567,-0.13142176,-0.081910804,0.25559923,805.8608,805.05493,810.293,672.8938,735.7509,-0.28131103515625,0.035888671875,0.95526123046875,14.13116455078125,-0.067291259765625,4.957122802734375,1,1.0,1.0,1.0,1.0,50.00
2021-04-17 22:01:59.635,0.41829377,0.5125149,0.4777771,0.39065474,0.3429703,0.34926328,0.3050274,0.44689074,0.7601498,0.26302505,0.45059958,0.84914076,0.44178936,0.36679515,0.315124,0.63355184,0.042073827,-0.1680789,-0.17919698,0.15620445,797.8022,798.60803,809.89014,848.97437,767.98535,-0.33551025390625,0.12457275390625,0.93304443359375,1.622467041015625,-2.609405517578125,5.802001953125,1,1.0,1.0,1.0,1.0,50.00
2021-04-17 22:02:00.140,0.61748344,0.47657594,0.6059695,0.3975482,0.30322835,0.40291816,0.18980673,0.5252264,0.50048435,0.5981027,0.27323025,0.5857682,0.52134484,0.305325,0.27831748,0.653236,0.02823252,-0.16347016,-0.13341004,0.19314593,764.35895,765.16486,774.0293,645.4945,594.7253,-0.338134765625,0.11529541015625,0.9443359375,3.162689208984375,-7.753448486328125,1.95892333984375,1,1.0,1.0,1.0,1.0,50.00
2021-04-17 22:02:00.649,0.7609773,0.7458884,0.8008617,0.6569167,0.51478523,0.40883613,0.54025245,0.6917834,0.61905515,0.64577484,0.56498873,0.7602873,0.57836145,0.37684402,0.26773638,0.6906078,-0.017175166,-0.10797331,-0.12597458,0.18363157,815.5311,769.59705,778.46155,770.0,843.3333,-0.3153076171875,0.11737060546875,0.938232421875,5.12908935546875,-4.493560791015625,0.725250244140625,1,1.0,1.0,1.0,1.0,50.00
2021-04-17 22:02:01.155,0.85543317,0.8771802,0.9276954,0.69635856,0.5522956,0.46737066,0.64074373,0.7325389,0.59528834,0.6856818,0.5835216,0.74254245,0.57780886,0.42511064,0.24847755,0.68727326,-0.031381655,-0.095795155,-0.11997155,0.2185131,786.52014,797.8022,792.96704,941.6484,1189.8535,-0.3048095703125,0.1004638671875,0.9505615234375,1.95892333984375,-4.912261962890625,0.94207763671875,1,1.0,1.0,1.0,1.0,50.00
2021-04-17 22:02:01.669,0.9413851,0.97784483,0.9502667,0.89981574,0.6876446,0.3660755,0.61340714,0.7891082,0.59360176,0.6238417,0.5856671,0.73552907,0.5341808,0.42816785,0.19867368,0.7477539,-0.043624204,-0.14208232,-0.19852996,0.22230668,785.7143,803.0403,803.8461,778.0586,598.3516,-0.31610107421875,0.0679931640625,0.947998046875,0.351409912109375,-5.121612548828125,3.51409912109375,1,1.0,1.0,1.0,1.0,50.00
2021-04-17 22:02:02.186,0.9413851,1.0124562,1.0692226,0.89981574,0.6876446,0.37723592,0.40969312,0.7891082,0.59360176,0.60103166,0.55373436,0.73552907,0.5341808,0.29195923,0.17689182,0.7477539,-0.043624204,-0.220466,-0.26420525,0.22230668,817.9487,796.1905,805.05493,676.1172,688.60803,-0.291015625,0.0576171875,0.954833984375,4.448699951171875,-7.020721435546875,-1.114044189453125,1,1.0,1.0,1.0,1.0,50.00
2021-04-17 22:02:02.713,0.8200038,0.98221517,0.9906308,1.0411073,0.18197307,0.19389427,0.3013284,0.1759409,-0.024065152,0.5417261,0.34313646,-0.2087664,0.22023298,0.31111905,0.18888538,0.57839817,-0.07598279,-0.11606142,-0.16172595,0.13260594,775.64105,787.72894,809.0842,783.69965,868.71796,-0.28759765625,0.03619384765625,0.9586181640625,3.985137939453125,-4.486083984375,-0.16448974609375,1,1.0,1.0,1.0,1.0,50.00
2021-04-17 22:02:03.217,0.739409,0.88248444,0.9413856,0.9616152,0.35846356,0.5005918,0.3118923,0.26394334,0.5856871,0.4651529,0.48962677,0.4978993,0.23400515,0.45058158,0.2672038,0.5553687,-0.18495472,-0.011508502,-0.07766278,0.12765902,794.57874,821.1722,827.619,934.7985,753.8828,-0.28253173828125,0.04608154296875,0.955078125,4.91973876953125,-5.360870361328125,1.801910400390625,1,1.0,1.0,1.0,1.0,50.00
2021-04-17 22:02:03.733,0.62392,0.76017857,0.6958481,0.47028807,0.30373585,0.4664533,0.2300928,0.28459615,0.753234,0.5240242,0.49150366,0.6209891,0.22852983,0.4770438,0.3727354,0.5603592,-0.07002766,-0.04533705,-0.06701489,0.14204295,837.28937,811.50183,823.5897,790.9524,651.53845,-0.27703857421875,0.0401611328125,0.96185302734375,4.344024658203125,-5.03936767578125,0.657958984375,1,1.0,1.0,1.0,1.0,50.00
2021-04-17 22:02:04.242,0.55938005,0.5681818,0.5675016,0.5136851,0.31774735,0.4827634,0.17812856,0.31517515,0.87668496,0.54867715,0.50536186,0.80397236,0.31752148,0.4707901,0.37525216,0.62253475,0.03410901,0.024350282,-0.037011523,0.26831433,840.10986,837.6923,836.4835,698.68134,704.3223,-0.2838134765625,0.0316162109375,0.9638671875,3.177642822265625,-6.392669677734375,-0.485992431640625,1,1.0,1.0,1.0,1.0,50.00
2021-04-17 22:02:04.757,0.5797454,0.7005949,0.5828481,0.64408576,0.32984647,0.48450297,0.37854162,0.4295902,0.92884225,0.5718506,0.6047715,1.0580342,0.4781587,0.42116645,0.32051617,0.6705325,0.16007788,0.1613464,0.11465047,0.39826927,799.011,804.2491,826.4103,852.6007,898.1319,-0.2646484375,0.031494140625,0.96917724609375,3.46923828125,-7.13287353515625,0.059814453125,1,1.0,1.0,1.0,1.0,50.00
2021-04-17 22:02:05.262,0.6391259,0.69766504,0.71918404,0.74864763,0.46163827,0.4895317,0.51743895,0.5327293,0.9237852,0.6111418,0.5226926,1.0286032,0.5221474,0.37996602,0.18957005,0.6460513,0.20650049,0.20463365,0.15049314,0.45977214,825.6044,834.4689,779.2674,693.0403,670.87915,-0.24420166015625,0.010009765625,0.97186279296875,3.820648193359375,-5.286102294921875,-1.084136962890625,1,1.0,1.0,1.0,1.0,50.00
2021-04-17 22:02:05.774,0.67473626,0.84665513,0.8841375,0.8024459,0.5137707,0.5223726,0.57456493,0.60185724,0.9215662,0.66557324,0.6581332,1.0286032,0.5366662,0.40843666,0.26834333,0.61774427,0.2929362,0.114622734,0.10429697,0.5030909,807.8755,795.78754,806.6667,859.0476,850.58606,-0.2470703125,0.01361083984375,0.9720458984375,4.912261962890625,-3.27484130859375,-0.179443359375,1,1.0,1.0,1.0,1.0,50.00
2021-04-17 22:02:06.278,0.77708775,0.83327436,0.8967529,0.79872054,0.5196728,0.49536484,0.56761324,0.58413124,0.6897352,0.6659712,0.6878534,0.5928924,0.41027114,0.42285475,0.34496024,0.46356207,0.30873114,-0.059635554,-0.08431451,0.42954504,726.08057,809.0842,794.9817,599.15753,545.9707,-0.28192138671875,0.0015869140625,0.95819091796875,4.044952392578125,-3.745880126953125,-1.906585693359375,1,1.0,1.0,1.0,1.0,50.00
2021-04-17 22:02:06.797,0.7922456,0.8775417,0.7728524,0.75146556,0.45819923,0.5460369,0.476691,0.5511749,0.57258934,0.5787349,0.6898366,0.5384981,0.38939252,0.3739854,0.33802152,0.4686935,0.34555918,-0.11216119,-0.11393178,0.43683606,794.57874,779.2674,790.9524,756.30035,840.9158,-0.26861572265625,0.00567626953125,0.97314453125,5.21881103515625,-4.792633056640625,1.906585693359375,1,1.0,1.0,1.0,1.0,50.00
2021-04-17 22:02:07.319,0.9611485,0.7114647,0.51272815,0.75146556,0.49487817,0.607388,0.34839222,0.5511749,0.50730556,0.5291573,0.562929,0.5384981,0.27236718,0.23359755,0.24415386,0.4686935,0.27091673,0.08264081,-0.042183083,0.43683606,774.83514,792.5641,807.8755,913.44324,848.1685,-0.26763916015625,-0.00726318359375,0.96630859375,4.0972900390625,-5.555267333984375,1.80938720703125,1,1.0,1.0,1.0,1.0,50.00
2021-04-17 22:02:07.846,0.9611485,0.5092761,0.43996537,0.75146556,0.49487817,0.44166285,0.14104417,0.5511749,0.50730556,0.30581436,0.3772951,0.5384981,0.27236718,0.22810829,0.14502555,0.4686935,0.27091673,0.06858048,-0.042928085,0.43683606,789.7436,803.0403,810.293,805.8608,627.76556,-0.26312255859375,-0.00579833984375,0.965087890625,4.66552734375,-4.314117431640625,0.2691650390625,1,1.0,1.0,1.0,1.0,50.00
2021-04-17 22:02:08.364,0.5432449,0.45914215,0.56008214,0.45798814,0.41870385,0.29852647,0.06532921,0.29364875,0.50901896,0.37604275,0.2190217,0.39904565,0.4250949,0.2109542,0.16345309,0.5665988,-0.036178127,-0.014318523,-0.11657654,0.13373975,811.9048,770.80585,777.25275,677.326,864.68866,-0.27227783203125,-0.00732421875,0.9669189453125,3.865509033203125,-4.85992431640625,-0.306549072265625,1,1.0,1.0,1.0,1.0,50.00
2021-04-17 22:02:08.879,0.7080725,0.6151955,0.62464404,0.4595188,0.5419397,0.027659168,0.27907097,0.43671194,0.6011833,0.31635785,0.27142832,0.4899228,0.4014985,0.16482432,0.18139218,0.58363473,-0.086335234,-0.06680311,-0.13989215,0.23500176,820.3663,804.2491,807.47253,694.2491,608.8278,-0.2716064453125,-0.006591796875,0.964111328125,6.422576904296875,-3.81317138671875,2.624359130859375,1,1.0,1.0,1.0,1.0,50.00
2021-04-17 22:02:09.384,0.8821432,0.75515896,0.69475067,0.69920105,0.5798239,0.09626475,0.37800592,0.47889534,0.6218859,0.3346615,0.4519104,0.6740511,0.3860104,0.15013942,0.17667565,0.5412271,-0.070005246,-0.048516396,-0.088481195,0.22344963,786.52014,808.2784,815.12823,921.9048,818.3516,-0.28326416015625,-0.0059814453125,0.96405029296875,4.44122314453125,-5.12908935546875,1.487884521484375,1,1.0,1.0,1.0,1.0,50.00
2021-04-17 22:02:09.887,0.8759964,0.97293997,0.7495986,0.81481683,0.42883417,0.53536505,0.45485568,0.4796367,0.6067653,0.58248943,0.4518859,0.6999109,0.4175053,0.2718334,0.1643404,0.60409415,0.043268844,0.048557285,-0.022925995,0.31828228,809.0842,784.5055,795.38464,771.2088,743.00366,-0.27911376953125,-0.00439453125,0.965576171875,5.62255859375,-4.66552734375,2.07855224609375,1,1.0,1.0,1.0,1.0,50.00
2021-04-17 22:02:10.402,0.68738526,0.98446447,0.80292684,0.75918686,0.08707394,0.60345894,0.35696295,0.4111716,0.60330695,0.57453984,0.45086825,0.7148821,0.54074186,0.2912306,0.21957538,0.64077103,0.10371719,0.050286945,0.0068515106,0.31715906,788.93774,794.57874,796.99634,643.47986,633.8095,-0.27947998046875,-0.0067138671875,0.9605712890625,4.17205810546875,-5.921630859375,0.777587890625,1,1.0,1.0,1.0,1.0,50.00
2021-04-17 22:02:10.924,0.5560961,0.95738024,0.6859426,0.6007513,0.088030964,0.582555,0.23818144,0.3864525,0.5983067,0.57453984,0.42121953,0.69012076,0.5265597,0.29537904,0.32953194,0.67808557,0.1302688,0.0819527,0.014249922,0.37900442,776.04395,790.9524,836.4835,863.8828,776.4469,-0.27288818359375,-3.0517578125E-4,0.966064453125,4.88983154296875,-3.529052734375,1.846771240234375,1,1.0,1.0,1.0,1.0,50.00
2021-04-17 22:02:11.448,0.497253,0.7289804,0.7895769,0.22990985,0.11388556,0.29638225,0.25725302,0.44160798,0.5321589,0.49222812,0.47338393,0.5199266,0.52020365,0.17160302,0.43050918,0.6211142,0.0626286,0.06357453,-0.060638715,0.37522805,778.86444,789.7436,806.26373,902.5641,856.63007,-0.2763671875,0.0015869140625,0.96185302734375,4.85992431640625,-4.299163818359375,0.725250244140625,1,1.0,1.0,1.0,1.0,50.00
2021-04-17 22:02:11.960,0.6171553,0.65838164,0.84459007,0.31333506,0.3054912,0.21186684,0.24159697,0.39866486,0.42564154,0.45038012,0.39344916,0.38415256,0.40895116,0.15345952,0.41434273,0.5266205,-0.014585381,0.012955848,-0.11744544,0.35539028,784.10254,805.05493,828.022,922.71063,764.35895,-0.27069091796875,0.00274658203125,0.96868896484375,4.403839111328125,-5.5029296875,-0.456085205078125,1,1.0,1.0,1.0,1.0,50.00
2021-04-17 22:02:12.471,0.6831898,0.6721365,0.8536553,0.34000224,0.29391244,0.12221216,0.25549877,0.2461461,0.36087504,0.43858865,0.40471485,0.41793364,0.36456808,0.14703378,0.3524246,0.5379799,-0.12865612,-0.06493719,-0.08853472,0.24098721,812.71063,801.8315,818.3516,811.50183,799.011,-0.2685546875,-0.01544189453125,0.96478271484375,4.77020263671875,-4.388885498046875,1.24114990234375,1,1.0,1.0,1.0,1.0,50.00
2021-04-17 22:02:12.992,0.61875254,0.6398136,0.74604195,0.40335798,0.22895905,0.1054036,0.14702079,0.038723424,0.37750542,0.34820783,0.22939222,0.38344,0.4050442,0.16503526,0.2636146,0.61001635,-0.2603429,-0.16796982,-0.03260356,0.1376067,797.3993,815.5311,818.7546,865.09155,853.4066,-0.26763916015625,-0.00531005859375,0.96734619140625,4.777679443359375,-4.44122314453125,2.205657958984375,1,1.0,1.0,1.0,1.0,50.00
2021-04-17 22:02:13.522,0.7755096,0.90579,0.676127,0.7528467,0.1047453,0.47954965,0.07363487,0.096722685,0.50468004,0.41775575,0.16557682,0.6139931,0.4285712,0.1818154,0.17838031,0.61682576,-0.18035387,-0.24265496,-0.0105891675,0.08168001,795.38464,801.4286,825.2015,905.38464,759.92676,-0.2659912109375,-3.0517578125E-4,0.96343994140625,5.824432373046875,-1.68975830078125,0.650482177734375,1,1.0,1.0,1.0,1.0,50.00
2021-04-17 22:02:14.034,0.7866749,0.9129288,0.38186505,0.7732244,0.18094143,0.5580655,-0.43675622,0.26709443,0.50162995,0.3464,0.12905209,0.66805875,0.4814052,0.19151601,0.21798562,0.6477243,-0.08563706,-0.3183188,-0.14179024,0.09750513,807.47253,782.0879,803.0403,713.1868,676.52014,-0.39959716796875,0.1378173828125,0.9310302734375,4.358978271484375,0.3887939453125,4.224395751953125,1,1.0,1.0,1.0,1.0,50.00
2021-04-17 22:02:14.558,0.96259165,1.1665654,0.4672972,0.86390775,0.22655535,0.7595584,-0.2979347,0.3798579,0.50162995,0.33184546,0.01922768,0.6708268,0.42434126,0.2642752,0.21056636,0.57585126,-0.013389833,-0.28965703,-0.27059,0.16725749,764.35895,777.6557,777.6557,664.0293,697.0696,-0.4034423828125,0.077392578125,0.92071533203125,1.86920166015625,-12.628326416015625,2.011260986328125,1,1.0,1.0,1.0,1.0,50.00
2021-04-17 22:02:15.083,0.93798435,1.1939377,0.4672972,0.678509,0.23126101,0.77996147,-0.2979347,0.4251657,0.26027396,0.3213073,0.01922768,0.31979087,0.47645417,0.28051928,0.21056636,0.61867946,-0.032198563,-0.27786544,-0.27059,0.17048219,829.2308,795.78754,800.6227,695.05493,769.19415,-0.3057861328125,0.05096435546875,0.94586181640625,3.15521240234375,-8.426361083984375,4.867401123046875,1,1.0,1.0,1.0,1.0,50.00
2021-04-17 22:02:15.601,1.0475682,1.1939377,0.92410564,0.81651086,0.118853025,0.77996147,0.51671094,0.38783422,0.037171952,0.3213073,0.3618528,0.2525133,0.4712991,0.28051928,0.37080604,0.5403841,-0.13311261,-0.27786544,0.0019805203,0.2402549,770.40295,772.8205,786.1172,811.0989,800.6227,-0.3304443359375,0.0408935546875,0.93359375,4.538421630859375,-2.87109375,-2.4224853515625,1,1.0,1.0,1.0,1.0,50.00
2021-04-17 22:02:16.120,1.0475682,1.1939377,0.92410564,0.81651086,0.118853025,0.77996147,0.51671094,0.38783422,0.037171952,0.3213073,0.3618528,0.2525133,0.4712991,0.28051928,0.37080604,0.5403841,-0.13311261,-0.27786544,0.0019805203,0.2402549,803.8461,812.3077,831.2454,921.9048,793.7729,-0.319580078125,0.056640625,0.94805908203125,3.93280029296875,-4.4561767578125,-0.904693603515625,1,1.0,1.0,1.0,1.0,50.00
2021-04-17 22:02:16.621,1.0475682,1.1939377,1.1370875,0.81651086,0.118853025,0.77996147,0.7789886,0.38783422,0.037171952,0.3213073,0.4339703,0.2525133,0.4712991,0.28051928,0.4562022,0.5403841,-0.13311261,-0.27786544,0.03991427,0.2402549,792.96704,782.8938,803.0403,726.8865,705.12823,-0.33306884765625,0.04840087890625,0.9481201171875,4.59075927734375,-4.486083984375,0.49346923828125,1,1.0,1.0,1.0,1.0,50.00
