TimeStamp,Delta_TP9,Delta_AF7,Delta_AF8,Delta_TP10,Theta_TP9,Theta_AF7,Theta_AF8,Theta_TP10,Alpha_TP9,Alpha_AF7,Alpha_AF8,Alpha_TP10,Beta_TP9,Beta_AF7,Beta_AF8,Beta_TP10,Gamma_TP9,Gamma_AF7,Gamma_AF8,Gamma_TP10,RAW_TP9,RAW_AF7,RAW_AF8,RAW_TP10,AUX_RIGHT,Accelerometer_X,Accelerometer_Y,Accelerometer_Z,Gyro_X,Gyro_Y,Gyro_Z,HeadBandOn,HSI_TP9,HSI_AF7,HSI_AF8,HSI_TP10,Battery,Elements
2021-04-10 22:33:53.152,1.1856135,0.24907671,0.45875305,0.86949766,0.71105516,0.3106017,-0.22418384,0.53298646,0.49641052,0.3174647,0.22284998,0.62312305,0.29700842,0.9107913,0.10017379,0.4259686,-0.15813734,0.69307154,-0.41604626,0.29157758,787.326,781.685,795.78754,786.52014,693.0403,0.06982421875,-0.1783447265625,0.98736572265625,4.194488525390625,-4.702911376953125,0.575714111328125,1,1.0,1.0,1.0,1.0,70.00
2021-04-10 22:33:53.661,1.1819139,0.24907671,0.24783279,0.8413511,0.76509136,0.3106017,-0.12331787,0.51738137,0.71683824,0.3174647,0.26434642,0.7471431,0.29274818,0.9107913,-0.06439975,0.49771988,-0.13100591,0.69307154,-0.32575333,0.27072296,770.40295,867.1062,793.36993,783.69965,639.0476,0.0687255859375,-0.1732177734375,0.98773193359375,4.29168701171875,-2.1533203125,0.73272705078125,1,1.0,1.0,1.0,1.0,70.00
2021-04-10 22:33:54.170,1.1411871,0.24907671,0.32979387,0.8218632,0.7522848,0.3106017,0.10183464,0.5505239,0.93754935,0.3174647,0.2806609,0.8011982,0.4238761,0.9107913,-0.0997085,0.52615684,-0.1618634,0.69307154,-0.32512212,0.26325938,757.1062,829.6337,800.6227,803.8461,745.42126,0.03314208984375,-0.17822265625,0.97857666015625,5.682373046875,-4.792633056640625,-12.57598876953125,1,1.0,1.0,1.0,1.0,70.00
2021-04-10 22:33:54.678,1.1174457,0.24907671,0.35909086,0.7818779,0.7936527,0.3106017,0.16023396,0.7653327,0.93589103,0.3174647,0.252782,0.88469154,0.479182,0.9107913,-0.14247657,0.5962794,-0.17160265,0.69307154,-0.40358275,0.21177593,819.5604,815.9341,802.6374,814.3223,744.21246,0.14471435546875,-0.101318359375,0.96270751953125,9.67498779296875,-10.923614501953125,-8.553466796875,1,1.0,1.0,1.0,1.0,70.00
2021-04-10 22:33:55.195,1.0602314,0.24907671,0.465839,1.1047698,0.7683918,0.3106017,0.21797106,1.0452994,0.93589103,0.3174647,0.24637677,1.1070856,0.5922121,0.9107913,-0.06728083,0.66471756,-0.2412395,0.69307154,-0.46775213,0.18474701,784.90845,844.1392,790.9524,787.72894,660.80585,0.0732421875,0.022705078125,0.986572265625,6.57958984375,4.90478515625,-31.170806884765625,1,1.0,1.0,1.0,1.0,70.00
2021-04-10 22:33:55.698,1.0547849,0.24907671,0.34689,1.1475064,0.88356674,0.3106017,0.21340524,1.1006078,0.91301614,0.3174647,-0.073167086,1.1167005,0.62701446,0.9107913,-0.05880655,0.6943736,-0.18427572,0.69307154,-0.494818,0.13691175,798.60803,779.2674,804.2491,811.0989,725.6777,-0.05517578125,-0.0072021484375,1.00946044921875,-0.665435791015625,4.059906005859375,-16.650848388671875,1,1.0,1.0,1.0,1.0,70.00
2021-04-10 22:33:56.207,1.3249654,0.24907671,0.5820408,1.110469,0.9548519,0.3106017,0.26548916,0.9938233,0.53358924,0.3174647,-0.035271995,1.1030799,0.500815,0.9107913,0.01576505,0.7585044,-0.23346102,0.69307154,-0.5243412,0.27148655,782.0879,837.28937,811.0989,802.23444,594.3223,-0.05810546875,-0.03546142578125,1.00494384765625,-3.626251220703125,9.7796630859375,-14.84893798828125,1,1.0,1.0,1.0,1.0,70.00
2021-04-10 22:33:56.734,1.2452519,0.24907671,0.6922033,0.76635987,0.84227276,0.3106017,0.17420243,0.62728345,0.5373542,0.3174647,0.018571788,1.0140755,0.5022918,0.9107913,0.010903939,0.6861148,-0.2353922,0.69307154,-0.608474,0.22415765,773.6264,857.8388,834.87177,797.3993,718.8278,-0.18634033203125,-0.0843505859375,0.97076416015625,3.043060302734375,-1.906585693359375,-5.30853271484375,1,1.0,1.0,1.0,1.0,70.00
2021-04-10 22:33:57.235,1.2635142,0.24907671,0.8495431,0.6359052,0.7377467,0.3106017,0.04451154,0.36463585,0.37342745,0.3174647,-0.023518018,0.5997182,0.43835455,0.9107913,0.10941961,0.62210417,-0.2793896,0.69307154,-0.6584905,0.13707733,787.326,790.14655,811.0989,803.44324,847.3626,-0.21417236328125,-0.0794677734375,1.0028076171875,3.566436767578125,-6.759033203125,-14.46014404296875,1,1.0,1.0,1.0,1.0,70.00
2021-04-10 22:33:57.746,1.086361,0.24907671,0.8399495,0.64125377,0.5063827,0.3106017,0.19630075,0.20167704,0.4367538,0.3174647,0.10723533,0.46356282,0.4162881,0.9107913,0.18054225,0.42402315,-0.18072562,0.69307154,-0.53033817,-0.097926006,789.34064,819.15753,788.5348,803.0403,792.96704,-0.07049560546875,-0.12603759765625,0.98822021484375,6.033782958984375,-9.129180908203125,-10.235748291015625,1,1.0,1.0,1.0,1.0,70.00
2021-04-10 22:33:58.261,1.0823318,0.24907671,1.1610205,0.56524456,0.43254006,0.3106017,0.6488208,0.1928224,0.4342514,0.3174647,0.21378583,0.5138692,0.36998948,0.9107913,0.11636632,0.3446323,-0.15020302,0.69307154,-0.25418022,-0.07787305,796.5934,877.5824,799.011,807.8755,788.5348,-0.0499267578125,-0.07366943359375,1.000732421875,13.65264892578125,-1.7047119140625,6.83380126953125,1,1.0,1.0,1.0,1.0,70.00
2021-04-10 22:33:58.768,0.93534577,0.24907671,1.1211985,0.503193,0.47612473,0.3106017,0.56580335,0.25304317,0.35220993,0.3174647,0.54012275,0.46474725,0.4583959,0.9107913,0.0665389,0.27299365,-0.066702545,0.69307154,-0.306146,-0.070703596,800.6227,804.2491,784.10254,830.4396,820.7692,-0.0692138671875,-0.061767578125,0.98992919921875,-0.11962890625,-5.4132080078125,-11.267547607421875,1,1.0,1.0,1.0,1.0,70.00
2021-04-10 22:33:59.296,1.0328914,0.24907671,1.1354941,0.37006834,0.44012743,0.3106017,0.65504086,0.34218082,0.13926229,0.3174647,0.62646365,0.40841484,0.43299296,0.9107913,0.07777527,0.2411149,-0.096477054,0.69307154,-0.2673658,-0.02678511,819.5604,814.7253,799.41394,795.38464,712.381,0.01812744140625,-0.0592041015625,0.99932861328125,7.514190673828125,-11.626434326171875,4.85992431640625,1,1.0,1.0,1.0,1.0,70.00
2021-04-10 22:33:59.817,1.0328914,0.24907671,0.95402384,0.15064669,0.44012743,0.3106017,0.51052606,0.4116135,0.13926229,0.3174647,0.626108,0.0950223,0.43299296,0.9107913,0.16004902,0.11705634,-0.096477054,0.69307154,-0.262085,-0.019818967,825.6044,814.3223,801.02563,809.4872,780.07324,0.02740478515625,-0.03369140625,1.01068115234375,2.011260986328125,-5.689849853515625,0.13458251953125,1,1.0,1.0,1.0,1.0,70.00
2021-04-10 22:34:00.330,1.0328914,0.24907671,0.90260684,0.15064669,0.44012743,0.3106017,0.51102954,0.4116135,0.13926229,0.3174647,0.5782879,0.0950223,0.43299296,0.9107913,0.22940443,0.11705634,-0.096477054,0.69307154,-0.18117236,-0.019818967,795.38464,811.9048,809.4872,799.011,764.7619,0.03790283203125,-0.04541015625,1.003173828125,4.56085205078125,-7.723541259765625,5.1141357421875,1,1.0,1.0,1.0,1.0,70.00
2021-04-10 22:34:00.835,1.0328914,0.24907671,0.8977919,0.15064669,0.44012743,0.3106017,0.32492635,0.4116135,0.13926229,0.3174647,0.39974585,0.0950223,0.43299296,0.9107913,0.25128007,0.11705634,-0.096477054,0.69307154,-0.119696476,-0.019818967,677.326,858.24176,808.68134,676.52014,716.4103,0.04888916015625,-0.0465087890625,0.99774169921875,4.80010986328125,-5.86181640625,4.8748779296875,1,1.0,1.0,1.0,1.0,70.00
2021-04-10 22:34:01.350,1.0328914,0.24907671,0.92461836,0.15064669,0.44012743,0.3106017,0.30380607,0.4116135,0.13926229,0.3174647,0.40957806,0.0950223,0.43299296,0.9107913,0.22531098,0.11705634,-0.096477054,0.69307154,-0.023242839,-0.019818967,802.23444,807.0696,792.1612,811.50183,796.5934,0.04693603515625,-0.05047607421875,1.0001220703125,2.953338623046875,-4.246826171875,-0.55328369140625,1,2.0,1.0,1.0,2.0,70.00
2021-04-10 22:34:01.852,1.0328914,0.24907671,0.8572361,0.15064669,0.44012743,0.3106017,0.19567968,0.4116135,0.13926229,0.3174647,0.34933776,0.0950223,0.43299296,0.9107913,0.25917423,0.11705634,-0.096477054,0.69307154,-0.054444477,-0.019818967,818.3516,820.3663,778.86444,805.8608,721.6484,-0.004150390625,-0.11846923828125,0.9857177734375,-1.45050048828125,0.037384033203125,-0.216827392578125,1,2.0,1.0,1.0,2.0,70.00
2021-04-10 22:34:02.359,1.0328914,0.24907671,0.72266835,0.15064669,0.44012743,0.3106017,0.023486646,0.4116135,0.13926229,0.3174647,0.4113862,0.0950223,0.43299296,0.9107913,0.27506018,0.11705634,-0.096477054,0.69307154,-0.14779946,-0.019818967,790.9524,826.4103,817.1429,801.02563,745.0183,0.03302001953125,-0.10260009765625,0.9974365234375,5.93658447265625,-5.93658447265625,1.233673095703125,1,2.0,1.0,1.0,2.0,70.00
2021-04-10 22:34:02.875,0.83596015,0.24907671,0.8248207,-0.1741856,0.45431426,0.3106017,-0.05072214,0.16893467,0.5143944,0.3174647,0.37298045,0.4222305,0.35424358,0.9107913,0.30476922,0.18518396,-0.24590498,0.69307154,-0.26074785,-0.12745942,823.9927,813.5165,783.2967,805.8608,895.7143,0.033935546875,-0.10198974609375,1.00189208984375,4.11224365234375,-4.687957763671875,0.07476806640625,1,1.0,1.0,1.0,1.0,70.00
2021-04-10 22:34:03.403,0.7487914,0.24907671,0.8668134,-0.07652764,0.40203476,0.3106017,0.081828535,0.24681477,0.8492625,0.3174647,0.26139247,0.7063886,0.29639205,0.9107913,0.21324396,0.18073818,-0.20776111,0.69307154,-0.20281732,-0.05054114,789.7436,843.3333,796.5934,793.36993,716.8132,0.0340576171875,-0.10723876953125,0.99346923828125,3.87298583984375,-5.181427001953125,1.577606201171875,1,1.0,1.0,1.0,1.0,70.00
2021-04-10 22:34:03.931,0.81481403,0.24907671,0.8040976,-0.06758173,0.41978925,0.3106017,0.37140074,0.28497753,0.83663946,0.3174647,0.20608014,0.6874029,0.24792783,0.9107913,0.19937007,0.13888507,-0.21074967,0.69307154,-0.19473006,-0.025608724,813.5165,835.6777,792.5641,819.9634,672.49084,0.027587890625,-0.10723876953125,1.000732421875,4.97955322265625,-5.15899658203125,2.1533203125,1,1.0,1.0,1.0,1.0,70.00
2021-04-10 22:34:04.458,0.5348465,0.24907671,0.7577005,0.04477035,0.2919717,0.3106017,0.5336774,0.34810328,0.8228856,0.3174647,0.41265848,0.62795585,0.17182755,0.9107913,0.2282025,0.1735289,-0.14814271,0.69307154,-0.2168533,0.049726322,786.52014,810.696,810.696,819.9634,760.7326,0.025390625,-0.1041259765625,0.99798583984375,4.53094482421875,-3.506622314453125,1.158905029296875,1,1.0,1.0,1.0,1.0,70.00
2021-04-10 22:34:04.984,0.5348465,0.24907671,0.7932431,0.10033328,0.2919717,0.3106017,0.6626202,0.364631,0.8228856,0.3174647,0.41265848,0.62795585,0.17182755,0.9107913,0.28121683,0.18535115,-0.14814271,0.69307154,-0.28355783,0.06882246,772.4176,850.18317,803.8461,812.71063,810.293,0.03076171875,-0.1083984375,0.99822998046875,3.57391357421875,-4.80010986328125,-0.306549072265625,1,1.0,1.0,1.0,1.0,70.00
2021-04-10 22:34:05.509,0.9822118,0.24907671,0.8582433,0.4373231,0.3592686,0.3106017,0.2989152,0.40477943,0.49150097,0.3174647,0.36680585,0.44798982,0.53849524,0.9107913,0.13710205,0.4495428,-0.20035277,0.69307154,-0.47553456,-0.022572307,800.6227,781.28204,810.293,807.47253,835.2747,0.03765869140625,-0.10882568359375,0.994873046875,4.598236083984375,-4.91973876953125,1.218719482421875,1,1.0,1.0,1.0,1.0,70.00
2021-04-10 22:34:06.029,0.9733223,0.24907671,0.7620154,0.43725646,0.32246748,0.3106017,0.16568843,0.35100907,0.5640537,0.3174647,0.24444543,0.54086125,0.5186042,0.9107913,0.022743333,0.41676375,-0.20064622,0.69307154,-0.351087,-0.05676228,814.7253,832.0513,796.99634,826.0073,750.2564,0.03912353515625,-0.11187744140625,0.99493408203125,4.254302978515625,-4.0972900390625,1.51031494140625,1,1.0,1.0,1.0,1.0,70.00
2021-04-10 22:34:06.536,0.92591655,0.24907671,0.6455871,0.371742,0.24435997,0.3106017,0.295193,0.16423544,0.4138928,0.3174647,0.31457323,0.5142902,0.48502654,0.9107913,0.042663336,0.314055,-0.21950129,0.69307154,-0.19824888,-0.18893777,792.5641,809.89014,794.57874,801.02563,713.9927,0.03912353515625,-0.12164306640625,0.9940185546875,3.252410888671875,-4.35150146484375,-0.2691650390625,1,1.0,1.0,1.0,1.0,70.00
2021-04-10 22:34:07.049,1.0121926,0.24907671,0.3741043,0.34421813,0.18107672,0.3106017,0.28167483,-0.07581863,0.31362596,0.3174647,0.30071473,0.36796895,0.44585392,0.9107913,-0.0028889051,0.23881671,-0.17283605,0.69307154,-0.20571332,-0.2569742,821.978,802.6374,804.65204,797.8022,796.1905,0.0369873046875,-0.13189697265625,0.99847412109375,4.448699951171875,-4.493560791015625,0.94207763671875,1,1.0,1.0,1.0,1.0,70.00
2021-04-10 22:34:07.559,1.0121926,0.24907671,0.16201589,0.42129132,0.18107672,0.3106017,0.2385055,0.07421175,0.31362596,0.3174647,0.28010535,0.7990625,0.44585392,0.9107913,-0.023092251,0.24993695,-0.17283605,0.69307154,-0.17999974,-0.21567433,803.0403,822.381,793.7729,799.41394,723.2601,0.0438232421875,-0.12908935546875,0.99462890625,4.358978271484375,-4.104766845703125,0.904693603515625,1,1.0,1.0,1.0,1.0,70.00
2021-04-10 22:34:08.067,1.0121926,0.23075984,0.27586344,0.399948,0.18107672,0.23528305,0.017117482,0.06552814,0.31362596,0.60852873,0.1408488,0.7990625,0.44585392,1.1763928,0.01452421,0.21531416,-0.17283605,0.82455593,-0.2560347,-0.16517046,834.87177,801.8315,798.60803,832.0513,717.2161,0.0360107421875,-0.126220703125,0.994384765625,3.955230712890625,-4.1571044921875,0.844879150390625,1,1.0,1.0,1.0,1.0,70.00
2021-04-10 22:34:08.599,1.0121926,0.23075984,0.5098453,0.39467475,0.18107672,0.23528305,0.048564877,0.08653835,0.31362596,0.60852873,0.40999836,0.72534966,0.44585392,1.1763928,0.09259813,0.19086315,-0.17283605,0.82455593,-0.07004616,-0.13630265,807.47253,806.6667,805.8608,809.4872,787.326,0.03704833984375,-0.1334228515625,0.99755859375,4.194488525390625,-4.358978271484375,0.94207763671875,1,1.0,1.0,1.0,1.0,70.00
2021-04-10 22:34:09.123,1.0121926,0.22763483,0.60573804,0.32795015,0.18107672,0.254999,9.2868606E-4,0.098925695,0.31362596,0.37956294,0.3274997,0.3049185,0.44585392,1.156409,0.17429048,0.15200716,-0.17283605,0.6732227,0.053152077,-0.062805675,794.57874,834.87177,800.6227,800.6227,660.40295,0.0340576171875,-0.13812255859375,0.993896484375,4.366455078125,-4.8748779296875,0.216827392578125,1,1.0,1.0,1.0,1.0,70.00
2021-04-10 22:34:09.649,1.1086323,0.21769041,0.6331377,0.4498799,0.68226516,0.29957414,0.052545387,0.0028214736,0.55221236,0.33372796,0.49580267,0.45178115,0.39131126,1.1321754,0.1564863,0.30461976,-0.099692896,0.76423657,0.08382821,-0.15612718,804.2491,768.3883,801.8315,799.41394,961.39197,0.04510498046875,-0.14013671875,0.99530029296875,4.65057373046875,-4.71038818359375,0.605621337890625,1,1.0,1.0,1.0,1.0,70.00
2021-04-10 22:34:10.177,0.9217014,0.21769041,0.65418446,0.3700794,0.57963556,0.29957414,0.15846123,0.50931597,0.56946456,0.33372796,0.5313205,0.5827649,0.24835898,1.1321754,0.093145184,0.3451414,-0.16374853,0.76423657,0.024430959,-0.1420777,799.81683,819.5604,797.3993,817.9487,841.31866,0.04620361328125,-0.136962890625,0.994140625,4.598236083984375,-4.7552490234375,0.76263427734375,1,1.0,1.0,1.0,1.0,70.00
2021-04-10 22:34:10.698,0.7883321,0.21769041,0.55221725,0.22859487,0.47990274,0.29957414,0.19617102,0.42568013,0.64781,0.33372796,0.5313205,0.58515847,0.27753672,1.1321754,0.022802928,0.32248524,-0.22380261,0.76423657,-0.10415176,-0.2080127,813.5165,817.9487,811.9048,803.0403,740.18317,0.05828857421875,-0.143798828125,0.9874267578125,3.99261474609375,-4.822540283203125,1.12152099609375,1,1.0,1.0,1.0,1.0,70.00
2021-04-10 22:34:11.216,0.6371172,0.21769041,0.57035655,0.096284,0.32403243,0.29957414,0.15390763,0.45857576,0.52896833,0.33372796,0.51126766,0.51913875,0.31504548,1.1321754,-0.017584706,0.30710462,-0.21582067,0.76423657,-0.11337335,-0.27478844,816.7399,815.9341,797.3993,824.3956,756.30035,0.046875,-0.14404296875,0.99053955078125,4.418792724609375,-4.314117431640625,0.8074951171875,1,1.0,1.0,1.0,1.0,70.00
2021-04-10 22:34:11.719,0.6921345,0.21769041,0.5861493,-0.045681793,0.19204192,0.29957414,0.2905969,0.14546086,0.5251334,0.33372796,0.32789132,0.07766585,0.4420591,1.1321754,0.06422612,0.29659957,-0.17279004,0.76423657,-0.071326174,-0.3509519,801.4286,834.0659,807.0696,809.4872,722.4542,0.05682373046875,-0.14697265625,0.9913330078125,4.844970703125,-4.66552734375,1.368255615234375,1,1.0,1.0,1.0,1.0,70.00
2021-04-10 22:34:12.224,0.8431158,0.21769041,0.6150612,0.105346926,0.18008614,0.29957414,0.31193188,0.11679843,0.4582913,0.33372796,0.35897863,-0.31587052,0.5173241,1.1321754,0.16252433,0.31720895,-0.03206292,0.76423657,-0.09888973,-0.3583526,821.1722,816.7399,807.8755,809.89014,823.9927,0.06317138671875,-0.144287109375,0.99298095703125,4.478607177734375,-4.867401123046875,0.37384033203125,1,1.0,1.0,1.0,1.0,70.00
2021-04-10 22:34:12.740,0.41502556,0.21769041,0.7378515,0.4943625,0.4302957,0.29957414,0.5597547,0.22378346,0.7311568,0.33372796,0.48073283,0.44211167,0.07231508,1.1321754,0.19369124,0.27827016,-0.3035326,0.76423657,-0.1348111,-0.16439296,798.20514,811.50183,798.60803,801.8315,787.326,0.0621337890625,-0.146728515625,0.9910888671875,4.366455078125,-4.104766845703125,0.740203857421875,1,1.0,1.0,1.0,1.0,70.00
2021-04-10 22:34:13.244,0.53515244,0.21769041,0.6464912,0.46477562,0.5555933,0.29957414,0.4714775,0.23761354,0.91427404,0.33372796,0.49717158,0.781602,0.17229897,1.1321754,0.19560012,0.21670333,-0.28164545,0.76423657,-0.2734875,-0.2682758,812.71063,870.7326,804.2491,804.65204,763.1502,0.06378173828125,-0.14605712890625,0.99273681640625,4.493560791015625,-4.194488525390625,0.79254150390625,1,1.0,1.0,1.0,1.0,70.00
2021-04-10 22:34:13.752,0.5225805,0.21769041,0.60986656,0.4505481,0.54562587,0.29957414,0.43017772,0.34279183,0.91427404,0.33372796,0.49717158,0.8197463,0.22435367,1.1321754,0.15748905,0.17677781,-0.21431956,0.76423657,-0.3699738,-0.31209484,799.81683,804.65204,796.1905,804.2491,666.04395,0.06591796875,-0.14599609375,0.98944091796875,4.8748779296875,-4.852447509765625,1.263580322265625,1,1.0,1.0,1.0,1.0,70.00
2021-04-10 22:34:14.286,0.58738345,0.21769041,0.19013922,0.36139008,0.6181287,0.29957414,0.006834246,0.2508579,0.90230685,0.33372796,0.18250863,0.8197463,0.28205025,1.1321754,0.11155274,0.15751907,-0.1841595,0.76423657,-0.40333658,-0.41894695,807.47253,808.2784,799.81683,813.1135,754.68866,0.06610107421875,-0.14532470703125,0.99078369140625,4.613189697265625,-4.5159912109375,1.09161376953125,1,1.0,1.0,1.0,1.0,70.00
2021-04-10 22:34:14.811,0.90214896,0.21769041,0.08520649,0.19456354,0.6028497,0.29957414,-0.055567984,0.44476524,0.8215152,0.33372796,0.23227581,0.92835414,0.2834942,1.1321754,0.059199363,0.22619267,-0.14608611,0.76423657,-0.41112512,-0.49711603,817.9487,824.3956,803.44324,817.9487,716.8132,0.06298828125,-0.152099609375,0.996337890625,4.224395751953125,-4.284210205078125,0.76263427734375,1,1.0,1.0,1.0,1.0,70.00
2021-04-10 22:34:15.337,1.1524308,0.21769041,0.56600314,-0.045593128,0.6676445,0.29957414,0.47571644,0.57587206,0.9047871,0.33372796,0.5171742,0.91769683,0.2760244,1.1321754,-0.019827846,0.30269504,-0.1569155,0.76423657,-0.4260844,-0.57527333,816.337,815.12823,804.2491,803.44324,790.9524,0.06103515625,-0.15399169921875,0.987548828125,3.4393310546875,-3.581390380859375,1.338348388671875,1,1.0,1.0,1.0,1.0,70.00
2021-04-10 22:34:15.845,1.3620877,0.21769041,0.5953571,-0.16975775,0.7390992,0.29957414,0.518837,0.8392539,0.8612127,0.33372796,0.5171742,0.88627684,0.28533283,1.1321754,-0.061116453,0.3520135,-0.15598825,0.76423657,-0.40141523,-0.67682415,823.9927,846.1539,815.5311,817.1429,733.73627,0.053466796875,-0.1640625,0.9888916015625,4.478607177734375,-4.732818603515625,2.79632568359375,1,1.0,1.0,1.0,1.0,70.00
2021-04-10 22:34:16.372,1.4292614,0.21769041,0.60168856,-0.13147914,0.8074132,0.29957414,0.44732082,0.9051394,0.85902274,0.33372796,0.45976925,0.88578135,0.3144494,1.1321754,-0.012166539,0.36601278,-0.18767527,0.76423657,-0.44067255,-0.66914517,816.7399,797.8022,800.6227,804.2491,763.95605,0.0467529296875,-0.1715087890625,0.9873046875,3.476715087890625,-4.42626953125,0.11962890625,1,1.0,1.0,1.0,1.0,70.00
2021-04-10 22:34:16.888,-0.041022103,0.21769041,0.25312877,-0.31597793,0.4110264,0.29957414,-0.10921561,0.14387563,0.43953335,0.33372796,0.2659189,0.2622065,0.18440391,1.1321754,0.056781657,0.14004618,-0.28403974,0.76423657,-0.39320952,-0.4550963,814.7253,844.94507,788.5348,788.5348,686.1905,0.0594482421875,-0.1805419921875,0.9896240234375,4.284210205078125,-3.57391357421875,0.022430419921875,1,1.0,1.0,1.0,1.0,70.00
2021-04-10 22:34:17.407,0.07260806,0.21769041,0.4944104,-0.13585989,0.39250866,0.29957414,0.17280677,0.1007604,0.44201875,0.33372796,0.4683263,0.26275527,0.18328857,1.1321754,0.09535393,0.14737396,-0.29987466,0.76423657,-0.40946174,-0.43258542,809.4872,826.4103,792.1612,805.8608,701.9048,0.052001953125,-0.17822265625,0.9864501953125,4.14215087890625,-4.329071044921875,1.069183349609375,1,1.0,1.0,1.0,1.0,70.00
2021-04-10 22:34:17.919,0.07058802,0.21769041,0.6787263,-0.12616582,0.43709937,0.29957414,0.31926554,0.13908269,0.17724349,0.33372796,0.4683263,0.20568113,0.14337006,1.1321754,0.04749088,0.051164348,-0.3036398,0.76423657,-0.33508414,-0.45938534,800.6227,794.9817,805.8608,812.3077,842.52747,0.04620361328125,-0.19012451171875,0.98651123046875,3.45428466796875,-4.329071044921875,1.233673095703125,1,1.0,1.0,1.0,1.0,70.00
2021-04-10 22:34:18.447,0.22182989,0.21769041,0.80816907,0.044357963,0.28750718,0.29957414,0.49127802,0.033924423,0.09125044,0.33372796,0.4683263,0.18498379,0.16031347,1.1321754,-0.0036624074,0.1228462,-0.33110237,0.76423657,-0.33113006,-0.4251567,801.8315,814.7253,811.50183,799.011,730.10986,0.05413818359375,-0.1915283203125,0.9842529296875,4.568328857421875,-4.47113037109375,0.9869384765625,1,1.0,1.0,1.0,1.0,70.00
2021-04-10 22:34:18.964,0.53127223,0.21769041,0.65804833,-0.037746243,0.5137685,0.29957414,0.062525876,0.2275334,0.17344213,0.33372796,0.18122877,0.004633914,0.07708923,1.1321754,-0.0084341895,0.0095038125,-0.52491575,0.76423657,-0.1390512,-0.37907112,814.7253,797.3993,813.5165,819.9634,759.5238,0.05218505859375,-0.1861572265625,0.98370361328125,4.149627685546875,-4.59075927734375,0.897216796875,1,1.0,1.0,1.0,1.0,70.00
2021-04-10 22:34:19.475,0.4046668,0.21769041,0.5626116,-0.007994913,0.45214573,0.29957414,0.16694781,0.12167355,0.2199112,0.33372796,0.2740712,0.35194692,0.12665981,1.1321754,0.089930326,0.09667901,-0.48830718,0.76423657,-0.16412643,-0.33466762,807.0696,810.696,807.47253,802.23444,805.8608,0.05426025390625,-0.1893310546875,0.98828125,4.246826171875,-4.23187255859375,0.35888671875,1,1.0,1.0,1.0,1.0,70.00
2021-04-10 22:34:19.991,0.3149832,0.21769041,0.7911441,0.14854829,0.35430402,0.29957414,0.29872125,0.112059645,0.2238695,0.33372796,0.369056,0.4198509,0.13669117,1.1321754,0.11835262,0.11354756,-0.47050032,0.76423657,-0.23816806,-0.310746,789.7436,842.52747,807.47253,793.36993,867.1062,0.05682373046875,-0.18817138671875,0.98577880859375,4.0673828125,-4.523468017578125,0.73272705078125,1,1.0,1.0,1.0,1.0,70.00
2021-04-10 22:34:20.499,0.100443386,0.21769041,0.7438629,0.21294592,0.2603224,0.29957414,0.28006035,0.040846147,0.05440286,0.33372796,0.36520383,0.4198509,0.17723812,1.1321754,0.104306206,0.17080891,-0.45054203,0.76423657,-0.27186438,-0.28311905,810.293,793.7729,799.81683,811.50183,788.5348,0.0523681640625,-0.19134521484375,0.9832763671875,4.605712890625,-3.99261474609375,0.55328369140625,1,1.0,1.0,1.0,1.0,70.00
2021-04-10 22:34:21.026,0.048384424,0.14592375,0.6967332,0.35409927,0.048585296,0.15072477,0.3318916,0.09216881,-0.13446675,0.64675736,0.3439971,0.38912952,0.15608446,1.0132414,0.053031724,0.14543785,-0.43693778,0.9925214,-0.107875355,-0.26652622,817.5458,815.5311,811.9048,817.9487,781.685,0.05426025390625,-0.187255859375,0.98638916015625,4.329071044921875,-4.433746337890625,0.43365478515625,1,1.0,1.0,1.0,1.0,70.00
2021-04-10 22:34:21.527,0.04655538,0.15501037,0.5013527,0.34880888,0.08832338,0.14607145,0.28761205,0.11300324,-0.16329616,0.6601344,0.10248622,0.29614508,0.15367505,1.0196543,0.003432194,0.1208414,-0.45867395,0.988916,0.021433206,-0.2882327,786.52014,798.20514,800.6227,787.326,713.1868,0.05853271484375,-0.18536376953125,0.98370361328125,4.867401123046875,-4.119720458984375,0.710296630859375,1,1.0,1.0,1.0,1.0,70.00
2021-04-10 22:34:22.045,0.36897507,0.35101047,0.8267991,0.40560865,0.18577093,0.4279644,0.43716177,0.2775674,0.48354653,0.80641186,0.17662506,0.5084073,0.21387568,0.98376644,0.09212545,0.18689036,-0.22501712,1.008453,0.012345529,-0.19055997,803.8461,794.57874,797.3993,805.05493,797.3993,0.06219482421875,-0.18798828125,0.97967529296875,4.77020263671875,-5.046844482421875,0.800018310546875,1,1.0,1.0,1.0,1.0,70.00
2021-04-10 22:34:22.570,0.26512405,0.40129146,0.8273275,0.34211168,0.24427709,0.47855878,0.31698146,0.16861153,0.5274463,0.69814426,0.21567479,0.60431504,0.23115773,1.0039318,0.1439246,0.18885519,-0.24210502,0.9751516,-0.1319001,-0.23625426,806.26373,832.8571,807.0696,813.91943,696.26373,0.068603515625,-0.1788330078125,0.986572265625,4.732818603515625,-4.02252197265625,1.816864013671875,1,1.0,1.0,1.0,1.0,70.00
2021-04-10 22:34:23.076,0.44075885,0.25101307,0.6708057,0.44356817,0.21243696,0.45744613,0.17082363,0.11582559,0.501408,0.72367495,0.17998667,0.60044265,0.22094326,1.1616353,0.18012024,0.21263483,-0.23736234,0.65012264,-0.2022153,-0.20377369,799.81683,819.5604,791.75824,790.9524,714.7985,0.06549072265625,-0.18597412109375,0.9864501953125,4.299163818359375,-4.687957763671875,0.657958984375,1,1.0,1.0,1.0,1.0,65.00
2021-04-10 22:34:23.586,0.6120656,-0.07161433,0.35735503,0.4474096,0.26917264,0.13897459,0.027905755,0.010624669,0.4550878,0.5075255,0.19336438,0.33259925,0.21906045,1.1534998,0.13367452,0.19859105,-0.2887136,0.777285,-0.19908126,-0.15369706,800.2198,811.50183,798.20514,787.72894,708.7546,0.06512451171875,-0.18450927734375,0.9853515625,4.732818603515625,-4.194488525390625,0.471038818359375,1,1.0,1.0,1.0,1.0,65.00
2021-04-10 22:34:24.093,0.76241094,-0.07161433,0.5250179,0.5081198,0.23539001,0.13897459,0.32395747,0.032398544,0.40871683,0.5075255,0.36657265,0.24106535,0.19616672,1.1534998,0.06674963,0.19051003,-0.29891965,0.777285,-0.13099442,-0.07613304,799.81683,835.6777,799.011,799.81683,740.989,0.07147216796875,-0.18585205078125,0.98553466796875,4.29168701171875,-4.284210205078125,0.426177978515625,1,1.0,1.0,1.0,1.0,65.00
2021-04-10 22:34:24.608,0.8740132,-0.012324817,0.5872295,0.38828948,0.32995456,0.09163752,0.43976855,-0.017311942,0.38095233,0.46596017,0.3931556,0.1932455,0.15072247,1.108839,0.078129634,0.15416926,-0.3846391,0.84567285,-0.117560074,-0.07155909,819.5604,819.15753,798.20514,803.8461,738.5714,0.06439208984375,-0.1849365234375,0.986083984375,4.306640625,-4.366455078125,0.919647216796875,1,1.0,1.0,1.0,1.0,65.00
2021-04-10 22:34:25.114,0.89330864,0.226128,0.51642823,0.43502727,0.38067508,-0.012842973,0.39578623,-0.13900216,0.38012415,0.13605736,0.4373138,0.1932455,0.15677717,1.042692,0.12527037,0.08631273,-0.45390123,0.6231495,-0.14472452,-0.084563516,805.8608,834.4689,794.17584,811.0989,779.2674,0.064453125,-0.1925048828125,0.98529052734375,3.940277099609375,-4.486083984375,0.299072265625,1,1.0,1.0,1.0,1.0,65.00
2021-04-10 22:34:25.624,0.618267,0.226128,0.25385416,0.086136416,0.4074216,-0.012842973,0.14546739,0.088233754,0.45409206,0.13605736,0.2396411,0.21157584,0.02297231,1.042692,0.19218607,0.208941,-0.3436006,0.6231495,-0.1869594,-0.40408587,797.8022,826.4103,799.41394,810.696,648.71796,0.07061767578125,-0.20208740234375,0.95843505859375,5.031890869140625,-1.74957275390625,-0.64300537109375,1,1.0,1.0,1.0,1.0,65.00
2021-04-10 22:34:26.128,0.5594885,0.226128,0.05473851,0.3438511,0.37651783,-0.012842973,-0.12858306,0.16333257,0.5022423,0.13605736,0.15954576,0.34966353,0.18764725,1.042692,0.16815451,0.22522803,-0.33277437,0.6231495,-0.24626817,-0.41728103,806.6667,805.4579,805.05493,801.8315,772.8205,0.02947998046875,-0.14971923828125,0.98907470703125,10.534820556640625,-2.6617431640625,6.14593505859375,1,1.0,1.0,1.0,1.0,65.00
2021-04-10 22:34:26.644,0.5486892,0.226128,0.44743326,0.44381627,0.31452823,-0.012842973,-0.20509915,0.16963343,0.5119313,0.13605736,0.04043618,0.40609926,0.2778902,1.042692,0.22013909,0.34333542,-0.28232324,0.6231495,-0.33996353,-0.26858205,812.3077,810.293,800.6227,797.3993,786.52014,0.0096435546875,-0.18115234375,0.9801025390625,1.532745361328125,-7.888031005859375,-13.099365234375,1,1.0,1.0,1.0,1.0,65.00
2021-04-10 22:34:27.148,0.5932006,0.226128,0.5984081,0.51378304,0.2809081,-0.012842973,-0.06678955,0.19999886,0.5524577,0.13605736,0.07517762,0.6835077,0.36938724,1.042692,0.23394857,0.55154556,-0.18548806,0.6231495,-0.3775132,0.06598028,798.60803,837.28937,796.99634,788.1319,716.4103,0.0400390625,0.0477294921875,1.0386962890625,26.497802734375,-5.57769775390625,23.080902099609375,1,1.0,1.0,1.0,1.0,65.00
2021-04-10 22:34:27.652,0.61086226,0.226128,0.65245706,0.53981775,0.38938016,-0.012842973,0.19344908,0.12650168,0.6564362,0.13605736,0.7129698,0.75035703,0.6072763,1.042692,0.24526629,0.72414863,0.27246916,0.6231495,-0.35271257,0.4164737,792.1612,766.3736,823.5897,781.685,835.2747,-0.2010498046875,0.0107421875,0.98626708984375,11.64886474609375,14.295654296875,13.44329833984375,1,1.0,1.0,1.0,1.0,65.00
2021-04-10 22:34:28.173,0.7082744,0.226128,1.3045688,0.5546669,0.4671387,-0.012842973,1.0781811,0.117878176,0.6660901,0.13605736,1.5527722,0.7493662,0.639476,1.042692,0.572678,0.77826333,0.51484877,0.6231495,-0.09239528,0.59508425,666.04395,804.2491,755.89746,672.0879,720.0366,-0.18731689453125,-0.01385498046875,0.9931640625,5.914154052734375,-3.648681640625,-1.30096435546875,1,1.0,1.0,1.0,1.0,65.00
2021-04-10 22:34:28.702,0.69339454,0.226128,1.4879657,0.6244153,0.5412808,-0.012842973,1.2426838,0.06328201,0.64773965,0.13605736,1.5527722,0.7193216,0.7409813,1.042692,0.6781046,0.790751,0.66297144,0.6231495,5.7037314E-4,0.7098984,765.9707,787.72894,756.30035,765.16486,660.0,-0.23834228515625,0.0667724609375,0.97930908203125,3.895416259765625,-0.874786376953125,2.99072265625,1,1.0,1.0,1.0,1.0,65.00
2021-04-10 22:34:29.205,0.82941484,0.226128,1.7309186,0.7494462,0.48878857,-0.012842973,1.4721695,0.11241351,0.45987326,0.13605736,1.5527722,0.6547646,0.5231085,1.042692,0.8796483,0.636974,0.71439934,0.6231495,0.12200208,0.76299196,743.00366,780.07324,755.89746,750.65936,775.64105,-0.23760986328125,0.034423828125,0.9761962890625,5.704803466796875,-5.749664306640625,-14.4451904296875,1,1.0,1.0,1.0,1.0,65.00
2021-04-10 22:34:29.722,0.82941484,0.226128,1.4213936,0.7494462,0.48878857,-0.012842973,1.3194009,0.11241351,0.45987326,0.13605736,1.1899756,0.6547646,0.5231085,1.042692,0.48196894,0.636974,0.71439934,0.6231495,-0.062268604,0.76299196,768.7912,817.9487,784.5055,781.685,763.5531,-0.1756591796875,8.544921875E-4,0.9794921875,6.676788330078125,-4.254302978515625,-2.818756103515625,1,1.0,1.0,1.0,1.0,65.00
2021-04-10 22:34:30.234,0.82941484,0.226128,1.2616503,0.7494462,0.48878857,-0.012842973,1.3283079,0.11241351,0.45987326,0.13605736,0.56014687,0.6547646,0.5231085,1.042692,0.37693912,0.636974,0.71439934,0.6231495,-0.12786478,0.76299196,765.9707,796.1905,788.1319,780.4762,776.4469,-0.246337890625,0.0257568359375,0.9697265625,7.379608154296875,-2.51220703125,0.919647216796875,1,1.0,1.0,1.0,1.0,65.00
2021-04-10 22:34:30.740,0.82941484,0.226128,1.2616503,0.7494462,0.48878857,-0.012842973,1.3283079,0.11241351,0.45987326,0.13605736,0.56014687,0.6547646,0.5231085,1.042692,0.37693912,0.636974,0.71439934,0.6231495,-0.12786478,0.76299196,778.0586,804.65204,796.1905,779.2674,758.315,-0.27471923828125,0.01611328125,0.9683837890625,3.177642822265625,-3.03558349609375,0.76263427734375,1,1.0,1.0,1.0,1.0,65.00
2021-04-10 22:34:31.248,0.98766494,0.226128,1.0707965,0.7714655,0.6919627,-0.012842973,0.6030473,0.69819874,0.6801475,0.13605736,0.4831193,0.6257382,0.25572243,1.042692,0.31125996,0.3915587,-0.6163463,0.6231495,-0.27352837,-0.49934754,795.38464,833.663,798.60803,797.3993,684.57874,-0.2528076171875,0.01385498046875,0.97027587890625,3.8580322265625,-7.4468994140625,1.173858642578125,1,1.0,1.0,1.0,1.0,65.00
2021-04-10 22:34:31.764,1.0494789,0.226128,1.2067665,0.9562553,0.8393766,-0.012842973,0.89407784,0.98994714,0.9008501,0.13605736,0.72967273,0.9521751,0.20990418,1.042692,0.34801057,0.33254316,-0.4747287,0.6231495,-0.33436307,-0.47276264,809.0842,785.31134,790.14655,807.8755,906.99634,-0.2330322265625,-0.01953125,0.97015380859375,1.9140625,-8.01513671875,-2.579498291015625,1,1.0,1.0,1.0,1.0,65.00
2021-04-10 22:34:32.283,1.0864116,0.226128,1.2067665,1.0388063,0.82887495,-0.012842973,0.89407784,0.9214552,0.9056912,0.13605736,0.72967273,1.0202408,0.20166954,1.042692,0.34801057,0.26615623,-0.44555548,0.6231495,-0.33436307,-0.44461775,805.05493,818.3516,793.36993,806.6667,790.54944,-0.2032470703125,0.01898193359375,0.987548828125,4.9346923828125,-2.22808837890625,5.7720947265625,1,1.0,1.0,1.0,1.0,65.00
2021-04-10 22:34:32.809,1.1390357,0.226128,1.3101631,1.1261083,0.79414666,-0.012842973,1.0667841,0.88357365,0.84283096,0.13605736,0.70845264,1.0207902,0.16870707,1.042692,0.38189244,0.2417448,-0.34021953,0.6231495,-0.40512943,-0.3649738,805.8608,853.00366,794.9817,807.47253,657.5824,-0.22027587890625,-0.02850341796875,0.98345947265625,4.2767333984375,-3.30474853515625,0.95703125,1,1.0,1.0,1.0,1.0,65.00
2021-04-10 22:34:33.337,0.99552584,0.226128,0.39284864,1.057275,0.44040576,-0.012842973,0.10692067,0.5426868,0.8210429,0.13605736,0.34726924,0.83249754,0.16180968,1.042692,0.20436338,0.24255805,-0.29437333,0.6231495,0.05225296,-0.3007371,806.6667,804.2491,805.4579,813.91943,726.4835,-0.2154541015625,-0.03741455078125,0.9779052734375,4.38140869140625,-5.00946044921875,0.4486083984375,1,1.0,1.0,1.0,1.0,75.00
2021-04-10 22:34:33.858,0.8178574,0.226128,0.69344497,0.87126946,0.15962544,-0.012842973,0.2919195,0.38637748,0.47502977,0.13605736,0.3644838,0.5371368,0.17515911,1.042692,0.29618454,0.3287779,-0.26661944,0.6231495,-0.045345746,-0.2543358,831.6484,828.8278,801.4286,823.9927,669.67035,-0.19403076171875,-0.0419921875,0.982421875,3.768310546875,-5.256195068359375,1.06170654296875,1,1.0,1.0,1.0,1.0,75.00
2021-04-10 22:34:34.370,0.46820894,0.226128,0.69140494,0.7186614,0.10828399,-0.012842973,0.3121131,0.37713006,0.35960656,0.13605736,0.3027972,0.20489495,0.17860453,1.042692,0.31320012,0.2651015,-0.2610915,0.6231495,-0.055486333,-0.2079978,804.65204,790.54944,802.6374,809.89014,723.663,-0.199462890625,-0.0362548828125,0.984130859375,4.568328857421875,-5.54779052734375,-0.28411865234375,1,1.0,1.0,1.0,1.0,75.00
2021-04-10 22:34:34.877,0.49671835,0.226128,0.8124296,0.72986907,0.092347875,-0.012842973,0.3753923,0.3725926,0.35960656,0.13605736,0.030309863,0.14446305,0.17997104,1.042692,0.35732725,0.23368517,-0.2466924,0.6231495,-0.20764996,-0.18379393,695.4579,804.2491,820.7692,701.50183,726.08057,-0.20013427734375,-0.04254150390625,0.9892578125,4.964599609375,-4.478607177734375,0.979461669921875,1,1.0,1.0,1.0,1.0,75.00
2021-04-10 22:34:35.387,0.49671835,0.58390075,0.8880256,0.72986907,0.092347875,0.46374452,0.6592981,0.3725926,0.35960656,0.4195362,0.27736905,0.14446305,0.17997104,0.994931,0.30600405,0.23368517,-0.2466924,0.68694633,-0.26893508,-0.18379393,808.2784,826.4103,814.3223,808.2784,761.9414,-0.19525146484375,-0.04022216796875,0.9862060546875,6.4300537109375,-2.31781005859375,-1.981353759765625,1,1.0,1.0,1.0,1.0,75.00
2021-04-10 22:34:35.890,0.49671835,0.58390075,0.8256051,0.72986907,0.092347875,0.46374452,0.76150364,0.3725926,0.35960656,0.4195362,0.30658108,0.14446305,0.17997104,0.994931,0.16036572,0.23368517,-0.2466924,0.68694633,-0.25066122,-0.18379393,799.81683,795.38464,807.8755,813.91943,764.35895,-0.20477294921875,-0.04266357421875,0.97869873046875,4.254302978515625,-5.301055908203125,1.57012939453125,1,1.0,1.0,1.0,1.0,75.00
2021-04-10 22:34:36.403,0.49671835,0.5753328,0.7391723,0.72986907,0.092347875,0.45130402,0.68620163,0.3725926,0.35960656,0.44733799,0.30658108,0.14446305,0.17997104,1.0027531,-0.022125762,0.23368517,-0.2466924,0.6484596,-0.13615651,-0.18379393,792.1612,785.31134,793.7729,806.26373,690.2198,-0.2030029296875,-0.046142578125,0.9801025390625,3.4393310546875,-4.119720458984375,2.280426025390625,1,2.0,1.0,1.0,2.0,75.00
2021-04-10 22:34:36.910,0.49671835,0.5753328,0.6945515,0.72986907,0.092347875,0.45130402,0.5158864,0.3725926,0.35960656,0.44733799,0.27917287,0.14446305,0.17997104,1.0027531,-0.0822714,0.23368517,-0.2466924,0.6484596,-0.07174718,-0.18379393,792.1612,834.4689,794.17584,794.17584,672.0879,-0.2059326171875,-0.0506591796875,0.9793701171875,3.476715087890625,-5.9515380859375,0.246734619140625,1,2.0,1.0,1.0,2.0,75.00
2021-04-10 22:34:37.428,0.49671835,0.5753328,0.6244368,0.72986907,0.092347875,0.45130402,0.23948678,0.3725926,0.35960656,0.44733799,0.07382977,0.14446305,0.17997104,1.0027531,-0.07871637,0.23368517,-0.2466924,0.6484596,-0.093465924,-0.18379393,773.22345,795.38464,807.47253,790.9524,821.5751,-0.2137451171875,-0.060546875,0.98162841796875,3.895416259765625,-2.983245849609375,2.699127197265625,1,2.0,1.0,1.0,2.0,75.00
2021-04-10 22:34:37.956,0.49671835,0.5753328,0.76783645,0.72986907,0.092347875,0.45130402,0.32698494,0.3725926,0.35960656,0.44733799,0.11032378,0.14446305,0.17997104,1.0027531,-0.04759966,0.23368517,-0.2466924,0.6484596,-0.14699373,-0.18379393,780.4762,800.6227,779.67035,789.34064,820.3663,-0.2198486328125,-0.07855224609375,0.973876953125,3.06549072265625,-4.11224365234375,1.98883056640625,1,2.0,1.0,1.0,2.0,75.00
2021-04-10 22:34:38.482,0.49671835,0.5753328,0.8048996,0.72986907,0.092347875,0.45130402,0.35628754,0.3725926,0.35960656,0.44733799,0.35944858,0.14446305,0.17997104,1.0027531,0.051977742,0.23368517,-0.2466924,0.6484596,-0.22758496,-0.18379393,808.2784,861.06226,813.1135,803.8461,701.0989,-0.201171875,-0.07745361328125,0.98388671875,4.56085205078125,-5.689849853515625,0.635528564453125,1,2.0,1.0,1.0,2.0,75.00
2021-04-10 22:34:38.993,0.49671835,0.5753328,1.0576537,0.72986907,0.092347875,0.45130402,0.36186984,0.3725926,0.35960656,0.44733799,0.38223127,0.14446305,0.17997104,1.0027531,0.2106286,0.23368517,-0.2466924,0.6484596,-0.120459,-0.18379393,810.293,822.7839,808.2784,812.71063,792.5641,-0.20745849609375,-0.08343505859375,0.97650146484375,4.598236083984375,-4.149627685546875,0.70281982421875,1,2.0,1.0,1.0,2.0,75.00
2021-04-10 22:34:39.519,0.49671835,0.5753328,1.1001604,0.72986907,0.092347875,0.45130402,0.38259223,0.3725926,0.35960656,0.44733799,0.38223127,0.14446305,0.17997104,1.0027531,0.26256883,0.23368517,-0.2466924,0.6484596,-0.09272003,-0.18379393,803.0403,844.94507,815.9341,801.4286,713.9927,-0.2037353515625,-0.08660888671875,0.97418212890625,4.35150146484375,-3.970184326171875,0.216827392578125,1,2.0,1.0,1.0,2.0,75.00
2021-04-10 22:34:40.043,0.49671835,0.5753328,0.8637586,0.72986907,0.092347875,0.45130402,0.5065638,0.3725926,0.35960656,0.44733799,0.2395289,0.14446305,0.17997104,1.0027531,0.21832189,0.23368517,-0.2466924,0.6484596,-0.36669394,-0.18379393,803.0403,802.6374,800.6227,809.0842,753.8828,-0.20233154296875,-0.08380126953125,0.97979736328125,5.465545654296875,-5.15899658203125,0.964508056640625,1,2.0,1.0,1.0,2.0,75.00
2021-04-10 22:34:40.545,0.44654763,0.6609464,0.5899626,0.6165003,0.15017933,0.4600994,0.3627873,0.34450418,0.5009668,0.55517054,0.28068194,0.5639765,0.015355647,0.9734371,0.109526075,0.17388968,-0.21094586,0.45621258,-0.25181663,-0.1971514,801.8315,811.9048,792.5641,799.41394,740.58606,-0.20428466796875,-0.08892822265625,0.975830078125,3.81317138671875,-4.314117431640625,-0.082244873046875,1,1.0,1.0,1.0,1.0,75.00
2021-04-10 22:34:41.053,0.5715656,0.6609464,0.70074004,0.73388845,0.11629482,0.4600994,0.29859814,0.31162062,0.5042032,0.55517054,0.30673742,0.613599,-0.03722666,0.9734371,0.065325975,0.1928089,-0.21153256,0.45621258,-0.19485158,-0.15092035,814.7253,842.52747,811.0989,811.0989,722.8571,-0.20880126953125,-0.0946044921875,0.97967529296875,4.373931884765625,-4.66552734375,0.396270751953125,1,1.0,1.0,1.0,1.0,75.00
2021-04-10 22:34:41.566,0.6435255,0.7087846,0.74673074,0.81480986,0.11432873,0.47221252,0.11942486,0.36066547,0.47220278,0.55517054,0.23816106,0.60733503,-0.082314216,0.96265453,-0.029742073,0.17319794,-0.21583907,0.4159632,-0.09165018,-0.10417353,791.3553,800.6227,799.41394,791.75824,771.2088,-0.2069091796875,-0.09661865234375,0.977783203125,4.41131591796875,-4.23187255859375,0.5682373046875,1,1.0,1.0,1.0,1.0,75.00
2021-04-10 22:34:42.070,0.7664962,0.7087846,1.1798514,0.8983703,0.0046461266,0.47221252,0.1340698,0.23634966,0.34408483,0.55517054,0.25522625,0.5212527,-0.17021586,0.96265453,0.002805218,0.20353338,-0.23638974,0.4159632,0.05149837,-0.04871339,805.05493,814.3223,797.8022,804.2491,736.55676,-0.21197509765625,-0.09283447265625,0.983154296875,4.388885498046875,-4.299163818359375,1.248626708984375,1,1.0,1.0,1.0,1.0,75.00
2021-04-10 22:34:42.590,0.8841542,0.7087846,1.1094335,0.8983703,0.4551842,0.47221252,0.017366452,0.23634966,0.4515993,0.55517054,0.16027556,0.5212527,0.22422855,0.96265453,0.12579471,0.20353338,-0.5101456,0.4159632,0.045912523,-0.04871339,787.326,820.3663,781.28204,791.3553,622.9304,-0.213134765625,-0.09979248046875,0.97711181640625,4.119720458984375,-3.75335693359375,1.62994384765625,1,1.0,1.0,1.0,1.0,75.00
2021-04-10 22:34:43.116,0.8841542,0.7087846,1.173909,0.8983703,0.4551842,0.47221252,0.36469337,0.23634966,0.4515993,0.55517054,0.37641957,0.5212527,0.22422855,0.96265453,0.119374424,0.20353338,-0.5101456,0.4159632,0.024174633,-0.04871339,805.05493,806.6667,807.47253,818.3516,806.26373,-0.21435546875,-0.09912109375,0.97467041015625,4.972076416015625,-5.4730224609375,1.218719482421875,1,1.0,1.0,1.0,1.0,75.00
2021-04-10 22:34:43.639,0.8841542,0.2620084,1.1039749,0.8983703,0.4551842,0.24735837,0.71822685,0.23634966,0.4515993,0.30993995,0.48543042,0.5212527,0.22422855,0.85873836,0.092929274,0.20353338,-0.5101456,0.65896577,-0.07233951,-0.04871339,808.68134,841.31866,801.4286,811.9048,770.40295,-0.20489501953125,-0.095458984375,0.9698486328125,4.583282470703125,-4.83001708984375,0.934600830078125,1,1.0,1.0,1.0,1.0,55.00
2021-04-10 22:34:44.145,0.8841542,0.3233821,0.9861005,0.8983703,0.4551842,0.21291043,0.7340335,0.23634966,0.4515993,0.37928846,0.48543042,0.5212527,0.22422855,0.90105337,0.088731915,0.20353338,-0.5101456,0.6521274,-0.13145226,-0.04871339,804.65204,804.65204,802.23444,800.2198,796.5934,-0.204833984375,-0.10076904296875,0.9749755859375,4.523468017578125,-4.164581298828125,0.829925537109375,1,1.0,1.0,1.0,1.0,55.00
2021-04-10 22:34:44.655,0.42042553,0.3148439,0.7551994,0.39848053,0.039459873,0.1600664,0.5579635,0.3074216,0.56590015,0.30030644,0.46848837,0.4662361,0.13470936,0.9043265,0.15036643,0.32750523,-0.40605193,0.6824618,-0.105048195,-0.123863705,807.8755,806.26373,804.2491,807.8755,887.6557,-0.23431396484375,-0.0882568359375,0.98095703125,4.0374755859375,2.400054931640625,5.75714111328125,1,1.0,1.0,1.0,1.0,55.00
2021-04-10 22:34:45.167,0.7793172,0.23864007,0.6333275,0.77577424,0.119935594,0.06406388,0.23206131,0.27629358,0.5697201,0.30653915,0.24403776,0.6963137,0.10848954,0.8582799,0.1470428,0.32600328,-0.33379072,0.6147243,-0.092889175,-0.19233206,773.22345,804.2491,786.1172,776.4469,749.85345,-0.26751708984375,-0.118408203125,0.979736328125,-3.222503662109375,-13.779754638671875,-2.093505859375,1,1.0,1.0,1.0,1.0,55.00
2021-04-10 22:34:45.680,0.8465509,0.041694183,0.82883793,1.0940822,0.15686105,-0.026100982,0.21787944,0.24001107,0.47656518,0.20315376,0.2946073,0.7159027,0.11188133,0.75824356,0.15174113,0.3532096,-0.30207476,0.59190106,-0.06986982,-0.16961727,753.8828,781.685,792.5641,778.0586,781.685,-0.21466064453125,-0.15118408203125,0.94744873046875,6.74407958984375,-3.84307861328125,-0.58319091796875,1,1.0,1.0,1.0,1.0,55.00
2021-04-10 22:34:46.190,1.0768907,0.08215505,0.9678473,1.1983926,0.23254292,1.1810686E-5,0.23275015,0.34188238,0.38059375,0.17220116,0.29542294,0.74333763,0.058412153,0.7369992,0.11108372,0.5063247,-0.23058805,0.5497106,-0.11103403,-0.03979084,800.6227,827.619,816.7399,800.2198,736.9597,-0.19427490234375,-0.17578125,0.96697998046875,2.9010009765625,-6.0113525390625,-2.34771728515625,1,1.0,1.0,1.0,1.0,55.00
2021-04-10 22:34:46.717,1.0768907,0.08215505,0.89532346,1.1545005,0.23254292,1.1810686E-5,0.3188608,0.5575055,0.38059375,0.17220116,0.404304,0.8556821,0.058412153,0.7369992,0.18961617,0.552548,-0.23058805,0.5497106,-0.19372146,0.08266383,803.0403,851.39197,799.011,806.6667,679.7436,-0.156005859375,-0.19427490234375,0.97296142578125,2.16827392578125,-4.8748779296875,-3.48419189453125,1,1.0,1.0,1.0,1.0,55.00
2021-04-10 22:34:47.223,1.0768907,0.08215505,0.63561356,0.77023345,0.23254292,1.1810686E-5,0.38496217,0.5547374,0.38059375,0.17220116,0.3805976,0.8091838,0.058412153,0.7369992,0.21604851,0.5471263,-0.23058805,0.5497106,-0.2618692,0.13559714,823.5897,844.1392,813.1135,825.2015,764.7619,-0.130859375,-0.19818115234375,0.97894287109375,4.164581298828125,-5.12908935546875,-0.665435791015625,1,1.0,1.0,1.0,1.0,55.00
2021-04-10 22:34:47.727,1.0768907,0.08215505,0.4493816,0.63386095,0.23254292,1.1810686E-5,0.49869257,0.49268523,0.38059375,0.17220116,0.44036123,0.80565083,0.058412153,0.7369992,0.25288573,0.47025058,-0.23058805,0.5497106,-0.2407481,0.0711138,832.4542,833.2601,811.0989,842.9304,848.1685,-0.13201904296875,-0.21612548828125,0.97222900390625,3.730926513671875,-4.85992431640625,1.07666015625,1,1.0,1.0,1.0,1.0,55.00
2021-04-10 22:34:48.237,1.0768907,0.08215505,0.47338936,0.39966828,0.23254292,1.1810686E-5,0.51523983,0.27319527,0.38059375,0.17220116,0.57229555,0.27439752,0.058412153,0.7369992,0.26616442,0.46840674,-0.23058805,0.5497106,-0.14676072,0.06553344,801.4286,844.1392,813.5165,819.9634,670.4762,-0.12896728515625,-0.21600341796875,0.97344970703125,4.4561767578125,-4.97955322265625,2.04864501953125,1,1.0,1.0,1.0,1.0,55.00
2021-04-10 22:34:48.756,1.0768907,0.70117223,0.73729384,0.34087119,0.23254292,0.33032826,0.4377893,0.31028005,0.38059375,0.12173804,0.57585156,0.2554088,0.058412153,0.6506722,0.22971544,0.5055961,-0.23058805,0.5608985,-0.060665682,0.047053166,681.75824,811.50183,821.978,684.57874,706.337,-0.12530517578125,-0.2171630859375,0.97332763671875,3.3795166015625,-2.594451904296875,1.48040771484375,1,1.0,1.0,1.0,1.0,55.00
2021-04-10 22:34:49.268,1.0768907,0.6998473,0.8060683,0.34087119,0.23254292,0.31651333,0.31821936,0.31028005,0.38059375,0.29288328,0.49548316,0.2554088,0.058412153,0.6989368,0.22668153,0.5055961,-0.23058805,0.5787435,-0.03592506,0.047053166,803.44324,840.9158,820.7692,803.0403,766.3736,-0.13653564453125,-0.2265625,0.97283935546875,4.3365478515625,-4.32159423828125,1.218719482421875,1,1.0,1.0,1.0,1.0,55.00
2021-04-10 22:34:49.791,1.0768907,0.6658036,0.98076475,0.34087119,0.23254292,0.26672742,0.36540174,0.31028005,0.38059375,0.3077352,0.4162437,0.2554088,0.058412153,0.7631361,0.26417315,0.5055961,-0.23058805,0.5385351,-0.05828451,0.047053166,803.44324,818.3516,827.619,805.8608,656.3736,-0.13653564453125,-0.23345947265625,0.96875,4.074859619140625,-4.5458984375,1.016845703125,1,1.0,1.0,1.0,1.0,55.00
2021-04-10 22:34:50.317,1.0768907,0.30998117,1.0095655,0.34087119,0.23254292,0.13760956,0.36871713,0.31028005,0.38059375,0.20461586,0.36024362,0.2554088,0.058412153,0.8791799,0.26878473,0.5055961,-0.23058805,0.61005414,-0.1450896,0.047053166,788.1319,807.8755,805.05493,808.2784,828.4249,-0.13629150390625,-0.2353515625,0.96746826171875,4.523468017578125,-4.717864990234375,0.620574951171875,1,2.0,1.0,1.0,2.0,55.00
2021-04-10 22:34:50.841,0.9011784,-0.002755467,0.95566845,0.18343993,0.4355673,0.03647002,0.32484663,0.27991217,0.3142076,0.1352047,0.33111158,0.27203047,0.3074336,0.8751871,0.20372568,0.42786583,-0.39001828,0.58936644,-0.111528866,-0.14164391,815.5311,842.1245,830.0366,819.15753,640.65936,-0.1395263671875,-0.23614501953125,0.96820068359375,4.418792724609375,-4.673004150390625,0.800018310546875,1,1.0,1.0,1.0,1.0,55.00
2021-04-10 22:34:51.368,0.8852101,-0.09732869,0.83354855,0.22731742,0.4336284,0.05223716,0.32934815,0.26328456,0.33774906,0.055130225,0.25289744,0.27250692,0.30769557,0.8602928,0.10515438,0.42788094,-0.3981647,0.6147589,-0.11927111,-0.14419818,807.0696,789.7436,805.4579,805.4579,871.13556,-0.1341552734375,-0.2327880859375,0.9677734375,3.9178466796875,-4.463653564453125,0.964508056640625,1,1.0,1.0,1.0,1.0,55.00
2021-04-10 22:34:51.878,0.97071105,0.10051228,0.7821433,0.1842665,0.47740334,0.059153847,0.3267053,0.24444751,0.33774906,0.38268328,0.08928452,0.18639438,0.31436408,0.86899406,0.079832636,0.44437575,-0.45629796,0.5115794,-0.10317586,-0.27723002,801.8315,834.87177,807.0696,802.6374,790.54944,-0.1312255859375,-0.24005126953125,0.97137451171875,4.18701171875,-5.271148681640625,0.76263427734375,1,1.0,1.0,1.0,1.0,55.00
2021-04-10 22:34:52.402,0.9776798,0.15011756,0.75852764,0.2959157,0.504622,0.14895761,0.28361338,0.23388417,0.33667353,0.3980737,0.0635391,0.026647275,0.30351135,0.78601605,0.08899612,0.44064814,-0.47083393,0.5268953,-0.16442321,-0.27975008,814.7253,817.9487,811.0989,824.7985,763.1502,-0.13427734375,-0.2421875,0.96484375,4.41131591796875,-4.687957763671875,1.55517578125,1,1.0,1.0,1.0,1.0,55.00
2021-04-10 22:34:52.903,0.7372061,0.07668146,0.47454417,0.41208777,-0.16441244,0.046245974,0.1585354,0.2637769,-0.08218566,0.57761896,0.105494946,0.09716203,0.19625492,0.81055725,0.144603,0.3010396,-0.16556165,0.5091144,-0.1595762,-0.114611916,794.57874,806.6667,804.2491,813.91943,750.65936,-0.1292724609375,-0.244384765625,0.9656982421875,4.4561767578125,-4.388885498046875,0.695343017578125,1,1.0,1.0,1.0,1.0,55.00
2021-04-10 22:34:53.404,0.59883475,0.13455899,0.46903908,0.35359114,0.052082833,0.09949135,0.12292063,0.20968287,0.17447114,0.6332231,0.10159299,0.1781741,0.1916981,0.81418264,0.14778368,0.3081271,-0.18641323,0.4686287,-0.15324482,-0.12583835,801.4286,841.31866,810.696,809.89014,706.337,-0.13543701171875,-0.24267578125,0.96636962890625,4.26177978515625,-3.596343994140625,0.650482177734375,1,1.0,1.0,1.0,1.0,55.00
2021-04-10 22:34:53.907,0.5228455,0.29150063,0.3464096,0.29152578,0.15891363,0.13661739,0.15481803,0.13495658,0.44441408,0.63653135,0.04873974,0.37336752,0.1484282,0.84223473,0.079747096,0.29989287,-0.18554202,0.35859177,-0.20066099,-0.17021033,774.0293,810.696,813.91943,809.0842,643.8828,-0.13043212890625,-0.2423095703125,0.96527099609375,4.4561767578125,-4.314117431640625,0.3887939453125,1,1.0,1.0,1.0,1.0,70.00
2021-04-10 22:34:54.420,0.4342321,0.40882653,0.5581976,0.31076282,0.25251922,0.21955581,0.3648659,0.07596952,0.47084972,0.62791765,0.0897329,0.44951478,0.15789707,0.8495384,0.03240934,0.2833739,-0.17606543,0.28213823,-0.28889573,-0.16797619,796.5934,818.7546,815.12823,826.8132,778.86444,-0.13037109375,-0.24725341796875,0.95941162109375,4.3963623046875,-3.57391357421875,-0.5682373046875,1,1.0,1.0,1.0,1.0,70.00
2021-04-10 22:34:54.929,0.47580463,0.41902483,0.5590473,0.34766632,0.22990972,0.1671897,0.34082446,0.13742478,0.71293074,0.37928158,0.17596532,0.94814944,0.14174643,0.8609545,0.13321131,0.33749473,-0.20383285,0.17906392,-0.3212446,-0.16478314,778.46155,826.0073,810.293,808.2784,688.60803,-0.13232421875,-0.2529296875,0.96368408203125,6.781463623046875,-3.416900634765625,-1.60003662109375,1,1.0,1.0,1.0,1.0,70.00
2021-04-10 22:34:55.442,0.59521455,0.10958161,0.58712137,0.37327865,-0.009457871,0.103234306,0.30562416,0.2756094,0.7852876,0.41108584,0.1658976,1.0332733,0.5116024,0.89546376,0.18520217,0.4340735,-0.28834796,0.177962,-0.3544039,-0.13165046,784.10254,811.50183,801.02563,809.4872,716.4103,-0.14837646484375,-0.1812744140625,0.97857666015625,8.98712158203125,-3.880462646484375,0.49346923828125,1,1.0,1.0,1.0,1.0,70.00
2021-04-10 22:34:55.969,0.5715804,-0.0027815897,0.4977664,0.30270177,-0.06378078,0.124699794,0.057716034,0.22635563,0.8287332,0.4750434,0.22893743,1.0351367,0.51954454,0.8817566,0.22928607,0.47406805,-0.31427193,0.30539328,-0.2279074,-0.055227876,794.57874,823.9927,809.89014,819.15753,751.4652,-0.1397705078125,-0.1878662109375,0.98126220703125,3.828125,-5.6524658203125,0.471038818359375,1,1.0,1.0,1.0,1.0,70.00
2021-04-10 22:34:56.493,0.80114377,-0.021707147,0.44522145,0.23354223,0.06390053,0.08180541,0.06097921,0.19959462,0.82998604,0.57129014,0.27709398,1.0345285,0.5308614,0.86726856,0.19891056,0.42494062,-0.2742603,0.36979705,-0.27320546,0.011020407,787.326,819.5604,799.41394,806.26373,685.78754,-0.11846923828125,-0.20440673828125,0.97930908203125,2.452392578125,-6.497344970703125,0.79254150390625,1,1.0,1.0,1.0,1.0,70.00
2021-04-10 22:34:57.017,0.80648124,0.16815095,0.3430207,0.18979833,0.19866411,-0.008765506,0.011418805,0.06844181,0.63229585,0.5084083,0.2702626,0.7466051,0.36218318,0.8266634,0.18329123,0.38481733,-0.19438373,0.40291718,-0.098405,0.0634197,787.326,801.02563,792.1612,812.71063,789.7436,-0.09405517578125,-0.2294921875,0.97393798828125,2.85614013671875,-5.75714111328125,-0.800018310546875,1,1.0,1.0,1.0,1.0,70.00
2021-04-10 22:34:57.526,0.84055096,0.31616223,0.23550136,0.372956,0.38811758,-0.097541034,-0.0062977364,0.21681908,0.40268508,0.48242363,0.24023381,0.55781204,0.29038966,0.8329604,0.07902146,0.34348875,-0.18891123,0.36585203,-0.12782863,0.012097673,800.2198,821.1722,786.52014,787.326,808.2784,-0.09808349609375,-0.22686767578125,0.97418212890625,2.27294921875,-5.7720947265625,5.076751708984375,1,1.0,1.0,1.0,1.0,70.00
2021-04-10 22:34:58.057,0.67355764,0.2741535,0.38620937,0.4075267,0.38450405,-0.14242287,0.021064898,0.25517786,0.5154363,0.5444223,0.15145941,0.7577578,0.23097792,0.8852,-0.046733126,0.3541059,-0.2808306,0.3243201,-0.0299347,0.006703227,805.8608,792.5641,801.8315,796.5934,728.0952,-0.093994140625,-0.26226806640625,0.96630859375,2.46734619140625,-5.09918212890625,2.37762451171875,1,1.0,1.0,1.0,1.0,70.00
2021-04-10 22:34:58.584,0.7797898,0.27600148,0.4321843,0.3722917,0.33938608,0.01978037,0.065859176,0.26362205,0.58018845,0.54714024,0.31176582,0.73965025,0.15572816,0.8938741,0.0037795787,0.23491187,-0.36329356,0.34190387,-0.12394163,-0.11222609,814.3223,814.3223,803.8461,803.0403,902.96704,-0.08563232421875,-0.2655029296875,0.96392822265625,3.835601806640625,-4.314117431640625,-0.22430419921875,1,1.0,1.0,1.0,1.0,70.00
2021-04-10 22:34:59.108,0.8488699,0.22531368,0.5669318,0.22512929,0.31036445,0.07661886,0.008909968,0.12065859,0.64252096,0.5407139,0.32723543,0.7392253,0.12822947,0.91463304,0.1924647,0.2174106,-0.36404517,0.3639198,-0.112325326,-0.139855,787.72894,837.28937,801.8315,803.44324,800.2198,-0.08489990234375,-0.2725830078125,0.9610595703125,4.403839111328125,-5.2935791015625,0.904693603515625,1,1.0,1.0,1.0,1.0,70.00
2021-04-10 22:34:59.635,0.7808946,0.333715,0.41794047,0.14420429,0.37882945,0.21404034,-0.09878928,-0.066240326,0.6409872,0.3202117,0.3285109,0.36725873,0.23465118,0.90411097,0.25202063,0.14574894,-0.3691037,0.4472171,-0.014708779,-0.23960471,804.65204,788.93774,806.26373,812.3077,996.8498,-0.07135009765625,-0.27691650390625,0.95916748046875,4.344024658203125,-4.418792724609375,1.114044189453125,1,1.0,1.0,1.0,1.0,70.00
2021-04-10 22:35:00.150,0.64065146,0.19560383,0.3541413,0.2367294,0.37494224,0.037683938,-0.14247102,-0.056367688,0.6328256,-0.027452093,0.26361868,0.5493123,0.2922645,0.98449737,0.17143627,0.17496906,-0.33373034,0.45061144,0.03329909,-0.24125239,801.02563,842.9304,809.89014,807.8755,794.17584,-0.070556640625,-0.27728271484375,0.96112060546875,4.149627685546875,-5.084228515625,1.054229736328125,1,1.0,1.0,1.0,1.0,70.00
2021-04-10 22:35:00.672,0.36641362,0.05949533,0.06835899,0.27406392,0.33768842,0.19759837,-0.21979167,0.097468264,0.5961184,0.38148862,0.17317082,0.5473427,0.2874253,0.90976065,0.08708899,0.18094955,-0.32929727,0.5594514,0.060723282,-0.20180133,795.78754,804.2491,809.0842,808.2784,730.10986,-0.07135009765625,-0.277587890625,0.9627685546875,4.725341796875,-4.35150146484375,0.710296630859375,1,1.0,1.0,1.0,1.0,70.00
2021-04-10 22:35:01.194,0.31014532,-0.052341595,0.008946115,0.32856426,0.16908446,0.2024383,-0.21805309,0.0905019,0.3007544,0.3923579,0.16722108,0.5473427,0.22077948,0.865654,0.07464595,0.21874174,-0.29766774,0.65246475,0.03214649,-0.16964465,792.5641,805.8608,807.0696,798.60803,699.89014,-0.06842041015625,-0.27972412109375,0.9639892578125,5.27862548828125,-4.47113037109375,0.88226318359375,1,1.0,1.0,1.0,1.0,70.00
2021-04-10 22:35:01.710,0.5223421,-0.025000721,-0.0832062,0.29033327,0.31217298,0.31454793,-0.22719051,0.14385882,0.8442081,0.40456483,0.06274954,0.412273,0.15922032,0.886355,0.11968543,0.27501035,-0.29676858,0.59731215,0.021328365,-0.13461314,803.8461,848.5714,802.6374,808.2784,749.0476,-0.06854248046875,-0.2786865234375,0.9583740234375,4.702911376953125,-4.844970703125,0.829925537109375,1,1.0,1.0,1.0,1.0,70.00
2021-04-10 22:35:02.219,0.68965334,0.37895074,0.24597514,0.33523592,0.40400234,0.37988833,0.1318783,0.27338248,0.8651632,0.4089097,0.22441441,0.467958,0.16144176,0.88660467,0.13692462,0.34459656,-0.29629356,0.5833503,-0.020228114,-0.04630827,789.34064,812.71063,810.293,811.9048,754.68866,-0.06597900390625,-0.27838134765625,0.96514892578125,4.306640625,-4.344024658203125,1.547698974609375,1,1.0,1.0,1.0,1.0,70.00
2021-04-10 22:35:02.742,0.77536374,0.5156028,0.4328181,0.40220612,0.56435925,0.48688808,0.22150964,0.4231571,0.867405,0.30577815,0.22558379,0.50817585,0.17251083,0.90298116,0.15260944,0.3886989,-0.25214472,0.50455844,-0.053600334,0.0044188946,816.337,821.1722,810.293,817.5458,719.6337,-0.06866455078125,-0.284912109375,0.96087646484375,4.38140869140625,-4.56085205078125,1.368255615234375,1,1.0,1.0,1.0,1.0,70.00
2021-04-10 22:35:03.268,0.708781,0.77499104,0.6304544,0.50780106,0.60485214,0.70672643,0.35735682,0.53059256,0.82966447,0.69979423,0.22091745,0.5057137,0.24928363,0.8682077,0.12338381,0.40243837,-0.19309643,0.4878786,-0.10085059,0.11045065,802.23444,817.1429,801.02563,800.6227,641.4652,-0.0699462890625,-0.277587890625,0.96258544921875,4.14215087890625,-4.807586669921875,1.682281494140625,1,1.0,1.0,1.0,1.0,70.00
2021-04-10 22:35:03.782,0.6269983,0.6674619,0.49218956,0.62451005,0.66726255,0.70229757,0.22964685,0.57651865,0.4950406,0.7188611,0.31028756,0.4965914,0.30890402,0.9089997,0.16455886,0.35808176,-0.19255598,0.39962468,-0.20982824,0.10669173,801.4286,814.7253,798.60803,812.71063,666.8498,-0.06353759765625,-0.2816162109375,0.96148681640625,5.241241455078125,-4.598236083984375,0.76263427734375,1,1.0,1.0,1.0,1.0,70.00
2021-04-10 22:35:04.305,0.5431958,0.6674619,0.52471906,0.046160415,0.2563824,0.70229757,0.3738601,0.31836632,0.4585782,0.7188611,0.53219897,0.80189145,0.45892894,0.9089997,0.17660728,0.36949542,-0.10283094,0.39962468,-0.33195662,0.19837411,800.2198,823.9927,806.6667,808.68134,763.5531,-0.0615234375,-0.2774658203125,0.9642333984375,5.091705322265625,-4.613189697265625,0.695343017578125,1,1.0,1.0,1.0,1.0,70.00
2021-04-10 22:35:04.830,0.52910143,0.5915526,0.41317964,0.21258341,0.46482986,0.47862706,0.28031254,0.34672233,0.50894064,0.20043264,0.5382309,0.80189145,0.30584943,0.91865987,0.224315,0.2807838,-0.17942059,0.40861207,-0.25710052,0.16189368,798.60803,822.381,815.12823,805.05493,713.9927,-0.050537109375,-0.275146484375,0.96356201171875,4.972076416015625,-4.553375244140625,-1.016845703125,1,1.0,1.0,1.0,1.0,70.00
2021-04-10 22:35:05.357,0.49601087,0.036057815,0.58777934,0.3455276,0.37179455,-0.21077959,0.25161,0.32945773,0.530972,0.07465957,0.5474924,0.8415448,0.3704861,0.7062214,0.22513898,0.38589415,-0.20226875,0.50998485,-0.052510876,0.17791167,793.36993,805.8608,807.8755,814.7253,777.6557,-0.061279296875,-0.2703857421875,0.962158203125,4.77020263671875,-4.62066650390625,3.043060302734375,1,1.0,1.0,1.0,1.0,70.00
2021-04-10 22:35:05.881,0.5480329,0.08195587,0.54093003,0.557228,0.45550188,-0.017929273,-0.0989646,0.3699117,0.33363134,0.2753876,0.27941486,0.60926855,0.33815575,0.68036735,0.17826672,0.4007942,-0.25509724,0.5526164,0.0643907,0.17050636,814.7253,826.8132,808.2784,812.3077,699.4872,-0.06390380859375,-0.28485107421875,0.96038818359375,2.452392578125,-4.18701171875,4.373931884765625,1,1.0,1.0,1.0,1.0,70.00
2021-04-10 22:35:06.406,0.64622897,0.08195587,0.62030953,0.6586865,0.33384645,-0.017929273,0.049461775,0.4222617,0.2952237,0.2753876,0.25686446,0.5953519,0.50154525,0.68036735,0.12735248,0.5046819,-0.20292513,0.5526164,0.049939636,0.19264166,801.02563,794.57874,805.8608,806.6667,830.4396,-0.08514404296875,-0.2769775390625,0.9573974609375,5.570220947265625,-2.85614013671875,4.47113037109375,1,1.0,1.0,1.0,1.0,70.00
2021-04-10 22:35:06.913,0.76321715,0.06897713,0.59529626,0.79978883,0.49461156,0.09549935,0.13060363,0.5641865,0.28324687,0.23086698,0.20459493,0.5858051,0.49942917,0.6656962,0.13046384,0.47518903,-0.18350558,0.56545144,-0.06717943,0.20083754,798.60803,817.1429,790.9524,807.47253,672.0879,-0.1231689453125,-0.18707275390625,0.98388671875,22.692108154296875,-9.802093505859375,15.791015625,1,1.0,1.0,1.0,1.0,70.00
2021-04-10 22:35:07.444,0.83740234,0.06897713,0.7422246,0.095728405,0.25514385,0.09549935,0.3298801,0.49165097,0.13131738,0.23086698,0.20476581,0.50128275,0.27217364,0.6656962,0.2125393,0.7171594,-0.34054103,0.56545144,-0.18136458,0.22391498,798.60803,804.65204,803.44324,808.2784,780.07324,-0.099853515625,-0.13665771484375,0.998046875,11.28997802734375,-8.127288818359375,11.088104248046875,1,1.0,1.0,1.0,1.0,70.00
2021-04-10 22:35:07.957,0.7240799,0.06897713,0.60382354,0.25873163,0.19545518,0.09549935,0.23017582,0.4279686,0.3594638,0.23086698,0.17627832,0.61585075,0.32901537,0.6656962,0.27039516,0.57719976,-0.37299266,0.56545144,-0.2760292,0.31094003,796.5934,877.5824,800.6227,808.2784,749.85345,-0.0523681640625,-0.0242919921875,1.00238037109375,-0.964508056640625,-15.738677978515625,18.55743408203125,1,1.0,1.0,1.0,1.0,70.00
2021-04-10 22:35:08.463,0.63046956,0.06897713,0.652874,0.38457164,0.23481764,0.09549935,0.2550823,0.41621616,0.38120037,0.23086698,0.23523475,0.62328774,0.33131808,0.6656962,0.24602368,0.59452885,-0.32160577,0.56545144,-0.31853813,0.23987871,791.3553,865.4945,799.41394,798.60803,707.5458,0.02392578125,-0.0806884765625,0.9947509765625,-1.786956787109375,-11.671295166015625,2.22808837890625,1,1.0,1.0,1.0,1.0,70.00
2021-04-10 22:35:08.988,0.20145711,0.06897713,0.47792676,0.39182222,0.26032022,0.09549935,-3.49328E-4,0.23359095,0.38120037,0.23086698,0.23166415,0.6184514,0.36920348,0.6656962,0.14347488,0.5572157,-0.26939848,0.56545144,-0.3405436,0.14111054,805.4579,806.6667,795.78754,801.02563,700.293,0.0650634765625,-0.080322265625,0.99432373046875,8.202056884765625,-12.015228271484375,-5.929107666015625,1,1.0,1.0,1.0,1.0,70.00
2021-04-10 22:35:09.503,-0.056977417,0.06897713,0.58853513,0.39120242,0.309827,0.09549935,0.12847482,0.15443234,0.12682857,0.23086698,0.18017994,0.56631863,0.35678867,0.6656962,0.08637743,0.6307307,-0.22008324,0.56545144,-0.21412528,-0.07430705,788.5348,802.6374,800.2198,807.0696,719.2308,0.10443115234375,-0.07611083984375,0.99774169921875,5.33843994140625,-6.437530517578125,3.043060302734375,1,1.0,1.0,1.0,1.0,70.00
2021-04-10 22:35:10.023,-0.073929705,0.06897713,0.4682014,0.08350887,0.2750376,0.09549935,0.2576589,-0.20391203,-0.04067156,0.23086698,0.21008377,0.40904632,0.34983975,0.6656962,0.11674307,0.5879645,-0.26166278,0.56545144,-0.08259007,-0.028244782,792.96704,859.0476,799.41394,811.9048,734.5421,0.10137939453125,-0.0833740234375,0.99932861328125,5.75714111328125,-4.882354736328125,0.859832763671875,1,1.0,1.0,1.0,1.0,70.00
2021-04-10 22:35:10.551,0.012115187,0.06897713,0.6453427,-0.045604985,0.27071932,0.09549935,0.2897874,-0.26927042,-0.098962404,0.23086698,0.22078003,0.36168534,0.3409317,0.6656962,0.15514597,0.57196385,-0.24102215,0.56545144,-0.06535929,0.017681735,695.8608,803.8461,789.34064,698.2784,832.4542,0.08282470703125,-0.0677490234375,0.99835205078125,9.996490478515625,5.00946044921875,1.024322509765625,1,1.0,1.0,1.0,1.0,70.00
2021-04-10 22:35:11.079,0.012115187,0.06897713,0.68324935,-0.045604985,0.27071932,0.09549935,0.23240118,-0.26927042,-0.098962404,0.23086698,0.22078003,0.36168534,0.3409317,0.6656962,0.18149063,0.57196385,-0.24102215,0.56545144,-0.12717232,0.017681735,804.2491,883.22345,804.65204,813.1135,695.8608,-0.0673828125,0.09637451171875,0.997314453125,18.602294921875,4.59075927734375,-0.5682373046875,1,1.0,1.0,1.0,1.0,70.00
2021-04-10 22:35:11.600,0.012115187,0.06897713,0.7906851,-0.045604985,0.27071932,0.09549935,-0.015692662,-0.26927042,-0.098962404,0.23086698,0.27590266,0.36168534,0.3409317,0.6656962,0.24086237,0.57196385,-0.24102215,0.56545144,-0.22811942,0.017681735,730.10986,763.1502,740.18317,738.5714,717.2161,-0.121826171875,0.14276123046875,0.97998046875,7.73101806640625,-1.614990234375,-1.07666015625,1,1.0,1.0,1.0,1.0,70.00
2021-04-10 22:35:12.128,0.012115187,0.06897713,0.82539725,-0.045604985,0.27071932,0.09549935,-0.07811003,-0.26927042,-0.098962404,0.23086698,0.3326777,0.36168534,0.3409317,0.6656962,0.28165644,0.57196385,-0.24102215,0.56545144,-0.17534755,0.017681735,742.6007,813.5165,747.03296,748.6447,749.85345,-0.125732421875,0.17919921875,0.98272705078125,5.151519775390625,-4.239349365234375,3.955230712890625,1,2.0,1.0,1.0,2.0,70.00
2021-04-10 22:35:12.655,0.012115187,0.06897713,1.0218927,-0.045604985,0.27071932,0.09549935,0.286668,-0.26927042,-0.098962404,0.23086698,0.84963197,0.36168534,0.3409317,0.6656962,0.49354598,0.57196385,-0.24102215,0.56545144,-0.15013553,0.017681735,783.2967,791.75824,736.55676,796.5934,698.68134,-0.14373779296875,0.14404296875,0.98284912109375,-0.1495361328125,-3.48419189453125,-8.396453857421875,1,2.0,1.0,1.0,2.0,70.00
2021-04-10 22:35:13.171,0.012115187,0.06897713,1.2364154,-0.045604985,0.27071932,0.09549935,0.6494456,-0.26927042,-0.098962404,0.23086698,0.8987622,0.36168534,0.3409317,0.6656962,0.69019836,0.57196385,-0.24102215,0.56545144,-0.12744671,0.017681735,745.42126,792.5641,773.6264,764.7619,845.7509,-0.17169189453125,0.1280517578125,0.97271728515625,1.577606201171875,-0.859832763671875,-4.538421630859375,1,2.0,1.0,1.0,2.0,70.00
2021-04-10 22:35:13.676,0.012115187,0.06897713,1.2364154,-0.045604985,0.27071932,0.09549935,0.6494456,-0.26927042,-0.098962404,0.23086698,0.8987622,0.36168534,0.3409317,0.6656962,0.69019836,0.57196385,-0.24102215,0.56545144,-0.12744671,0.017681735,758.315,787.326,772.4176,776.8498,722.4542,-0.193603515625,0.10675048828125,0.97088623046875,4.66552734375,-2.071075439453125,-1.18133544921875,1,2.0,1.0,1.0,2.0,70.00
2021-04-10 22:35:14.182,0.012115187,0.06897713,1.200445,-0.045604985,0.27071932,0.09549935,0.767052,-0.26927042,-0.098962404,0.23086698,0.95226264,0.36168534,0.3409317,0.6656962,0.6988845,0.57196385,-0.24102215,0.56545144,-0.13176629,0.017681735,713.5897,705.12823,715.2015,728.9011,740.58606,-0.23016357421875,0.10595703125,0.9722900390625,3.87298583984375,-2.549591064453125,3.30474853515625,1,2.0,1.0,1.0,2.0,65.00
2021-04-10 22:35:14.709,0.012115187,0.06897713,1.200445,-0.045604985,0.27071932,0.09549935,0.767052,-0.26927042,-0.098962404,0.23086698,0.95226264,0.36168534,0.3409317,0.6656962,0.6988845,0.57196385,-0.24102215,0.56545144,-0.13176629,0.017681735,770.40295,790.9524,786.1172,783.2967,812.71063,-0.2149658203125,0.111572265625,0.97406005859375,3.45428466796875,-5.226287841796875,1.383209228515625,1,2.0,1.0,1.0,2.0,65.00
2021-04-10 22:35:15.236,0.012115187,0.06897713,1.200445,-0.045604985,0.27071932,0.09549935,0.767052,-0.26927042,-0.098962404,0.23086698,0.95226264,0.36168534,0.3409317,0.6656962,0.6988845,0.57196385,-0.24102215,0.56545144,-0.13176629,0.017681735,794.57874,841.31866,811.9048,811.50183,763.95605,-0.195556640625,0.09002685546875,0.98211669921875,3.99261474609375,-5.166473388671875,0.680389404296875,1,2.0,1.0,1.0,2.0,65.00
2021-04-10 22:35:15.738,0.012115187,0.06897713,1.200445,-0.045604985,0.27071932,0.09549935,0.767052,-0.26927042,-0.098962404,0.23086698,0.95226264,0.36168534,0.3409317,0.6656962,0.6988845,0.57196385,-0.24102215,0.56545144,-0.13176629,0.017681735,811.0989,815.12823,796.99634,806.26373,812.71063,-0.21014404296875,0.0875244140625,0.9766845703125,3.27484130859375,-4.74029541015625,-0.725250244140625,1,2.0,1.0,1.0,2.0,65.00
2021-04-10 22:35:16.251,0.012115187,0.06897713,1.0417143,-0.045604985,0.27071932,0.09549935,0.46314943,-0.26927042,-0.098962404,0.23086698,0.19198933,0.36168534,0.3409317,0.6656962,0.21195212,0.57196385,-0.24102215,0.56545144,0.09786356,0.017681735,786.1172,833.663,810.293,815.9341,762.3443,-0.2030029296875,0.07244873046875,0.97784423828125,4.403839111328125,-4.059906005859375,1.128997802734375,1,2.0,1.0,1.0,2.0,65.00
2021-04-10 22:35:16.779,0.012115187,0.06897713,1.0304953,0.47287422,0.27071932,0.09549935,0.48657957,0.41997674,-0.098962404,0.23086698,0.22955376,0.12151142,0.3409317,0.6656962,0.18570971,0.609002,-0.24102215,0.56545144,0.10925301,-0.10509809,805.05493,815.12823,782.49084,815.12823,731.31866,-0.20977783203125,0.07550048828125,0.97833251953125,4.62066650390625,-4.4561767578125,0.246734619140625,1,1.0,1.0,1.0,1.0,65.00
2021-04-10 22:35:17.282,0.012115187,0.06897713,1.098119,0.47287422,0.27071932,0.09549935,0.6159269,0.41997674,-0.098962404,0.23086698,0.36470357,0.12151142,0.3409317,0.6656962,0.20718807,0.609002,-0.24102215,0.56545144,0.054514028,-0.10509809,817.5458,846.1539,802.23444,820.3663,895.7143,-0.20245361328125,0.06793212890625,0.9813232421875,3.887939453125,-4.119720458984375,-0.829925537109375,1,1.0,1.0,1.0,1.0,65.00
2021-04-10 22:35:17.794,0.012115187,0.06897713,1.1633137,0.4449105,0.27071932,0.09549935,0.6016044,0.46583825,-0.098962404,0.23086698,0.4206593,0.119015574,0.3409317,0.6656962,0.23605296,0.6153439,-0.24102215,0.56545144,-0.063569635,-0.10228784,764.7619,841.31866,814.3223,778.46155,775.64105,-0.20684814453125,0.0560302734375,0.9813232421875,4.299163818359375,-3.596343994140625,1.136474609375,1,1.0,1.0,1.0,1.0,65.00
2021-04-10 22:35:18.297,0.012115187,0.06897713,1.2293823,0.4449105,0.27071932,0.09549935,0.58232015,0.46583825,-0.098962404,0.23086698,0.43059087,0.119015574,0.3409317,0.6656962,0.28914234,0.6153439,-0.24102215,0.56545144,-0.13161835,-0.10228784,803.8461,832.0513,811.9048,810.293,728.0952,-0.2041015625,0.05828857421875,0.9794921875,4.42626953125,-3.327178955078125,1.03179931640625,1,1.0,1.0,1.0,1.0,65.00
2021-04-10 22:35:18.810,0.012115187,0.06897713,1.2721978,0.4449105,0.27071932,0.09549935,0.6035676,0.46583825,-0.098962404,0.23086698,0.45151696,0.119015574,0.3409317,0.6656962,0.23201133,0.6153439,-0.24102215,0.56545144,-0.08452071,-0.10228784,826.4103,812.71063,822.381,816.337,809.89014,-0.20220947265625,0.0543212890625,0.97637939453125,4.179534912109375,-4.62066650390625,0.16448974609375,1,1.0,1.0,1.0,1.0,65.00
2021-04-10 22:35:19.318,0.012115187,0.06897713,1.2064497,0.4449105,0.27071932,0.09549935,0.6473463,0.46583825,-0.098962404,0.23086698,0.42197242,0.119015574,0.3409317,0.6656962,0.16181567,0.6153439,-0.24102215,0.56545144,-0.040696084,-0.10228784,820.7692,830.0366,813.1135,822.381,735.7509,-0.20745849609375,0.0550537109375,0.98199462890625,4.807586669921875,-4.38140869140625,1.2860107421875,1,2.0,1.0,1.0,2.0,65.00
2021-04-10 22:35:19.835,0.012115187,0.06897713,0.91742593,0.4449105,0.27071932,0.09549935,0.53097606,0.46583825,-0.098962404,0.23086698,0.43136927,0.119015574,0.3409317,0.6656962,0.13773796,0.6153439,-0.24102215,0.56545144,0.016117545,-0.10228784,821.5751,811.50183,808.68134,825.2015,736.9597,-0.21246337890625,0.0545654296875,0.9774169921875,4.65057373046875,-4.11224365234375,1.114044189453125,1,2.0,1.0,1.0,2.0,65.00
2021-04-10 22:35:20.340,0.012115187,0.06897713,0.6781475,0.4449105,0.27071932,0.09549935,0.414527,0.46583825,-0.098962404,0.23086698,0.43136927,0.119015574,0.3409317,0.6656962,0.078056976,0.6153439,-0.24102215,0.56545144,-0.020265631,-0.10228784,778.46155,797.3993,812.71063,792.1612,730.9158,-0.2103271484375,0.0521240234375,0.97802734375,4.47113037109375,-4.8150634765625,0.381317138671875,1,2.0,1.0,1.0,2.0,65.00
2021-04-10 22:35:20.855,0.012115187,0.55624986,0.6788961,0.4449105,0.27071932,0.42396984,0.35637861,0.46583825,-0.098962404,0.33629796,0.2608862,0.119015574,0.3409317,0.84643,0.0541773,0.6153439,-0.24102215,0.28279305,0.0068899114,-0.10228784,773.6264,804.2491,806.6667,805.05493,714.3956,-0.20849609375,0.0513916015625,0.97686767578125,4.658050537109375,-4.194488525390625,0.7476806640625,1,2.0,1.0,1.0,2.0,65.00
2021-04-10 22:35:21.376,1.2485572,0.5177116,0.984598,0.847271,0.68422455,0.4319701,0.3771969,0.7831918,0.5134746,0.39500195,0.34688035,0.5565683,0.33945116,0.8299807,0.04421668,0.4458247,-0.33810097,0.27983388,-0.042166106,-0.013119422,790.9524,793.7729,806.26373,805.4579,698.68134,-0.20819091796875,0.0509033203125,0.97735595703125,5.046844482421875,-5.12908935546875,0.73272705078125,1,1.0,1.0,1.0,1.0,65.00
2021-04-10 22:35:21.889,1.1388891,0.50623196,0.9902744,0.7476234,0.59141433,0.3886392,0.21733469,0.682244,0.6623348,0.40832588,0.34234327,0.5590629,0.30779722,0.81948197,0.14004949,0.39901927,-0.23365138,0.3252396,0.032627426,0.039220057,777.6557,822.381,807.0696,799.011,860.2564,-0.20526123046875,0.05316162109375,0.97894287109375,4.762725830078125,-4.65057373046875,0.64300537109375,1,1.0,1.0,1.0,1.0,65.00
2021-04-10 22:35:22.415,1.0121412,0.4683668,0.93607724,0.63607776,0.54370624,0.32518983,0.055015344,0.5221227,0.7493473,0.39940357,0.39777678,0.5178263,0.2352863,0.7483734,0.1561741,0.3648105,-0.26148632,0.37701488,-0.009467589,-0.012628508,782.49084,826.8132,804.65204,799.011,679.34064,-0.2034912109375,0.04827880859375,0.996337890625,4.0972900390625,-4.486083984375,0.770111083984375,1,1.0,1.0,1.0,1.0,65.00
2021-04-10 22:35:22.939,0.79450345,0.4683668,0.7708647,0.50789094,0.34900567,0.32518983,0.22460406,0.25168002,0.67766124,0.39940357,0.39540318,0.39245397,0.31769043,0.7483734,0.09904523,0.33671927,-0.27163765,0.37701488,-0.013626235,0.05815197,788.93774,762.74725,801.02563,801.8315,925.12823,-0.20513916015625,0.04541015625,0.98468017578125,4.306640625,-4.403839111328125,1.734619140625,1,1.0,1.0,1.0,1.0,65.00
2021-04-10 22:35:23.447,0.76266307,0.4683668,0.73742443,0.49590638,0.33409387,0.32518983,0.28743964,0.16371076,0.6434599,0.39940357,0.39486587,0.29418394,0.34523502,0.7483734,0.026255561,0.34994557,-0.36347702,0.37701488,-0.12468563,0.034818746,716.0073,1053.2601,721.2454,716.0073,761.9414,-0.19390869140625,0.049072265625,0.98394775390625,4.56085205078125,-5.121612548828125,1.51031494140625,1,1.0,1.0,1.0,1.0,65.00
2021-04-10 22:35:23.976,0.78619015,0.4683668,0.9429468,0.5703404,0.17994122,0.32518983,0.56383294,0.15767585,0.378955,0.39940357,0.4303564,0.21722254,0.468841,0.7483734,0.12653846,0.34527323,-0.3708006,0.37701488,0.05419446,0.18204299,795.78754,813.1135,797.3993,798.20514,682.5641,-0.19989013671875,0.04620361328125,0.982177734375,3.7384033203125,-4.18701171875,0.500946044921875,1,1.0,1.0,1.0,1.0,65.00
2021-04-10 22:35:24.502,0.6176978,0.4683668,1.0607159,0.5675179,0.108347274,0.32518983,0.6652352,0.08173636,0.30642107,0.39940357,0.35618895,0.10577479,0.5011776,0.7483734,0.19283408,0.3546382,-0.35472694,0.37701488,0.13487725,0.20697787,800.2198,806.6667,807.47253,801.02563,744.61536,-0.1993408203125,0.04705810546875,0.983642578125,4.59075927734375,-3.970184326171875,0.904693603515625,1,1.0,1.0,1.0,1.0,30.00
2021-04-10 22:35:25.009,0.6176978,0.4683668,1.0607159,0.5675179,0.108347274,0.32518983,0.6652352,0.08173636,0.30642107,0.39940357,0.35618895,0.10577479,0.5011776,0.7483734,0.19283408,0.3546382,-0.35472694,0.37701488,0.13487725,0.20697787,819.9634,863.8828,815.9341,835.6777,718.022,-0.1942138671875,0.0435791015625,0.9813232421875,4.643096923828125,-4.74029541015625,-0.755157470703125,1,1.0,1.0,1.0,1.0,30.00
2021-04-10 22:35:25.520,0.6176978,0.4683668,0.8188422,0.5675179,0.108347274,0.32518983,0.6277469,0.08173636,0.30642107,0.39940357,0.40151873,0.10577479,0.5011776,0.7483734,0.14122504,0.3546382,-0.35472694,0.37701488,0.20937672,0.20697787,790.54944,799.81683,801.4286,788.93774,680.9524,-0.18603515625,0.0345458984375,0.986328125,4.149627685546875,-4.837493896484375,-2.160797119140625,1,1.0,1.0,1.0,1.0,30.00
2021-04-10 22:35:26.046,0.6176978,0.4683668,0.72362465,0.76159334,0.108347274,0.32518983,0.49383625,0.6100154,0.30642107,0.39940357,0.40197864,0.6136914,0.5011776,0.7483734,0.18033999,0.39515752,-0.35472694,0.37701488,0.19320443,-0.15750824,805.4579,807.47253,802.6374,803.0403,677.72894,-0.19219970703125,0.02978515625,0.9825439453125,4.433746337890625,-3.970184326171875,1.054229736328125,1,1.0,1.0,1.0,1.0,30.00
2021-04-10 22:35:26.554,0.6447386,0.4683668,0.6057795,0.63665617,0.8226099,0.32518983,0.35892403,0.6330066,0.4123101,0.39940357,0.40918705,0.6136914,0.16997305,0.7483734,0.2011377,0.35972792,-0.30081668,0.37701488,0.19982035,-0.2209556,795.78754,827.619,815.5311,812.3077,724.0659,-0.2015380859375,0.02508544921875,0.985595703125,4.32159423828125,-3.880462646484375,0.904693603515625,1,1.0,1.0,1.0,1.0,30.00
2021-04-10 22:35:27.065,0.6378148,0.4683668,0.49927416,0.6331798,0.63500714,0.32518983,-0.07394951,0.54241085,0.5145224,0.39940357,0.3067822,0.56400657,0.25799057,0.7483734,0.20204243,0.31748885,-0.19838385,0.37701488,0.1995307,-0.21935967,784.5055,807.47253,822.7839,813.91943,787.72894,-0.19097900390625,0.02777099609375,0.983642578125,4.717864990234375,-4.762725830078125,1.60003662109375,1,1.0,1.0,1.0,1.0,30.00
2021-04-10 22:35:27.567,0.68720925,0.3853783,0.66148454,0.54571885,0.5893187,0.506709,-0.3764666,0.4345073,0.611124,0.4309387,0.13710025,0.5907999,0.27355766,0.8284949,0.15566757,0.36563456,-0.20789535,0.38820392,0.18821242,-0.11622638,801.02563,827.619,810.696,818.3516,720.84247,-0.1883544921875,0.03167724609375,0.99932861328125,4.089813232421875,-5.2935791015625,1.472930908203125,1,1.0,1.0,1.0,1.0,30.00
2021-04-10 22:35:28.086,0.7824675,0.41056246,0.72618514,0.6019477,0.50362426,0.38985184,-0.3438531,0.2105032,0.5541151,0.56426835,0.1528508,0.59041876,0.341586,0.8164911,0.0897118,0.35255036,-0.22190359,0.34987962,0.12433375,-0.077658586,802.23444,818.7546,809.0842,819.15753,742.1978,-0.2025146484375,0.04803466796875,1.00732421875,1.398162841796875,-2.878570556640625,-1.2261962890625,1,1.0,1.0,1.0,1.0,30.00
2021-04-10 22:35:28.599,0.81534696,0.47018355,0.6949671,0.52925843,0.5259606,0.32388225,-0.033090543,0.03516869,0.50669056,0.56426835,0.3354247,0.54629725,0.26963672,0.79831856,0.01386899,0.26908785,-0.26978606,0.32197323,0.12684555,0.0030596666,794.57874,817.9487,804.65204,810.696,771.2088,-0.2017822265625,-0.012451171875,0.98583984375,8.01513671875,-7.34222412109375,-4.9346923828125,1,1.0,1.0,1.0,1.0,30.00
2021-04-10 22:35:29.127,0.83425236,0.43105584,0.6763764,0.5140051,0.60064226,0.05604061,0.41049075,0.24735738,0.38261813,0.39806843,0.2878787,0.45930877,0.2058665,0.80814105,0.048656262,0.20514688,-0.22619404,0.31752405,0.26552334,0.0075900923,761.13556,809.4872,795.38464,778.46155,745.42126,-0.1787109375,0.0205078125,0.98486328125,6.47491455078125,-2.97576904296875,3.207550048828125,1,1.0,1.0,1.0,1.0,30.00
2021-04-10 22:35:29.635,0.7835277,0.41186053,0.6624632,0.5228755,0.5742276,0.09462691,0.47231647,0.3361895,0.14678529,0.36870477,0.4005543,0.4223743,0.08301382,0.81512135,0.113431044,0.20704767,-0.17305505,0.32542476,0.35767147,0.06270138,816.337,793.7729,799.81683,818.3516,797.3993,-0.2071533203125,0.01348876953125,0.97991943359375,4.777679443359375,-3.1402587890625,3.297271728515625,1,1.0,1.0,1.0,1.0,30.00
2021-04-10 22:35:30.144,0.8427999,0.3990227,0.69839627,0.6448876,0.7328028,0.24454525,0.48405072,0.52279973,0.060312428,0.5750797,0.38950118,0.18439995,0.030345995,0.80978245,0.21829566,0.33078042,-0.11695916,0.50240535,0.2981154,0.013140481,810.293,813.91943,811.50183,808.68134,777.25275,-0.21771240234375,0.023681640625,0.976806640625,4.269256591796875,-3.596343994140625,2.325286865234375,1,1.0,1.0,1.0,1.0,30.00
2021-04-10 22:35:30.655,0.81731427,0.35140333,0.5418643,0.62050784,0.7779631,0.21194002,0.24846129,0.5702137,0.060312428,0.58633065,0.44884408,0.14976774,0.032682527,0.79599005,0.19892655,0.33852813,-0.12758446,0.50108993,0.13597088,0.024128072,792.5641,831.2454,798.20514,797.3993,683.7729,-0.21990966796875,0.030517578125,0.97979736328125,4.2767333984375,-4.463653564453125,1.203765869140625,1,1.0,1.0,1.0,1.0,30.00
2021-04-10 22:35:31.159,0.5089567,0.24792929,0.48348787,0.47903466,0.42435968,0.21763784,0.15305397,0.4748644,0.5854127,0.5854925,0.30626926,0.10931129,0.15990406,0.80704445,0.26358104,0.2045016,-0.25180706,0.50482595,0.09498158,-0.07928255,800.6227,780.87915,819.15753,826.0073,848.5714,-0.2152099609375,0.0233154296875,0.97882080078125,4.029998779296875,-4.568328857421875,-0.097198486328125,1,1.0,1.0,1.0,1.0,30.00
2021-04-10 22:35:31.665,0.84744364,0.3303967,0.52986604,0.5588578,0.49163365,0.017939394,0.14963627,0.4657936,0.71468127,0.64626175,0.31792477,0.43143696,0.22566366,0.8222433,0.28541446,0.2818642,-0.12171039,0.37343505,0.12059331,0.003190019,780.4762,823.9927,807.47253,802.6374,819.9634,-0.2061767578125,0.01422119140625,0.9776611328125,3.985137939453125,-4.224395751953125,0.097198486328125,1,1.0,1.0,1.0,1.0,30.00
2021-04-10 22:35:32.174,0.96926504,0.5737384,0.7538959,0.52831864,0.5055375,0.14785303,0.41735864,0.5992881,0.71468127,0.66984594,0.40619206,0.54535794,0.28594887,0.82902205,0.31953484,0.2789181,-0.08372307,0.36668506,0.06445412,-0.012411169,788.5348,804.65204,796.99634,795.78754,676.9231,-0.2127685546875,0.01483154296875,0.976318359375,4.77020263671875,-4.56085205078125,1.128997802734375,1,1.0,1.0,1.0,1.0,30.00
2021-04-10 22:35:32.690,1.0889126,0.7157373,0.73132193,0.48814914,0.48595,0.23948471,0.44657394,0.6201194,0.6733708,0.6429903,0.4714993,0.59237844,0.37228194,0.7877171,0.3017572,0.2597767,-0.033394396,0.36788952,-0.07359167,-0.025931068,794.17584,803.44324,802.23444,805.4579,702.71063,-0.21124267578125,0.0103759765625,0.9840087890625,4.478607177734375,-4.059906005859375,0.40374755859375,1,1.0,1.0,1.0,1.0,30.00
2021-04-10 22:35:33.194,1.0710838,0.7902328,0.66468984,0.40144,0.3112661,0.3591929,0.4014733,0.6677643,0.2740962,0.5290425,0.47392613,0.57174045,0.43073538,0.7392115,0.30460775,0.19191314,-0.09176156,0.3997154,-0.09067599,-0.10760302,828.4249,823.1868,810.293,832.8571,701.0989,-0.2191162109375,0.01666259765625,0.9818115234375,4.80010986328125,-4.007568359375,1.188812255859375,1,1.0,1.0,1.0,1.0,30.00
2021-04-10 22:35:33.701,1.0710838,0.78547317,0.49822947,0.40117753,0.3112661,0.3147636,0.3075635,0.59264123,0.2740962,0.62520224,0.42479646,0.41937867,0.43073538,0.7241091,0.3076758,0.110111,-0.09176156,0.2905537,-0.124978565,-0.11752423,817.1429,823.5897,812.71063,811.50183,682.1612,-0.21099853515625,0.016357421875,0.9796142578125,4.448699951171875,-4.68048095703125,0.770111083984375,1,1.0,1.0,1.0,1.0,30.00
2021-04-10 22:35:34.220,1.0710838,0.72180414,0.53167033,0.49817017,0.3112661,0.2939859,0.2892193,0.5976236,0.2740962,0.62520224,0.40534797,0.2950479,0.43073538,0.7864161,0.25995392,0.14141098,-0.09176156,0.36216515,-0.17502095,-0.11365852,795.38464,802.6374,795.78754,794.9817,757.50916,-0.2061767578125,0.01739501953125,0.98248291015625,4.3963623046875,-4.71038818359375,0.366363525390625,1,1.0,1.0,1.0,1.0,30.00
2021-04-10 22:35:34.723,1.2538972,0.5726609,0.4902618,0.1301539,0.6979375,0.22720213,0.31007347,0.323005,0.554335,0.62514055,0.38367712,0.44066972,0.11196075,0.8210538,0.20517088,0.31894845,-0.36615112,0.33451307,-0.19703378,-0.18208846,799.011,827.2161,805.8608,817.5458,784.90845,-0.21142578125,0.013671875,0.98260498046875,4.673004150390625,-4.777679443359375,0.680389404296875,1,1.0,1.0,1.0,1.0,65.00
2021-04-10 22:35:35.229,1.193221,0.06648601,0.5121887,0.1297077,0.5676574,0.050279222,0.2440546,0.28527343,0.554335,0.25809067,0.36729446,0.626641,0.16075568,0.8622665,0.16670677,0.33522642,-0.22531565,0.389725,-0.16194189,-0.18309528,793.7729,825.2015,813.91943,804.2491,665.2381,-0.2095947265625,0.01116943359375,0.98046875,4.1571044921875,-4.6954345703125,1.6748046875,1,1.0,1.0,1.0,1.0,65.00
2021-04-10 22:35:35.747,1.161337,-0.3360558,0.53284466,0.13331525,0.47998282,-0.29228088,0.25576022,0.38748068,0.54502094,0.057867788,0.34881264,0.7023855,0.13768822,0.8664342,0.16628584,0.29177365,-0.23754503,0.27619338,-0.18348065,-0.039763484,794.9817,806.26373,799.81683,796.5934,717.2161,-0.21136474609375,0.01220703125,0.98419189453125,4.658050537109375,-4.306640625,0.79254150390625,1,1.0,1.0,1.0,1.0,65.00
2021-04-10 22:35:36.273,0.95617086,0.35868534,0.50585246,0.19230042,0.51786005,0.036998477,0.22404826,0.40259668,0.6072135,0.33409548,0.32476,0.71766543,0.17518967,0.7178996,0.13143073,0.32099372,-0.18773527,0.10078985,-0.2351475,0.041796338,795.38464,830.4396,811.9048,800.6227,761.53845,-0.21282958984375,0.00787353515625,0.9718017578125,4.42626953125,-4.05242919921875,1.263580322265625,1,1.0,1.0,1.0,1.0,65.00
2021-04-10 22:35:36.785,0.77538586,0.2182353,0.1902817,0.24227804,0.6229332,0.0025079816,-0.02036196,0.49836788,0.6023189,0.40734977,0.27153933,0.7170092,0.20905986,0.68408066,0.09218456,0.31229857,-0.21778673,0.31486085,-0.10687905,0.097214304,803.8461,844.94507,807.47253,842.1245,738.97437,-0.21832275390625,0.009521484375,0.97869873046875,4.493560791015625,-3.910369873046875,0.964508056640625,1,1.0,1.0,1.0,1.0,65.00
2021-04-10 22:35:37.288,0.47151464,0.25211942,0.62730503,0.2981296,0.7396215,-0.0274766,0.5035734,0.48079243,0.6011867,0.40734977,0.4001253,0.5165691,0.25663072,0.67713827,0.009893921,0.37443218,-0.180043,0.33659592,-0.04265894,0.054907966,795.38464,807.0696,801.02563,808.2784,843.3333,-0.215576171875,0.01171875,0.9805908203125,4.553375244140625,-4.59075927734375,0.635528564453125,1,1.0,1.0,1.0,1.0,65.00
2021-04-10 22:35:37.801,0.24757865,0.17830709,0.7259972,0.3098267,0.74677545,-0.0059021823,0.57488364,0.5811851,0.4541165,0.44681853,0.3721206,0.46204904,0.34161928,0.72777814,-0.03391794,0.36501986,-0.15473813,0.44530421,0.031836674,0.0142583735,794.9817,820.3663,806.26373,805.4579,770.40295,-0.21368408203125,0.01312255859375,0.9798583984375,4.91973876953125,-4.59075927734375,2.235565185546875,1,1.0,1.0,1.0,1.0,65.00
2021-04-10 22:35:38.305,0.5144937,0.16281457,0.73462397,-0.26006874,0.73688143,0.06188434,0.59594905,-0.0046874424,0.29583412,0.32592973,0.35817412,0.3324489,0.53659356,0.72255397,0.029727345,0.24835289,-0.17562497,0.31838256,0.09871588,-0.08007421,817.9487,797.8022,810.696,811.50183,738.5714,-0.21923828125,0.01458740234375,0.97900390625,4.486083984375,-4.553375244140625,1.697235107421875,1,1.0,1.0,1.0,1.0,65.00
2021-04-10 22:35:38.813,0.48929888,0.17509286,0.26171502,-0.07664564,0.65623695,0.048093874,0.10404265,-0.016865596,0.3418462,0.29993618,0.3316484,0.35040164,0.61718446,0.7073278,0.12703599,0.21893279,-0.18563314,0.3231699,0.19790488,-0.104433365,807.8755,811.50183,804.65204,816.7399,827.2161,-0.2183837890625,0.013427734375,0.9815673828125,4.463653564453125,-4.747772216796875,1.136474609375,1,1.0,1.0,1.0,1.0,65.00
2021-04-10 22:35:39.322,0.48929888,0.3451876,0.17010655,-0.07664564,0.65623695,-0.007891636,0.009461554,-0.016865596,0.3418462,0.2650106,0.39744863,0.35040164,0.61718446,0.70507896,0.11228692,0.21893279,-0.18563314,0.24590732,0.19024935,-0.104433365,807.47253,825.2015,803.44324,807.47253,685.38464,-0.20916748046875,0.01092529296875,0.98101806640625,4.269256591796875,-5.001983642578125,0.0299072265625,1,1.0,1.0,1.0,1.0,65.00
2021-04-10 22:35:39.841,0.4534857,0.48146257,0.5366206,-0.004638638,0.5401696,0.10340818,0.200881,-0.09884429,0.27707124,0.3601729,0.41294768,0.23374452,0.7076764,0.7514952,0.13440458,0.13105895,-0.17341124,0.2513039,0.22142422,-0.12221188,801.8315,792.5641,808.68134,810.696,867.9121,-0.20623779296875,0.0068359375,0.97711181640625,4.493560791015625,-4.42626953125,0.8673095703125,1,1.0,1.0,1.0,1.0,65.00
2021-04-10 22:35:40.363,1.1337348,0.560194,0.6983646,0.4607854,0.5016317,0.10178446,0.27394503,0.09303812,0.63169354,0.32174754,0.39263517,0.123734675,0.14053193,0.75985384,0.110634245,0.23200361,-0.49324015,0.25147307,0.2520143,-0.22270028,803.8461,798.60803,799.81683,791.3553,685.38464,-0.205810546875,3.0517578125E-4,0.9739990234375,5.99639892578125,-3.6187744140625,1.667327880859375,1,1.0,1.0,1.0,1.0,65.00
2021-04-10 22:35:40.892,1.1214603,0.45499286,0.69620454,0.38921028,0.626779,0.13304566,0.27979615,0.032671314,0.68130267,0.28414497,0.37446204,0.3301963,0.2616591,0.76856935,0.07434139,0.25784487,-0.39820784,0.35670853,0.26713645,-0.2247926,800.2198,790.14655,803.44324,804.65204,812.3077,-0.2215576171875,0.03985595703125,0.9752197265625,6.512298583984375,-0.97198486328125,1.203765869140625,1,1.0,1.0,1.0,1.0,65.00
2021-04-10 22:35:41.411,1.1440043,0.32630232,0.24822631,0.2885922,0.61948276,-0.019850846,-0.026590947,0.09840704,0.6648683,0.20947056,0.2195752,0.27383578,0.37245148,0.72424746,0.06902816,0.26288357,-0.2726107,0.41424885,0.15660888,-0.09429812,805.4579,748.24176,808.2784,836.4835,896.1172,-0.30029296875,0.0894775390625,0.95758056640625,10.048828125,11.088104248046875,5.301055908203125,1,1.0,1.0,1.0,1.0,65.00
2021-04-10 22:35:41.933,1.1513658,0.21343589,0.22540443,0.44355643,0.6244903,0.058829732,-0.024890397,0.10979333,0.54509866,0.0353813,0.15530442,0.4385035,0.4300341,0.74250805,0.08348565,0.27658257,-0.13463575,0.42560592,0.052935746,-0.060135145,666.4469,753.0769,676.52014,683.7729,725.2747,-0.4381103515625,0.23577880859375,0.8863525390625,8.38897705078125,5.5029296875,7.962799072265625,1,1.0,1.0,1.0,1.0,65.00
2021-04-10 22:35:42.452,1.1787165,0.3008708,0.1587113,0.5270037,0.5146178,0.030868175,-0.019893518,0.19291744,0.46832052,-0.0018409754,-0.03575933,0.40770498,0.45383883,0.5832707,0.1271719,0.26691315,-0.058862004,0.38987553,-0.011462457,0.019085987,711.978,727.6923,729.304,727.6923,777.25275,-0.375,0.16204833984375,0.9117431640625,-0.814971923828125,-16.740570068359375,-4.134674072265625,1,1.0,1.0,1.0,1.0,65.00
2021-04-10 22:35:42.981,1.0929157,0.3008708,0.38199973,0.7221707,0.4123409,0.030868175,0.08078518,0.09579066,0.28876382,-0.0018409754,-0.17831653,0.32282475,0.3063083,0.5832707,0.11504624,0.12984776,0.0041578095,0.38987553,-0.07552983,-0.056179695,799.011,822.7839,815.5311,808.2784,733.3333,-0.2945556640625,0.115966796875,0.9486083984375,3.33465576171875,-8.97216796875,0.2392578125,1,1.0,1.0,1.0,1.0,65.00
2021-04-10 22:35:43.488,1.0929157,0.3008708,0.38199973,0.7221707,0.4123409,0.030868175,0.08078518,0.09579066,0.28876382,-0.0018409754,-0.17831653,0.32282475,0.3063083,0.5832707,0.11504624,0.12984776,0.0041578095,0.38987553,-0.07552983,-0.056179695,855.42126,842.9304,806.26373,847.76556,699.4872,-0.2811279296875,0.090576171875,0.95587158203125,2.37762451171875,-2.504730224609375,0.34393310546875,1,1.0,1.0,1.0,1.0,65.00
2021-04-10 22:35:43.997,1.0929157,0.3008708,0.38199973,0.7221707,0.4123409,0.030868175,0.08078518,0.09579066,0.28876382,-0.0018409754,-0.17831653,0.32282475,0.3063083,0.5832707,0.11504624,0.12984776,0.0041578095,0.38987553,-0.07552983,-0.056179695,784.5055,792.5641,803.44324,797.3993,799.011,-0.27899169921875,0.095458984375,0.9569091796875,4.80010986328125,-3.81317138671875,7.10296630859375,1,1.0,1.0,1.0,1.0,65.00
2021-04-10 22:35:44.525,1.0929157,0.3008708,0.38199973,0.7221707,0.4123409,0.030868175,0.08078518,0.09579066,0.28876382,-0.0018409754,-0.17831653,0.32282475,0.3063083,0.5832707,0.11504624,0.12984776,0.0041578095,0.38987553,-0.07552983,-0.056179695,679.34064,525.0183,802.23444,711.5751,664.83514,-0.27984619140625,0.11553955078125,0.95660400390625,4.867401123046875,-7.514190673828125,1.981353759765625,1,2.0,1.0,1.0,2.0,65.00
2021-04-10 22:35:45.033,1.0929157,0.3008708,0.38199973,0.7221707,0.4123409,0.030868175,0.08078518,0.09579066,0.28876382,-0.0018409754,-0.17831653,0.32282475,0.3063083,0.5832707,0.11504624,0.12984776,0.0041578095,0.38987553,-0.07552983,-0.056179695,859.85345,844.1392,878.3883,880.80585,697.47253,-0.26422119140625,0.11358642578125,0.9566650390625,4.583282470703125,-5.09918212890625,1.757049560546875,1,2.0,1.0,1.0,2.0,65.00
2021-04-10 22:35:45.534,1.0929157,0.3008708,0.38199973,0.7221707,0.4123409,0.030868175,0.08078518,0.09579066,0.28876382,-0.0018409754,-0.17831653,0.32282475,0.3063083,0.5832707,0.11504624,0.12984776,0.0041578095,0.38987553,-0.07552983,-0.056179695,845.34796,832.4542,857.03296,832.4542,738.1685,-0.2677001953125,0.11822509765625,0.9566650390625,3.768310546875,-4.388885498046875,0.082244873046875,1,2.0,1.0,1.0,2.0,65.00
2021-04-10 22:35:46.049,1.0929157,0.3008708,0.38199973,0.7221707,0.4123409,0.030868175,0.08078518,0.09579066,0.28876382,-0.0018409754,-0.17831653,0.32282475,0.3063083,0.5832707,0.11504624,0.12984776,0.0041578095,0.38987553,-0.07552983,-0.056179695,818.3516,848.5714,824.7985,829.2308,707.9487,-0.27130126953125,0.1051025390625,0.95806884765625,4.0374755859375,-5.166473388671875,-1.2261962890625,1,2.0,1.0,1.0,2.0,65.00
2021-04-10 22:35:46.554,1.0929157,0.3008708,0.38199973,0.7221707,0.4123409,0.030868175,0.08078518,0.09579066,0.28876382,-0.0018409754,-0.17831653,0.32282475,0.3063083,0.5832707,0.11504624,0.12984776,0.0041578095,0.38987553,-0.07552983,-0.056179695,809.4872,800.6227,831.6484,810.696,771.6117,-0.26611328125,0.1092529296875,0.96868896484375,4.77020263671875,-5.061798095703125,1.472930908203125,1,2.0,1.0,1.0,2.0,65.00
2021-04-10 22:35:47.059,1.0929157,0.3008708,0.8401349,0.7221707,0.4123409,0.030868175,0.45635065,0.09579066,0.28876382,-0.0018409754,0.38852102,0.32282475,0.3063083,0.5832707,0.3896226,0.12984776,0.0041578095,0.38987553,-0.11860597,-0.056179695,827.2161,805.05493,823.9927,817.5458,743.00366,-0.26434326171875,0.10650634765625,0.96630859375,4.538421630859375,-4.732818603515625,1.375732421875,1,2.0,1.0,1.0,2.0,65.00
2021-04-10 22:35:47.582,1.0929157,0.25995484,0.5545686,0.33602402,0.4123409,0.37447044,0.17276408,0.35150552,0.28876382,0.6519605,0.37417892,0.7649733,0.3063083,0.5724779,0.45421618,0.2596167,0.0041578095,0.26723742,-0.3487685,-0.13287905,834.4689,835.2747,819.5604,826.8132,744.21246,-0.25787353515625,0.10040283203125,0.961181640625,4.179534912109375,-4.94964599609375,0.13458251953125,1,1.0,1.0,1.0,1.0,65.00
2021-04-10 22:35:48.084,0.9742986,0.49996218,0.7080885,0.42317614,0.45677978,0.45341125,0.2314271,0.32994434,0.33137435,0.67655903,0.40025315,0.7686981,0.29066995,0.6178513,0.4142335,0.26252165,-0.2968933,0.23256174,-0.26924065,-0.1265308,737.76556,776.04395,834.87177,733.73627,919.0842,-0.25335693359375,0.1033935546875,0.96551513671875,4.553375244140625,-4.044952392578125,1.12152099609375,1,1.0,1.0,1.0,1.0,65.00
2021-04-10 22:35:48.611,0.9742986,0.5284057,0.77127475,0.39185277,0.45677978,0.48499927,0.28756958,0.28437638,0.33137435,0.6701641,0.31513128,0.67136115,0.29066995,0.62753105,0.34081823,0.26533473,-0.2968933,0.19585727,-0.17323552,-0.1255934,812.71063,798.60803,800.6227,805.05493,799.41394,-0.251708984375,0.0980224609375,0.96484375,4.598236083984375,-4.50103759765625,1.09161376953125,1,1.0,1.0,1.0,1.0,65.00
2021-04-10 22:35:49.120,0.94172287,0.5850491,0.8828375,0.54239297,0.3833023,0.35617283,0.41026616,0.36259016,0.29607323,0.63470674,0.3619794,0.47436,0.28554195,0.69933695,0.28609598,0.26826984,-0.29644802,0.34308913,-0.08382436,-0.14355539,805.8608,827.2161,817.1429,815.12823,686.99634,-0.2501220703125,0.10662841796875,0.95965576171875,4.5159912109375,-4.687957763671875,1.278533935546875,1,1.0,1.0,1.0,1.0,65.00
2021-04-10 22:35:49.650,0.94172287,0.25659093,0.7596738,0.59145653,0.3833023,0.29035008,0.3386653,0.43291432,0.29607323,0.47297776,0.3989574,0.47436,0.28554195,0.75035906,0.2875821,0.2698042,-0.29644802,0.31974685,-0.14817911,-0.18437287,815.5311,769.59705,813.1135,804.65204,851.39197,-0.24639892578125,0.1021728515625,0.97198486328125,4.725341796875,-4.78515625,0.755157470703125,1,1.0,1.0,1.0,1.0,65.00
2021-04-10 22:35:50.158,0.6455357,0.35963145,0.58289546,0.39358547,0.25753516,0.267107,0.17100711,-0.10468564,0.53809613,0.52793247,0.48572496,0.2319206,0.21048854,0.7154349,0.28018808,0.3765738,-0.37463215,0.25727066,-0.28642064,-0.22567892,811.0989,802.23444,817.5458,799.81683,692.23444,-0.25140380859375,0.09686279296875,0.95599365234375,4.508514404296875,-3.75335693359375,0.366363525390625,1,1.0,1.0,1.0,1.0,65.00
2021-04-10 22:35:50.665,0.6680832,0.6748478,0.75844145,0.41832474,0.23833673,0.49780896,0.2917112,-0.07181916,0.58246785,0.7698349,0.63236284,0.45800447,0.21958269,0.7011822,0.30923498,0.37006527,-0.3740517,0.13854365,-0.39758968,-0.20804389,813.1135,822.381,816.337,820.3663,710.3663,-0.2559814453125,0.10101318359375,0.96337890625,5.286102294921875,-3.506622314453125,1.3458251953125,1,1.0,1.0,1.0,1.0,65.00
2021-04-10 22:35:51.181,0.69216555,0.7765977,0.8331201,0.4445122,0.0940651,0.5260896,0.54258394,-0.09613514,0.49520594,0.846464,0.64806604,0.44051576,0.23646034,0.6906154,0.26930436,0.31016585,-0.41335666,0.196713,-0.39237368,-0.17356682,808.68134,813.5165,814.3223,815.5311,713.9927,-0.2559814453125,0.101806640625,0.96221923828125,4.553375244140625,-4.044952392578125,0.994415283203125,1,1.0,1.0,1.0,1.0,65.00
2021-04-10 22:35:51.690,0.6760878,0.74748975,0.81329626,0.4829689,-0.0054444205,0.50689656,0.5698993,-0.04639878,0.4151482,0.84450454,0.6382453,0.4399159,0.2640283,0.7521196,0.2575867,0.30718043,-0.44099644,0.25554368,-0.3034572,-0.15217698,806.6667,814.3223,808.2784,801.8315,707.1429,-0.2584228515625,0.101318359375,0.96307373046875,4.77020263671875,-4.68048095703125,1.757049560546875,1,1.0,1.0,1.0,1.0,65.00
2021-04-10 22:35:52.205,0.76420486,0.5255793,0.34785306,0.40664813,0.564776,0.20406047,0.33067524,0.26213306,0.30655003,0.7533688,0.4651412,0.35756475,0.20000862,0.72664964,0.18961675,0.281575,-0.16767964,0.40861875,-0.120957986,-0.1689538,800.6227,790.9524,803.44324,798.60803,811.0989,-0.2554931640625,0.1009521484375,0.961181640625,4.448699951171875,-4.3365478515625,1.0467529296875,1,1.0,1.0,1.0,1.0,65.00
2021-04-10 22:35:52.722,0.7314607,0.45090437,0.19759525,0.38831624,0.5241475,0.08930879,0.07716492,0.2389447,0.30655003,0.3721731,0.37613508,0.35756475,0.17756246,0.67355365,0.15759772,0.2514455,-0.17547034,0.47264102,0.026917538,-0.17465119,815.12823,808.68134,822.7839,832.4542,786.9231,-0.2559814453125,0.1014404296875,0.96160888671875,4.4561767578125,-4.6356201171875,1.487884521484375,1,1.0,1.0,1.0,1.0,65.00
2021-04-10 22:35:53.232,0.65236264,0.65296674,0.40696022,0.4671299,0.43854553,0.2637696,0.18455732,0.14554714,0.17120919,0.3086028,0.352592,0.34045294,0.1344171,0.57376885,0.14908129,0.12227175,-0.1807316,0.5081384,0.087443866,-0.20021294,794.17584,814.3223,801.02563,804.2491,728.9011,-0.254638671875,0.1026611328125,0.96588134765625,4.448699951171875,-4.32159423828125,0.859832763671875,1,1.0,1.0,1.0,1.0,65.00
2021-04-10 22:35:53.741,0.53548276,0.68793845,0.5085784,0.5499899,-0.038390726,0.3484649,0.21765001,0.047422085,-0.0038090572,0.35130748,0.4072976,0.20781192,-0.008200725,0.6222211,0.14241618,-0.16537857,-0.21647814,0.38636842,0.008665836,-0.23001692,792.5641,803.0403,816.7399,806.6667,722.4542,-0.25103759765625,0.1033935546875,0.96160888671875,4.523468017578125,-4.732818603515625,0.16448974609375,1,1.0,1.0,1.0,1.0,65.00
2021-04-10 22:35:54.268,0.86765367,0.8198949,0.77939296,0.2619896,0.3433581,0.4687805,0.27639472,0.38876176,0.5500034,0.34373373,0.43303025,0.27633193,0.45241565,0.64962834,0.13165976,0.41891006,-0.4488435,0.18017864,-0.11995365,-0.16881703,761.53845,786.9231,833.2601,768.3883,782.49084,-0.24847412109375,0.10107421875,0.96478271484375,4.957122802734375,-4.508514404296875,0.777587890625,1,1.0,1.0,1.0,1.0,65.00
2021-04-10 22:35:54.784,0.86765367,0.8004923,0.8586589,0.2619896,0.3433581,0.4235563,0.2391357,0.38876176,0.5500034,0.3137403,0.3014353,0.27633193,0.45241565,0.67243004,0.10348167,0.41891006,-0.4488435,0.123781584,-0.28007424,-0.16881703,802.23444,795.78754,805.4579,809.89014,799.81683,-0.25341796875,0.0955810546875,0.96429443359375,4.673004150390625,-4.0673828125,1.016845703125,1,1.0,1.0,1.0,1.0,65.00
2021-04-10 22:35:55.304,0.92250854,0.8004923,1.0677856,0.21796453,0.38236177,0.4235563,0.38269788,0.42692947,0.52279556,0.3137403,0.23179941,0.2643226,0.46578237,0.67243004,0.08228435,0.4411732,-0.48201674,0.123781584,-0.30841944,-0.11916058,805.4579,808.2784,816.337,815.12823,743.00366,-0.24957275390625,0.09735107421875,0.96844482421875,4.792633056640625,-4.807586669921875,1.323394775390625,1,1.0,1.0,1.0,1.0,70.00
2021-04-10 22:35:55.816,0.19195133,0.8004923,-0.0912885,0.45786247,0.23796944,0.4235563,-0.061219163,0.2621908,0.38798347,0.3137403,0.1266245,0.43842885,0.087784514,0.67243004,0.2116965,0.38649863,-0.2937253,0.123781584,-0.19572794,-0.012893675,812.71063,830.4396,804.65204,809.0842,726.4835,-0.250732421875,0.10113525390625,0.96539306640625,4.658050537109375,-4.486083984375,1.173858642578125,1,1.0,1.0,1.0,1.0,70.00
2021-04-10 22:35:56.347,0.3528112,0.37957028,-0.19691628,0.21352522,0.18926415,-0.087984554,-0.010442283,0.035009004,0.45904928,0.31021354,0.21817733,0.4712048,0.14235277,0.6835573,0.17197934,0.37324816,-0.22198635,0.30909634,-0.059269592,-0.04998832,817.5458,792.1612,814.3223,809.0842,825.2015,-0.2474365234375,0.0953369140625,0.95947265625,4.134674072265625,-4.5458984375,0.800018310546875,1,1.0,1.0,1.0,1.0,70.00
2021-04-10 22:35:56.852,0.36773634,0.62074834,0.5151898,0.35417044,0.2249925,0.075700104,0.36222404,0.24332513,0.48259518,0.34571514,0.2374921,0.5284366,0.16255505,0.6890449,0.16058488,0.32056296,-0.18510123,0.23356882,-0.02808559,0.04787081,805.8608,820.3663,810.696,810.696,742.6007,-0.24713134765625,0.10064697265625,0.96649169921875,4.47113037109375,-4.35150146484375,0.777587890625,1,1.0,1.0,1.0,1.0,70.00
2021-04-10 22:35:57.378,0.42474657,0.5298749,0.6045753,0.35814214,0.24430849,0.016023465,0.35769242,0.21048859,0.47697553,0.3381531,0.19213139,0.33943173,0.15836371,0.6938424,0.15297192,0.26550752,-0.177309,0.23981887,0.003973102,0.073740825,819.5604,816.337,791.3553,835.6777,743.00366,-0.25152587890625,0.0999755859375,0.96527099609375,4.77020263671875,-4.42626953125,1.2860107421875,1,1.0,1.0,1.0,1.0,70.00
2021-04-10 22:35:57.886,0.40894082,0.62514263,0.6755793,0.53759056,0.29610756,0.24507695,0.5317418,0.3864658,0.2407473,0.2572158,0.33315796,0.32507563,0.14321563,0.68215513,0.07894791,0.18015201,-0.18061778,0.15436964,-0.05286917,0.15845951,802.23444,796.1905,806.26373,806.6667,814.7253,-0.25347900390625,0.09783935546875,0.96453857421875,4.538421630859375,-4.119720458984375,0.605621337890625,1,1.0,1.0,1.0,1.0,70.00
2021-04-10 22:35:58.388,0.45253265,0.52401996,0.4287343,0.6257206,0.3513555,0.27376223,0.36304307,0.32442582,0.14748995,0.2894181,0.31536373,0.27232674,0.06975819,0.6733074,0.03372859,0.13017035,-0.24922873,0.21125287,0.08508885,0.18825871,800.2198,808.68134,813.1135,815.5311,738.1685,-0.25872802734375,0.09130859375,0.96844482421875,2.444915771484375,-1.74957275390625,-1.54022216796875,1,1.0,1.0,1.0,1.0,70.00
2021-04-10 22:35:58.910,0.07540556,0.46538374,0.32514215,0.22427255,0.069242656,0.19596086,0.34285438,0.2574617,0.3661268,0.2894181,0.31075394,0.40492514,0.16917568,0.6461977,0.06334626,0.41148055,-0.37898013,0.15681061,0.18811311,-0.03896164,805.4579,799.011,817.1429,804.65204,734.5421,-0.28399658203125,0.0460205078125,0.99908447265625,0.5682373046875,-10.90118408203125,-3.81317138671875,1,1.0,1.0,1.0,1.0,70.00
2021-04-10 22:35:59.430,0.580514,0.35297492,0.5499989,0.3987584,0.043138146,0.078258246,0.04560213,0.1457789,0.38849247,0.366088,0.15789285,0.55029243,0.091697335,0.66386443,0.23027633,0.33907095,-0.206896,0.1615726,0.15831469,-0.11505875,798.60803,804.2491,806.6667,812.3077,772.01465,-0.215087890625,0.17645263671875,0.98321533203125,16.830291748046875,-7.439422607421875,21.555633544921875,1,1.0,1.0,1.0,1.0,70.00
2021-04-10 22:35:59.933,0.64651287,0.4148213,0.64438796,0.48037985,0.065291084,-0.002761837,-0.109789446,0.10295406,0.4124428,0.44179234,0.09190261,0.55029243,0.1950222,0.63827,0.33864146,0.34109527,-0.21257783,0.07349774,-0.032494634,-0.19349428,795.38464,799.011,799.011,793.7729,480.69598,-0.2747802734375,0.26397705078125,0.946044921875,2.91595458984375,0.897216796875,5.682373046875,1,1.0,1.0,1.0,1.0,70.00
2021-04-10 22:36:00.451,0.748263,0.6074715,0.6180583,0.59554756,0.1533782,0.13328388,-0.014881645,0.016465576,0.37414366,0.4667076,0.22335476,0.50869036,0.1888112,0.6558644,0.3898462,0.26366574,-0.09986777,0.032456655,-0.20950879,-0.22799346,790.9524,787.72894,803.0403,786.52014,526.63007,-0.18463134765625,0.17681884765625,0.98779296875,1.054229736328125,-13.047027587890625,9.921722412109375,1,1.0,1.0,1.0,1.0,70.00
2021-04-10 22:36:00.964,0.75576985,0.7594327,0.2617101,0.7275441,0.45307213,0.35235208,-0.05642565,0.45193225,0.377691,0.47978383,0.24232598,0.49944136,0.23656918,0.61900324,0.42738974,0.3032057,-0.10122627,0.012098015,-0.06669388,-0.28944623,804.65204,815.5311,803.8461,807.47253,722.8571,-0.1085205078125,0.19158935546875,0.973876953125,1.74957275390625,-17.21160888671875,4.65057373046875,1,1.0,1.0,1.0,1.0,70.00
2021-04-10 22:36:01.486,0.7448732,0.792134,0.1475082,0.6833296,0.51472944,0.43969148,-0.043685216,0.4829276,0.3950455,0.34309426,0.1946833,0.5105826,0.15735978,0.6957702,0.3493258,0.30681053,-0.11746159,0.12890859,-0.06497568,-0.16630058,794.57874,813.91943,770.40295,783.2967,701.0989,0.12249755859375,0.22216796875,0.966552734375,4.3365478515625,-10.1385498046875,-2.788848876953125,1,1.0,1.0,1.0,1.0,70.00
2021-04-10 22:36:02.001,0.6602347,0.8172765,0.8319467,0.6049875,0.4693002,0.53071624,-0.13118586,0.4628064,0.5839973,0.24902862,0.20377502,0.77031493,0.1879559,0.7052721,0.23470505,0.32167795,-0.18059582,0.20223518,-0.036185652,-0.16500333,793.7729,788.93774,806.6667,802.6374,848.1685,0.00244140625,0.23419189453125,0.9862060546875,2.504730224609375,15.7611083984375,1.62994384765625,1,1.0,1.0,1.0,1.0,70.00
2021-04-10 22:36:02.512,0.54692453,0.7686763,1.0641434,0.3770124,0.34038177,0.66278344,-0.13301937,0.019653967,0.6376656,0.435881,0.24126454,0.79009783,0.16208076,0.68743545,0.1289362,0.32884666,-0.17716129,0.18691285,0.01008205,-0.14747113,801.4286,796.5934,795.78754,805.8608,1017.3993,-0.36553955078125,0.1636962890625,0.9014892578125,-0.43365478515625,11.2750244140625,-9.637603759765625,1,1.0,1.0,1.0,1.0,70.00
2021-04-10 22:36:03.030,0.4974182,0.505675,1.1045647,0.34587985,0.36852604,0.46684328,-0.17144525,-0.006142696,0.68081135,0.32585806,0.23368254,0.7976131,0.15667816,0.61578786,0.24052611,0.34799767,-0.114330046,0.44740856,0.079013,-0.21847229,799.011,831.2454,813.91943,802.6374,735.7509,-0.237548828125,0.13983154296875,0.94873046875,6.400146484375,-9.159088134765625,1.51031494140625,1,1.0,1.0,1.0,1.0,70.00
2021-04-10 22:36:03.557,0.571321,0.505675,0.9702589,0.23683727,0.45615608,0.46684328,-0.12563275,-0.011288406,0.65638655,0.32585806,0.26564762,0.6911758,0.14148831,0.61578786,0.23377916,0.3898256,-0.124346025,0.44740856,0.005389735,-0.2208775,817.1429,814.3223,816.7399,827.2161,777.25275,-0.16668701171875,0.11431884765625,0.990966796875,3.09539794921875,-4.42626953125,2.549591064453125,1,1.0,1.0,1.0,1.0,70.00
2021-04-10 22:36:04.081,0.6617124,0.5262424,0.7192021,0.23599046,0.45689255,0.2946814,0.008903559,0.10975581,0.4755951,0.21092378,0.29770243,0.43953088,0.15921769,0.65998644,0.15341693,0.35797128,-0.11859449,0.42020726,0.0061176848,-0.16471696,798.60803,801.02563,790.9524,806.6667,627.76556,-0.15008544921875,0.2095947265625,1.00091552734375,1.517791748046875,-4.90478515625,-2.325286865234375,1,1.0,1.0,1.0,1.0,70.00
2021-04-10 22:36:04.609,0.72345936,0.6835828,0.71506995,0.30638537,0.42770305,0.4638221,0.046218425,0.07873484,0.439554,0.058034737,0.2910093,0.34528974,0.18659268,0.6654158,0.05944588,0.261695,-0.080815464,0.16960967,0.011715876,-0.14091282,802.23444,795.78754,799.81683,797.8022,718.022,-0.29742431640625,0.165283203125,0.971435546875,5.704803466796875,-10.699310302734375,-6.08612060546875,1,1.0,1.0,1.0,1.0,70.00
2021-04-10 22:36:05.117,0.31057477,0.303349,0.5912556,0.45130542,0.6333629,0.27272755,-0.0025323804,-0.03656869,0.1960074,0.058322843,0.30702707,0.14077769,0.35779133,0.645559,0.08625687,0.27125135,-0.26518437,0.3771457,0.041498788,0.14564091,795.38464,798.60803,811.0989,797.3993,751.06226,-0.2215576171875,0.21795654296875,0.9593505859375,6.168365478515625,-7.484283447265625,3.521575927734375,1,1.0,1.0,1.0,1.0,70.00
2021-04-10 22:36:05.645,0.22590528,0.046033043,0.50046337,0.3568106,0.50273955,-0.1169643,-0.09970137,0.20925109,0.89662874,0.2255906,0.21936123,0.7984831,0.36376876,0.65852344,0.22714528,0.38492498,-0.3009994,0.3796619,-0.051689807,0.024554888,787.72894,804.2491,807.8755,793.7729,755.09155,-0.203125,0.15191650390625,0.96575927734375,1.128997802734375,-7.37213134765625,-5.450592041015625,1,1.0,1.0,1.0,1.0,70.00
2021-04-10 22:36:06.169,0.18983509,0.3982623,0.5789819,0.2825812,0.5318351,0.15639047,0.028997792,0.38919675,0.9947737,0.60633004,0.27777138,0.8194015,0.4059307,0.7002671,0.26834834,0.41888183,-0.3126959,0.34520864,-0.10631209,-0.06751407,844.94507,799.011,803.0403,844.1392,783.2967,-0.17156982421875,0.14263916015625,0.97784423828125,4.62066650390625,-4.658050537109375,1.622467041015625,1,1.0,1.0,1.0,1.0,70.00
2021-04-10 22:36:06.698,0.15203269,0.6610259,0.7779085,0.12113157,0.55007255,0.39029723,0.31756032,0.53592587,0.9947737,0.6422856,0.3644806,0.81933343,0.4108169,0.6752682,0.25974464,0.5248595,-0.307985,0.33600655,-0.05324852,-0.13154805,818.3516,819.15753,805.4579,813.5165,745.42126,-0.17364501953125,0.13519287109375,0.97503662109375,6.26556396484375,-1.697235107421875,4.822540283203125,1,1.0,1.0,1.0,1.0,70.00
2021-04-10 22:36:07.208,0.21667546,0.70670015,0.82555544,0.10994629,0.75618714,0.46790695,0.28256622,0.68951136,0.9947737,0.70484024,0.36040434,0.7266092,0.45628813,0.6027639,0.27445695,0.5691886,-0.28627327,0.29883164,-0.07862792,-0.08502639,805.05493,790.9524,804.65204,811.0989,732.52747,-0.2039794921875,0.1531982421875,0.9713134765625,3.96270751953125,-3.45428466796875,1.921539306640625,1,1.0,1.0,1.0,1.0,70.00
2021-04-10 22:36:07.731,0.5974273,0.59533924,0.70275956,0.45448855,0.33865607,0.3916252,0.21075304,0.39446905,0.5141304,0.6517063,0.31290847,0.4057626,0.4028144,0.52163553,0.23066486,0.5306129,-0.2813765,0.2113399,-0.097003594,-0.20108743,791.75824,802.23444,813.1135,802.6374,753.8828,-0.19146728515625,0.1505126953125,0.97808837890625,4.299163818359375,-4.5458984375,1.368255615234375,1,1.0,1.0,1.0,1.0,70.00
2021-04-10 22:36:08.235,0.9006552,0.47597852,0.49982777,0.64117295,0.53659487,0.19138522,-0.2112396,0.38437256,0.5420725,0.49259272,0.18070087,0.46159086,0.46879727,0.57996345,0.1912288,0.46456262,-0.26651782,0.08662909,-0.17035495,-0.1588909,787.72894,810.696,795.78754,790.9524,642.674,-0.1939697265625,0.1478271484375,0.97021484375,4.26177978515625,-4.29168701171875,0.7177734375,1,1.0,1.0,1.0,1.0,70.00
2021-04-10 22:36:08.746,0.92733085,0.5897512,0.5895767,0.5503726,0.6460341,0.27254823,0.0968736,0.30362776,0.5491801,0.42778158,0.3983289,0.46159086,0.501161,0.6514063,0.1488901,0.4202835,-0.23701857,0.121537395,-0.25487816,-0.15624505,835.2747,798.20514,796.1905,836.8865,828.4249,-0.213134765625,0.13348388671875,0.97479248046875,-2.0037841796875,-0.590667724609375,-2.27294921875,1,1.0,1.0,1.0,1.0,70.00
2021-04-10 22:36:09.255,1.0195305,0.6541891,0.8898179,0.5870206,0.73432857,0.35175604,0.4322398,0.2562256,0.31661987,0.41799855,0.4585535,0.3891415,0.53861254,0.6601132,0.15996137,0.36052832,-0.21867043,0.19192734,-0.2225949,-0.13771069,807.0696,799.011,803.8461,811.9048,808.2784,-0.34112548828125,0.04058837890625,0.92327880859375,5.27862548828125,26.744537353515625,4.987030029296875,1,1.0,1.0,1.0,1.0,70.00
2021-04-10 22:36:09.787,0.9819602,0.5811061,0.96578866,0.22869903,0.822469,0.2837542,0.51561314,0.036232144,0.3015314,0.43966433,0.47336486,0.23163614,0.5662083,0.6938171,0.18072468,0.30023667,-0.17716928,0.19965225,-0.14288911,-0.1503502,755.4945,776.8498,759.92676,759.12085,706.7399,-0.42022705078125,0.1217041015625,0.91339111328125,3.3197021484375,-19.3499755859375,8.1646728515625,1,1.0,1.0,1.0,1.0,70.00
2021-04-10 22:36:10.312,0.9819602,0.47774422,1.0041916,0.22869903,0.822469,0.06216651,0.58589464,0.036232144,0.3015314,0.35420996,0.26830974,0.23163614,0.5662083,0.7234659,0.14505503,0.30023667,-0.17716928,0.2501149,-0.008368988,-0.1503502,817.1429,792.5641,799.41394,824.3956,851.79486,-0.26263427734375,0.1055908203125,0.96685791015625,4.68048095703125,-8.321685791015625,3.461761474609375,1,1.0,1.0,1.0,1.0,70.00
2021-04-10 22:36:10.815,0.9819602,0.4580819,0.7918999,0.22869903,0.822469,-0.23587646,0.3373868,0.036232144,0.3015314,0.13065605,0.001248308,0.23163614,0.5662083,0.775794,0.21592236,0.30023667,-0.17716928,0.25384042,0.07789483,-0.1503502,796.5934,836.4835,766.77655,786.1172,709.5604,-0.25177001953125,0.09771728515625,0.96875,3.162689208984375,-6.063690185546875,-1.42059326171875,1,1.0,1.0,1.0,1.0,70.00
2021-04-10 22:36:11.330,0.9819602,0.4580819,0.7918999,0.22869903,0.822469,-0.23587646,0.3373868,0.036232144,0.3015314,0.13065605,0.001248308,0.23163614,0.5662083,0.775794,0.21592236,0.30023667,-0.17716928,0.25384042,0.07789483,-0.1503502,815.12823,810.293,809.0842,812.71063,750.2564,-0.23583984375,0.0718994140625,0.96514892578125,4.448699951171875,-3.970184326171875,0.411224365234375,1,2.0,1.0,1.0,2.0,70.00
2021-04-10 22:36:11.860,0.9819602,0.3343083,0.8996097,0.22869903,0.822469,0.020200176,0.611404,0.036232144,0.3015314,0.2857693,0.32907042,0.23163614,0.5662083,0.70692205,0.23119715,0.30023667,-0.17716928,0.07293209,-0.08031941,-0.1503502,768.7912,781.28204,797.8022,779.2674,1105.641,-0.24993896484375,0.076171875,0.96759033203125,4.553375244140625,-4.179534912109375,0.934600830078125,1,2.0,1.0,1.0,2.0,70.00
2021-04-10 22:36:12.363,0.9819602,0.37377128,0.8033671,0.22869903,0.822469,0.19889496,0.4755025,0.036232144,0.3015314,0.44607386,0.42534587,0.23163614,0.5662083,0.6268422,0.16744296,0.30023667,-0.17716928,0.13551268,-0.012864685,-0.1503502,814.7253,832.8571,813.1135,815.9341,667.25275,-0.2447509765625,0.07489013671875,0.97393798828125,4.403839111328125,-4.673004150390625,0.889739990234375,1,2.0,1.0,1.0,2.0,70.00
2021-04-10 22:36:12.870,0.9819602,0.36807212,0.7573042,0.22869903,0.822469,0.16410147,0.1732511,0.036232144,0.3015314,0.44326386,0.39884537,0.23163614,0.5662083,0.6220596,0.17061038,0.30023667,-0.17716928,0.1735913,0.008794874,-0.1503502,819.5604,784.10254,808.2784,811.0989,716.8132,-0.2430419921875,0.07330322265625,0.97119140625,4.448699951171875,-4.463653564453125,1.099090576171875,1,2.0,1.0,1.0,2.0,70.00
2021-04-10 22:36:13.386,0.9819602,0.3885655,0.61589724,0.22869903,0.822469,0.15920985,-0.089587614,0.036232144,0.3015314,0.43533367,0.34146374,0.23163614,0.5662083,0.6378144,0.17756523,0.30023667,-0.17716928,0.262122,0.044883277,-0.1503502,818.7546,823.1868,804.2491,813.1135,770.80585,-0.241943359375,0.06982421875,0.96527099609375,4.418792724609375,-4.732818603515625,0.777587890625,1,2.0,1.0,1.0,2.0,70.00
2021-04-10 22:36:13.888,0.9123369,0.33456624,0.5519035,0.11152514,0.32602382,-0.029600363,-0.23171328,0.39285836,0.5398991,0.3626735,0.18032213,0.44542596,0.094232716,0.75122833,0.22913562,0.19479316,-0.6137066,0.31473124,-0.033216316,-0.24920408,813.91943,826.8132,813.91943,803.8461,661.2088,-0.239013671875,0.0751953125,0.97076416015625,4.8748779296875,-4.613189697265625,0.635528564453125,1,1.0,1.0,1.0,1.0,70.00
2021-04-10 22:36:14.403,0.8482797,0.23833707,0.37967753,0.11273811,0.35215503,0.09080438,-0.1453743,0.3246366,0.63826275,0.49833798,0.29827473,0.49161118,0.1201615,0.72861814,0.2297911,0.19636938,-0.49411252,0.32367653,-0.03181151,-0.19285397,847.76556,784.5055,796.1905,850.58606,823.9927,-0.24932861328125,0.07867431640625,0.9686279296875,4.329071044921875,-4.000091552734375,0.800018310546875,1,1.0,1.0,1.0,1.0,70.00
2021-04-10 22:36:14.907,0.60771763,0.3162118,0.65688455,0.06481297,0.36636707,0.33277276,0.48790726,0.30738616,0.6041049,0.5289303,0.6115952,0.35238105,0.09055047,0.66307646,0.24796464,0.21748152,-0.46001732,0.31383786,0.0052810204,-0.16634731,811.9048,807.0696,816.7399,818.3516,771.2088,-0.24444580078125,0.0694580078125,0.96307373046875,4.029998779296875,-4.20196533203125,0.299072265625,1,1.0,1.0,1.0,1.0,70.00
2021-04-10 22:36:15.426,0.6536468,0.3558477,0.85851395,0.03283174,0.41684982,0.49362218,0.6308046,0.10310556,0.5658586,0.4862273,0.6115952,0.2852155,0.16621551,0.46934155,0.30658683,0.22488458,-0.3178056,0.27123255,0.034645606,-0.07886014,804.2491,802.6374,803.8461,807.8755,717.2161,-0.240478515625,0.0760498046875,0.973876953125,5.151519775390625,-4.725341796875,1.2261962890625,1,1.0,1.0,1.0,1.0,70.00
2021-04-10 22:36:15.935,0.6536468,0.36382803,0.9055227,0.6221871,0.41684982,0.44814435,0.62507087,-0.09861236,0.5658586,0.52836144,0.61135,0.29615423,0.16621551,0.58121264,0.35673875,0.15315174,-0.3178056,0.25521848,-0.035751686,-0.13859604,794.17584,811.50183,807.47253,828.022,915.05493,-0.2393798828125,0.07550048828125,0.97222900390625,5.09918212890625,-4.6356201171875,1.263580322265625,1,1.0,1.0,1.0,1.0,65.00
2021-04-10 22:36:16.447,0.71170866,0.10175109,0.7555656,0.42179462,0.2662399,0.0743663,0.25718865,-0.15290558,0.123637386,0.24040504,0.27973905,0.33144403,0.028515443,0.6024993,0.36676165,0.10580632,-0.47643387,0.21716109,-0.12147528,-0.17010903,809.0842,819.9634,806.26373,816.337,760.32965,-0.23681640625,0.07135009765625,0.97314453125,4.523468017578125,-4.6356201171875,0.605621337890625,1,1.0,1.0,1.0,1.0,65.00
2021-04-10 22:36:16.972,0.6101263,0.0059413775,0.7409109,0.58778125,0.23829354,-0.020389836,0.048613574,0.004079212,0.28326467,0.32411152,0.14250666,0.4969786,0.0033374063,0.5925616,0.31515005,0.20801303,-0.32334322,0.2775377,-0.14687815,-0.13204418,827.2161,799.41394,805.8608,823.1868,726.4835,-0.231201171875,0.0672607421875,0.96685791015625,4.0972900390625,-4.553375244140625,1.173858642578125,1,1.0,1.0,1.0,1.0,65.00
2021-04-10 22:36:17.497,0.6049483,0.04187141,0.68864554,0.5674194,0.21075998,-0.100987285,0.22950736,0.052127946,0.27788362,0.32018426,0.1931786,0.49488333,-0.018996937,0.5207752,0.2726757,0.23574074,-0.31984046,0.27172044,-0.032469787,-0.12844652,796.5934,789.34064,810.293,809.4872,738.1685,-0.23077392578125,0.07147216796875,0.97198486328125,4.38140869140625,-4.732818603515625,0.34393310546875,1,1.0,1.0,1.0,1.0,65.00
2021-04-10 22:36:18.022,0.39167997,0.23169991,0.7257464,0.84162813,0.19268246,-0.19256444,0.3177359,0.24919015,0.2353635,0.45480964,0.13496356,0.45719904,-0.037397943,0.54068196,0.23993382,0.39106753,-0.16329156,0.36948085,-0.029908858,-0.04933391,801.4286,814.3223,808.2784,819.9634,694.65204,-0.2322998046875,0.07269287109375,0.9739990234375,4.089813232421875,-5.12908935546875,1.0467529296875,1,1.0,1.0,1.0,1.0,65.00
2021-04-10 22:36:18.527,0.39167997,0.36186108,0.51876426,0.84162813,0.19268246,-0.14366685,0.29852748,0.24919015,0.2353635,0.36417082,0.2537496,0.45719904,-0.037397943,0.524146,0.19896042,0.39106753,-0.16329156,0.36527908,0.014422741,-0.04933391,814.7253,796.1905,796.5934,815.9341,805.4579,-0.23065185546875,0.06414794921875,0.97698974609375,4.007568359375,-4.26177978515625,1.188812255859375,1,1.0,1.0,1.0,1.0,65.00
2021-04-10 22:36:19.032,0.9324707,0.35390395,0.43808645,0.4049374,0.10358498,-0.19144744,0.20979857,-0.507374,0.61820126,0.45565546,0.3157029,0.64955205,0.32016784,0.53390026,0.18653925,0.29938087,-0.25132266,0.23968509,-0.007221753,0.023734812,812.71063,815.12823,804.2491,812.3077,645.89746,-0.22686767578125,0.0675048828125,0.97344970703125,4.418792724609375,-4.000091552734375,0.919647216796875,1,1.0,1.0,1.0,1.0,65.00
2021-04-10 22:36:19.543,0.9324707,0.108932294,0.41675064,0.4049374,0.10358498,-0.15896139,0.31977805,-0.507374,0.61820126,0.5550527,0.35274187,0.64955205,0.32016784,0.5620873,0.19698559,0.29938087,-0.25132266,0.0983144,0.05346326,0.023734812,804.2491,797.8022,807.0696,796.99634,726.4835,-0.222900390625,0.06878662109375,0.97735595703125,4.224395751953125,-4.56085205078125,0.79254150390625,1,1.0,1.0,1.0,1.0,65.00
2021-04-10 22:36:20.049,0.9324707,0.2607998,0.23774919,0.4049374,0.10358498,-0.08837057,0.23392332,-0.507374,0.61820126,0.5607942,0.28524715,0.64955205,0.32016784,0.54840785,0.2760118,0.29938087,-0.25132266,0.119895145,0.005905313,0.023734812,803.44324,788.93774,812.3077,813.5165,751.06226,-0.2183837890625,0.06683349609375,0.974609375,4.583282470703125,-4.7552490234375,1.263580322265625,1,1.0,1.0,1.0,1.0,65.00
2021-04-10 22:36:20.572,0.56520265,0.38344887,0.3006584,0.3067257,0.16393831,-0.03210806,0.26746786,0.43649697,0.24062707,0.5396429,0.2805731,0.25252703,0.48158294,0.5560893,0.33008635,0.36134088,-0.35508597,0.18613915,-0.006559031,-0.108820066,799.81683,810.293,810.293,805.05493,720.84247,-0.2215576171875,0.0687255859375,0.9844970703125,4.94964599609375,-4.91973876953125,1.517791748046875,1,1.0,1.0,1.0,1.0,65.00
2021-04-10 22:36:21.091,0.48993656,0.4677781,0.37066922,0.12039141,0.38031542,0.134743,-0.00782826,0.3357629,0.36323527,0.45252043,0.21659182,0.3107156,0.35141096,0.51428235,0.35148734,0.3178861,-0.2072253,0.17489825,-0.12737551,-0.10373033,786.52014,805.05493,803.44324,793.36993,723.663,-0.2344970703125,0.070556640625,0.9658203125,9.25628662109375,-9.151611328125,-12.21710205078125,1,1.0,1.0,1.0,1.0,65.00
