TimeStamp,Delta_TP9,Delta_AF7,Delta_AF8,Delta_TP10,Theta_TP9,Theta_AF7,Theta_AF8,Theta_TP10,Alpha_TP9,Alpha_AF7,Alpha_AF8,Alpha_TP10,Beta_TP9,Beta_AF7,Beta_AF8,Beta_TP10,Gamma_TP9,Gamma_AF7,Gamma_AF8,Gamma_TP10,RAW_TP9,RAW_AF7,RAW_AF8,RAW_TP10,AUX_RIGHT,Accelerometer_X,Accelerometer_Y,Accelerometer_Z,Gyro_X,Gyro_Y,Gyro_Z,HeadBandOn,HSI_TP9,HSI_AF7,HSI_AF8,HSI_TP10,Battery,Elements
2021-04-26 22:36:57.121,1.0936472,0.41166037,-0.18056902,0.4946546,1.238198,0.46774402,0.32749572,0.49363136,1.2974414,0.55669975,0.18094568,0.5598409,0.3275468,0.31427693,-0.14265087,0.5245496,-0.35534352,-0.2479501,-0.56536734,0.08700014,794.9817,806.26373,807.0696,786.9231,589.89014,0.37689208984375,-0.15576171875,0.92364501953125,4.643096923828125,-4.927215576171875,1.114044189453125,1,1.0,1.0,1.0,1.0,100.00
2021-04-26 22:36:57.631,1.1688604,0.34611237,-0.08220681,0.42980474,1.3078855,0.49965575,0.28062776,0.4607358,1.2944055,0.5412606,0.18525507,0.46846914,0.38253096,0.27495003,-0.114676155,0.54380447,-0.2890926,-0.27541432,-0.60859644,0.07388973,785.31134,797.3993,806.6667,745.82416,591.9048,0.361572265625,-0.17254638671875,0.937744140625,4.59075927734375,2.25799560546875,-0.299072265625,1,1.0,1.0,1.0,1.0,100.00
2021-04-26 22:36:58.143,1.0427743,0.29585493,-0.027905656,0.7609365,1.1341535,0.3482415,-0.022753667,0.28726014,1.2033569,0.361554,0.15305336,0.7307256,0.37125388,0.1929199,-0.10280598,0.42018977,-0.34218302,-0.1762473,-0.5232081,0.0695892,764.35895,794.17584,801.4286,747.4359,652.74725,0.2381591796875,-0.16815185546875,0.960693359375,3.461761474609375,7.9254150390625,1.218719482421875,1,1.0,1.0,1.0,1.0,95.00
2021-04-26 22:36:58.659,1.1477662,0.42948517,-0.05064197,0.7609365,0.86492735,0.3090112,-0.27010238,0.28726014,1.0600724,0.32835954,0.15545522,0.7307256,0.36705768,0.14908868,-0.08255063,0.42018977,-0.40780473,-0.2164426,-0.43687195,0.0695892,838.0952,803.0403,801.8315,837.6923,848.1685,0.15496826171875,-0.122802734375,0.97503662109375,4.702911376953125,-1.74957275390625,-2.908477783203125,1,1.0,1.0,1.0,1.0,95.00
2021-04-26 22:36:59.186,1.1168213,0.6130182,0.53119785,0.7688023,0.8462525,0.39896086,-0.20589095,0.40088543,1.0429248,0.4570645,0.17885338,0.83701456,0.38023478,0.15302621,0.0024725387,0.46404567,-0.41976133,-0.13375139,-0.39909744,0.027040163,837.6923,798.20514,808.2784,857.03296,1109.2675,0.154541015625,-0.0897216796875,0.95928955078125,17.525634765625,-10.36285400390625,-5.480499267578125,1,1.0,1.0,1.0,1.0,95.00
2021-04-26 22:36:59.698,1.1647625,0.7308947,1.0170127,0.84869015,0.87258685,0.4660912,0.20144235,0.8499288,1.051938,0.4570645,0.25715888,0.7247771,0.51885575,0.16448146,0.07404175,0.41752404,-0.49461332,-0.12999785,-0.4269762,-0.10513873,784.90845,808.68134,803.44324,790.9524,671.685,0.16485595703125,-0.0599365234375,0.99798583984375,2.70660400390625,-3.648681640625,3.671112060546875,1,1.0,1.0,1.0,1.0,95.00
2021-04-26 22:37:00.208,0.8688511,0.829191,1.0553269,0.8399885,0.6420225,0.488266,0.3684475,0.739177,0.57790583,0.79212546,0.3351521,0.7405636,0.4366016,0.24633881,0.17355789,0.44002283,-0.37127203,-0.15239127,-0.53774923,-0.12951684,777.25275,841.31866,807.0696,770.80585,799.81683,0.16082763671875,-0.0511474609375,1.0072021484375,2.22808837890625,-13.218994140625,5.330963134765625,1,1.0,1.0,1.0,1.0,95.00
2021-04-26 22:37:00.732,0.96043044,0.8168194,0.7446241,0.8076549,0.58916044,0.35707662,0.31244275,0.7028671,0.56561947,0.770088,0.33997652,0.76281774,0.39621753,0.22442812,0.09501027,0.48841077,-0.11493761,-0.1621423,-0.3921141,0.022540893,798.60803,807.47253,802.6374,786.9231,807.47253,0.2269287109375,-0.05364990234375,0.97198486328125,8.074951171875,-6.302947998046875,2.519683837890625,1,1.0,1.0,1.0,1.0,95.00
2021-04-26 22:37:01.234,0.9095654,0.8818601,0.31187978,0.76094323,0.21598837,0.62938446,0.13634156,0.44130594,0.46296868,0.80917186,0.30510148,0.72432524,0.26126826,0.30202517,-0.012651715,0.5062036,-0.0028434421,-0.15469363,-0.3068682,0.07972368,782.0879,803.44324,810.293,789.34064,756.7033,0.27508544921875,-0.02056884765625,0.97894287109375,7.259979248046875,-7.34222412109375,3.985137939453125,1,1.0,1.0,1.0,1.0,95.00
2021-04-26 22:37:01.748,0.96643084,1.2648568,0.3588443,0.6814897,0.27522215,1.1169677,0.23440486,0.5143146,0.051550765,0.6522652,0.40920877,0.6291373,0.26624432,0.5034111,-0.05425429,0.51075935,0.13902652,-0.07639367,-0.2439509,0.23593031,809.4872,812.3077,806.6667,821.1722,745.0183,0.2486572265625,-0.0556640625,0.97119140625,5.1739501953125,-0.052337646484375,-2.1234130859375,1,1.0,1.0,1.0,1.0,95.00
2021-04-26 22:37:02.256,0.968503,1.0747988,0.35528076,0.6777519,0.32150015,0.8266776,0.22194093,0.56029993,0.045762923,0.6522652,0.5207981,0.62205094,0.3052384,0.4022749,0.00874331,0.5362274,0.18623304,-0.044677846,-0.3192301,0.27573228,755.89746,803.0403,810.696,788.1319,708.7546,0.31219482421875,0.01123046875,1.00018310546875,11.46942138671875,-8.97216796875,-8.9422607421875,1,1.0,1.0,1.0,1.0,95.00
2021-04-26 22:37:02.768,-0.11703636,0.98042434,0.21101034,0.17563677,0.43283018,0.5879607,0.16591005,0.11672121,0.6495649,0.64682907,0.52143407,0.47181645,0.47279385,0.36143008,0.032489568,0.28250802,-0.31654286,0.010259363,-0.4159495,-0.18701221,774.83514,798.20514,794.17584,767.5824,700.293,0.27984619140625,-0.02410888671875,0.96783447265625,4.90478515625,-5.0543212890625,2.878570556640625,1,1.0,1.0,1.0,1.0,95.00
2021-04-26 22:37:03.273,-0.053942636,0.6580748,0.01978422,0.20566845,0.45524958,0.04912732,-0.17071307,0.40940168,0.7749391,0.15877722,0.41035768,0.54711425,0.42139527,0.31058568,0.012759997,0.3515036,-0.28827468,-0.03830661,-0.5130895,-0.16055486,807.8755,794.17584,800.2198,818.3516,847.3626,0.292724609375,-0.03582763671875,0.96136474609375,5.1141357421875,-6.018829345703125,2.519683837890625,1,1.0,1.0,1.0,1.0,95.00
2021-04-26 22:37:03.785,0.037599068,0.40291134,-0.14772695,0.1724339,0.47306454,0.047999963,-0.28217012,0.36126697,0.79722106,0.13246405,0.31596333,0.47668952,0.3911007,0.2718096,-0.030640433,0.40072373,-0.24232218,-0.07304669,-0.5819739,-0.17053378,832.8571,805.4579,797.8022,827.2161,757.9121,0.2913818359375,-0.02947998046875,0.950439453125,2.654266357421875,-0.6280517578125,0.695343017578125,1,1.0,1.0,1.0,1.0,95.00
2021-04-26 22:37:04.293,0.2325686,-0.10750682,-0.26126868,0.12783025,0.50745606,0.14333247,-0.34378666,0.38948688,0.7761998,0.17120251,0.084696785,0.44888616,0.334176,0.21251021,0.011150876,0.43242365,-0.23733628,-0.18681186,-0.6561513,-0.064505994,796.5934,746.63007,806.26373,786.1172,724.87177,0.2786865234375,-0.02978515625,0.9586181640625,4.83001708984375,-3.581390380859375,-0.216827392578125,1,1.0,1.0,1.0,1.0,95.00
2021-04-26 22:37:04.795,0.27995682,-0.15298551,-0.42159703,0.073435046,0.5678921,0.21019414,-0.3824692,0.22797011,1.0244799,0.16787545,0.18989885,0.42271855,0.26069006,0.1636378,-0.05008015,0.38723958,-0.30405208,-0.17144303,-0.5657224,0.008873337,839.707,788.5348,807.47253,833.2601,889.67035,0.28106689453125,-0.0311279296875,0.9613037109375,3.805694580078125,-2.998199462890625,-0.889739990234375,1,1.0,1.0,1.0,1.0,95.00
2021-04-26 22:37:05.297,0.2307715,-0.09150067,-0.44686386,0.06057397,0.49040994,0.21740592,-0.42210636,0.25026298,1.012363,0.15704077,0.10368274,0.3975148,0.17101727,0.1594824,-0.14450057,0.2701966,-0.3116383,-0.21769546,-0.46605825,-0.0029237724,836.08057,807.0696,808.68134,842.9304,806.26373,0.2774658203125,-0.01983642578125,0.9683837890625,2.6318359375,-1.2860107421875,1.443023681640625,1,1.0,1.0,1.0,1.0,95.00
2021-04-26 22:37:05.819,0.21024996,0.045317482,-0.5346218,0.16563886,0.43535456,0.09249177,-0.42354944,0.23132041,0.94892645,0.19731784,0.076299526,0.36795282,0.13525924,0.29485422,-0.24849093,0.22819762,-0.3828385,-0.1864831,-0.4251165,-0.035973966,796.1905,801.4286,803.44324,800.6227,763.5531,0.28289794921875,-0.04180908203125,0.964111328125,6.317901611328125,-2.818756103515625,4.598236083984375,1,1.0,1.0,1.0,1.0,95.00
2021-04-26 22:37:06.335,0.6658305,0.034392625,-0.49372935,0.8443187,0.4604876,0.02412134,-0.34345743,0.51229095,0.7438218,0.33773926,-0.018278424,0.63452786,0.1466259,0.26707762,-0.18295392,0.26305196,-0.30997795,-0.28185332,-0.361016,-0.07262519,761.9414,799.41394,796.99634,774.0293,892.8938,0.21502685546875,-0.0062255859375,0.97210693359375,12.99468994140625,3.117828369140625,2.041168212890625,1,1.0,1.0,1.0,1.0,95.00
2021-04-26 22:37:06.844,0.8615079,0.027820759,-0.29196632,1.0291471,0.54960245,-0.02779315,-0.20927757,0.6167033,0.5146116,0.4414698,-0.058492884,0.63452786,0.1487744,0.27546114,-0.21260285,0.30617577,-0.36801687,-0.33949476,-0.4280089,-0.0060800775,796.99634,803.44324,807.8755,796.99634,715.6044,0.16973876953125,0.05462646484375,0.980224609375,3.5888671875,-6.0113525390625,8.50860595703125,1,1.0,1.0,1.0,1.0,95.00
2021-04-26 22:37:07.351,1.4969723,0.80641586,0.7092216,1.37567,1.2061918,0.42193884,0.13445091,1.0971707,1.0087788,0.5484778,0.12573303,0.675687,0.33301473,0.20956914,-0.18054192,0.23594461,-0.25379217,-0.42718628,-0.40039185,-0.18989635,779.67035,798.20514,803.0403,772.8205,767.5824,0.1351318359375,0.06646728515625,0.974853515625,2.82623291015625,0.6280517578125,20.80047607421875,1,1.0,1.0,1.0,1.0,95.00
2021-04-26 22:37:07.854,1.474107,1.0712794,0.95405686,1.2333506,1.236574,0.6236726,0.42357692,1.0588117,1.0357372,0.54750943,0.28775972,0.9945138,0.33926228,0.2037256,-0.12430324,0.2886626,-0.22272618,-0.34657854,-0.4683866,-0.0487283,753.0769,805.8608,807.8755,754.2857,656.77655,0.12835693359375,0.01470947265625,0.98846435546875,6.4300537109375,-2.878570556640625,5.90667724609375,1,1.0,1.0,1.0,1.0,95.00
2021-04-26 22:37:08.356,1.474107,1.1424984,1.0214019,1.1528741,1.236574,0.62971276,0.4346341,0.9404783,1.0357372,0.58684736,0.39000988,0.9979994,0.33926228,0.16609518,-0.05312149,0.4120632,-0.22272618,-0.26230514,-0.30931285,0.03508606,811.50183,812.71063,800.2198,805.8608,740.58606,0.11053466796875,0.0377197265625,0.98895263671875,6.23565673828125,-7.484283447265625,5.86181640625,1,1.0,1.0,1.0,1.0,100.00
2021-04-26 22:37:08.870,1.3091935,0.9665513,0.874966,0.90888125,1.0073296,0.5339285,0.43123677,0.67970103,0.9461724,0.5636127,0.4380351,0.97764224,0.30634663,0.25796965,0.016365891,0.50156236,-0.09606452,-0.16119024,-0.28693044,0.13469227,859.45056,807.0696,804.65204,849.7802,898.93774,0.1129150390625,0.065673828125,0.99560546875,6.160888671875,-2.385101318359375,-1.18133544921875,1,1.0,1.0,1.0,1.0,100.00
2021-04-26 22:37:09.385,1.0125366,0.60879487,0.65176684,0.6392328,0.49733886,0.3509892,0.21021283,0.3203448,0.45690978,0.541704,0.33777258,0.63854915,0.20277704,0.24364507,0.051358312,0.4676866,-0.138794,-0.20940264,-0.3336126,0.07219036,809.4872,804.65204,798.60803,817.9487,730.9158,0.052978515625,0.06494140625,1.00128173828125,4.08233642578125,-0.04486083984375,-0.590667724609375,1,1.0,1.0,1.0,1.0,100.00
2021-04-26 22:37:09.892,0.87837046,0.3879471,0.5146499,0.2785441,0.36816427,0.36837676,0.21874571,-0.01325968,0.45690978,0.41021535,0.33257115,0.5587035,0.1387108,0.22726901,0.050372344,0.36651117,-0.13710275,-0.2069593,-0.4670518,-0.057217173,772.4176,767.1795,802.23444,774.0293,667.6557,0.01953125,0.06195068359375,0.99688720703125,4.18701171875,-1.92901611328125,-8.41888427734375,1,1.0,1.0,1.0,1.0,100.00
2021-04-26 22:37:10.397,0.4434223,-0.011751463,0.48963743,0.26146498,-0.09227773,0.13274355,0.37995908,-0.19049819,0.15150179,0.23782207,0.35834533,0.44873935,-0.013070698,0.17110619,-0.028628018,0.2542281,-0.21407181,-0.25320828,-0.53566784,-0.21254654,786.1172,804.65204,775.64105,760.32965,737.76556,-0.07574462890625,0.04541015625,0.9967041015625,5.256195068359375,10.833892822265625,-6.9085693359375,1,1.0,1.0,1.0,1.0,100.00
2021-04-26 22:37:10.915,0.2999147,0.1145936,0.822272,0.49005347,-0.16814773,-0.06855798,0.7163092,0.023701247,-0.0061242497,-0.054598663,0.5187602,0.5854832,-0.011158355,0.122414425,-0.076182134,0.25845215,-0.1766353,-0.25944918,-0.42465425,-0.27878568,808.68134,780.4762,796.5934,808.68134,791.3553,-0.21795654296875,0.03826904296875,0.97650146484375,5.86181640625,4.35150146484375,-8.800201416015625,1,1.0,1.0,1.0,1.0,100.00
2021-04-26 22:37:11.432,0.30132678,0.15749943,1.0904442,0.6526051,-0.113464884,-0.067665495,0.84374577,0.22946799,-0.02362544,-0.12277953,0.5090139,0.58012843,0.042015806,0.1277156,-0.04445427,0.22823443,-0.13922818,-0.22397968,-0.21158838,-0.29628962,754.2857,749.45056,792.96704,778.0586,652.3443,-0.1844482421875,0.104248046875,0.98724365234375,6.74407958984375,-8.381500244140625,0.5682373046875,1,1.0,1.0,1.0,1.0,100.00
2021-04-26 22:37:11.935,0.30132678,0.15749943,1.0466105,0.8019499,-0.113464884,-0.067665495,0.7261496,0.37680635,-0.02362544,-0.12277953,0.48101246,0.58012843,0.042015806,0.1277156,0.1114599,0.2842358,-0.13922818,-0.22397968,-0.11601274,-0.34015906,778.46155,782.8938,803.44324,791.75824,672.0879,-0.14447021484375,0.0982666015625,0.99560546875,6.95343017578125,-7.05810546875,2.99072265625,1,1.0,1.0,1.0,1.0,100.00
2021-04-26 22:37:12.451,0.67903626,0.15749943,0.7535225,0.8019499,0.45875457,-0.067665495,0.27512404,0.37680635,0.34687644,-0.12277953,0.056186736,0.58012843,0.45107546,0.1277156,0.14123107,0.2842358,-0.40218335,-0.22397968,-0.16256194,-0.34015906,859.45056,795.78754,796.5934,851.79486,823.9927,-0.18682861328125,0.1104736328125,0.99066162109375,4.149627685546875,-2.46734619140625,-8.934783935546875,1,1.0,1.0,1.0,1.0,100.00
2021-04-26 22:37:12.976,0.67903626,0.8776958,0.6266752,0.8019499,0.45875457,0.57129633,0.33521837,0.37680635,0.34687644,0.4386682,0.24158633,0.58012843,0.45107546,0.4100956,0.14778027,0.2842358,-0.40218335,-0.18048324,-0.19905871,-0.34015906,800.2198,790.14655,789.7436,796.5934,1010.14655,-0.11273193359375,0.0784912109375,1.004150390625,2.28790283203125,-7.663726806640625,-0.142059326171875,1,1.0,1.0,1.0,1.0,100.00
2021-04-26 22:37:13.496,0.67903626,0.877608,0.73903054,0.8019499,0.45875457,0.5335133,0.40758842,0.37680635,0.34687644,0.4477504,0.29360193,0.58012843,0.45107546,0.3483503,0.08949658,0.2842358,-0.40218335,-0.1700809,-0.25815147,-0.34015906,780.07324,789.7436,805.8608,788.93774,641.4652,-0.07025146484375,0.05633544921875,0.99627685546875,2.609405517578125,-6.71417236328125,-0.9869384765625,1,1.0,1.0,1.0,1.0,100.00
2021-04-26 22:37:14.014,0.2577302,0.80348617,0.8436375,0.3509912,0.59561133,0.48423198,0.52661604,0.3789531,0.30501512,0.47311726,0.33298016,0.29103094,0.048343018,0.2508933,0.023597803,0.09314413,-0.23791626,-0.08472617,-0.20361,-0.009183193,805.4579,784.5055,803.0403,822.381,699.0842,-0.04864501953125,0.0662841796875,0.9981689453125,4.71038818359375,-4.628143310546875,0.777587890625,1,1.0,1.0,1.0,1.0,100.00
2021-04-26 22:37:14.525,0.09024538,0.80226815,0.5601739,0.39955005,0.4733973,0.29736677,0.2822291,0.1511926,0.4372847,0.36827683,0.29499823,0.43523887,0.22959106,0.28501612,-0.047125462,0.32276636,-0.09497633,-0.028811647,-0.25915852,0.27270335,771.2088,790.54944,787.326,772.01465,699.4872,-0.0614013671875,0.05181884765625,1.00201416015625,2.474822998046875,-8.7628173828125,-3.132781982421875,1,1.0,1.0,1.0,1.0,100.00
2021-04-26 22:37:15.035,0.09355085,0.8337631,0.59386754,0.49707305,0.44369835,0.35457242,0.38686544,0.17254676,0.44189936,0.47938532,0.35052934,0.48250332,0.31404316,0.32120696,0.014600722,0.32327014,-0.09050295,-0.03536938,-0.28097367,0.2731649,848.97437,794.57874,800.6227,857.03296,796.5934,-0.0352783203125,0.043701171875,1.008544921875,4.254302978515625,-3.282318115234375,2.6019287109375,1,1.0,1.0,1.0,1.0,100.00
2021-04-26 22:37:15.553,0.108611315,0.77342266,0.5820038,0.58837914,0.34999332,0.35710666,0.35945886,0.26198465,0.56939596,0.5006332,0.3521108,0.5878891,0.37560987,0.34711045,0.079938024,0.3571245,-0.07792124,-0.13665706,-0.32091638,0.22386685,825.2015,792.96704,807.8755,826.4103,741.79486,-0.04803466796875,0.045166015625,0.99945068359375,4.29168701171875,-4.02252197265625,1.353302001953125,1,1.0,1.0,1.0,1.0,100.00
2021-04-26 22:37:16.065,0.7479318,0.7442982,0.6883178,0.8401625,0.59344935,0.40237767,0.4631057,0.6829822,0.6889072,0.8531342,0.42354152,0.928742,0.37547323,0.3261738,0.19148985,0.28304896,-0.15027303,-0.18804282,-0.39077193,0.017279616,761.9414,791.75824,799.011,769.59705,670.4762,-0.1082763671875,0.035400390625,0.9931640625,4.42626953125,-3.24493408203125,0.43365478515625,1,1.0,1.0,1.0,1.0,100.00
2021-04-26 22:37:16.585,0.8916283,0.7148976,0.66387665,0.9122054,0.6741367,0.36471775,0.40157947,0.8030614,0.6878008,0.88200396,0.37076613,0.9135119,0.31765383,0.33073437,0.1518603,0.26782697,-0.1730259,-0.17329,-0.25330454,-0.14434053,793.7729,797.8022,808.2784,783.2967,807.8755,-0.08721923828125,0.04736328125,0.99871826171875,4.568328857421875,-5.884246826171875,4.059906005859375,1,1.0,1.0,1.0,1.0,100.00
2021-04-26 22:37:17.092,1.1022534,0.900676,0.68705875,1.0179969,0.8614488,0.43208563,0.39390323,0.9201485,0.5995241,0.88200396,0.39183846,0.9135119,0.34348428,0.4100341,0.066759124,0.23565294,-0.18257613,-0.07894762,-0.2335608,-0.15031476,826.8132,794.17584,799.41394,811.0989,827.619,-0.07550048828125,0.04840087890625,0.9998779296875,4.5758056640625,0.01495361328125,0.994415283203125,1,1.0,1.0,1.0,1.0,100.00
2021-04-26 22:37:17.612,1.13963,1.0214391,0.6977046,1.0333114,0.9024603,0.5454,0.26092103,0.9052601,0.5985628,0.8629849,0.37030178,0.9111698,0.37540463,0.46304086,0.052812785,0.26412448,-0.16800626,-0.037106734,-0.15707125,-0.15606922,730.10986,785.7143,803.0403,745.82416,852.6007,-0.1187744140625,0.05413818359375,0.98870849609375,3.09539794921875,-6.093597412109375,-3.22998046875,1,1.0,1.0,1.0,1.0,100.00
2021-04-26 22:37:18.118,1.13963,0.9273172,0.6299699,1.0333114,0.9024603,0.60176456,0.19650997,0.9052601,0.5985628,0.2622631,0.34624764,0.9111698,0.37540463,0.16480155,0.11110372,0.26412448,-0.16800626,-0.34860405,-0.14889675,-0.15606922,845.7509,801.02563,807.8755,842.1245,857.03296,-0.103515625,0.05950927734375,0.99383544921875,3.656158447265625,-5.674896240234375,1.383209228515625,1,1.0,1.0,1.0,1.0,100.00
2021-04-26 22:37:18.648,1.13963,0.72976965,0.57013726,1.0333114,0.9024603,0.49097332,0.25560308,0.9052601,0.5985628,0.2772447,0.3610092,0.9111698,0.37540463,0.16412506,0.21572922,0.26412448,-0.16800626,-0.15165067,-0.077145115,-0.15606922,772.01465,787.72894,799.41394,775.64105,790.14655,-0.10009765625,0.05023193359375,0.99737548828125,4.239349365234375,-2.4224853515625,0.2392578125,1,1.0,1.0,1.0,1.0,100.00
2021-04-26 22:37:19.153,1.13963,0.65899587,0.49030298,1.0333114,0.9024603,0.51281387,0.37925586,0.9052601,0.5985628,0.33534676,0.33518192,0.9111698,0.37540463,0.14491667,0.18410008,0.26412448,-0.16800626,-0.19642174,-0.07944312,-0.15606922,797.8022,805.4579,786.9231,790.14655,904.17584,-0.12249755859375,0.0423583984375,0.99774169921875,4.702911376953125,-4.68048095703125,2.175750732421875,1,2.0,1.0,1.0,2.0,100.00
2021-04-26 22:37:19.659,0.67455816,0.6908209,0.51122177,0.23746069,0.5219283,0.63796794,0.48945355,0.551978,0.30903798,0.31625292,0.40701714,0.34032044,0.17222315,0.19705556,0.09562639,0.2302135,-0.3577099,-0.19540411,-0.14409918,-0.067579255,775.2381,786.9231,815.5311,780.4762,850.58606,-0.10931396484375,0.04296875,0.99468994140625,4.08233642578125,-4.5159912109375,0.381317138671875,1,1.0,1.0,1.0,1.0,100.00
2021-04-26 22:37:20.179,0.67455816,0.7519698,0.48515442,0.23746069,0.5219283,0.6721951,0.46949616,0.551978,0.30903798,0.38533485,0.5167001,0.34032044,0.17222315,0.19830757,-0.0147913415,0.2302135,-0.3577099,-0.24316578,-0.28011727,-0.067579255,820.3663,797.3993,804.2491,834.4689,835.2747,-0.10308837890625,0.04742431640625,0.99658203125,4.47113037109375,-5.2337646484375,1.084136962890625,1,1.0,1.0,1.0,1.0,100.00
2021-04-26 22:37:20.683,0.7889661,0.8437357,0.4223155,0.2720787,0.64420635,0.65646505,0.4212093,0.6571467,0.21541451,0.39999145,0.5198961,0.33406955,0.1454408,0.210546,-0.01864646,0.21283437,-0.53428304,-0.19287845,-0.36185583,-0.14355451,764.35895,804.65204,781.28204,765.56775,751.8681,-0.09503173828125,0.03955078125,0.99810791015625,3.671112060546875,-4.957122802734375,-0.52337646484375,1,1.0,1.0,1.0,1.0,100.00
2021-04-26 22:37:21.196,0.7889661,0.87024224,0.53847116,0.2720787,0.64420635,0.5294521,0.3377036,0.6571467,0.21541451,0.58107907,0.5066806,0.33406955,0.1454408,0.22818844,0.07779923,0.21283437,-0.53428304,-0.14358504,-0.3273671,-0.14355451,808.2784,819.9634,808.2784,808.68134,666.04395,-0.09564208984375,0.04010009765625,0.9967041015625,4.568328857421875,-5.1141357421875,1.188812255859375,1,1.0,1.0,1.0,1.0,100.00
2021-04-26 22:37:21.719,0.7889661,0.9327698,0.64730966,0.2720787,0.64420635,0.5254664,0.38969776,0.6571467,0.21541451,0.5746722,0.4813738,0.33406955,0.1454408,0.25557098,0.15094598,0.21283437,-0.53428304,-0.1415535,-0.2823556,-0.14355451,825.6044,799.011,798.20514,815.9341,803.0403,-0.08795166015625,0.04437255859375,0.99603271484375,4.844970703125,-4.41131591796875,2.27294921875,1,1.0,1.0,1.0,1.0,100.00
2021-04-26 22:37:22.245,0.7889661,1.0016001,0.8522484,0.2720787,0.64420635,0.5639166,0.37118623,0.6571467,0.21541451,0.55192477,0.47827408,0.33406955,0.1454408,0.33938217,0.19833413,0.21283437,-0.53428304,-0.14177307,-0.30652648,-0.14355451,843.3333,807.47253,791.75824,836.4835,807.47253,-0.0726318359375,0.046142578125,0.99951171875,3.760833740234375,-5.45806884765625,0.351409912109375,1,1.0,1.0,1.0,1.0,100.00
2021-04-26 22:37:22.773,0.48153085,1.1417459,0.79627734,0.024995951,-0.07944061,0.69605416,0.56244904,0.4996762,0.14620955,0.6721861,0.5576812,0.20380938,0.18349056,0.45746708,0.072328575,0.18768463,-0.36953774,-0.34344906,-0.49276736,-0.10558632,795.78754,790.9524,807.0696,807.47253,735.34796,-0.03045654296875,0.0369873046875,1.00445556640625,4.508514404296875,-5.689849853515625,0.112152099609375,1,2.0,1.0,1.0,2.0,100.00
2021-04-26 22:37:23.291,0.3534857,0.9619231,0.7043252,0.017070016,-0.052246485,0.43330613,0.4364741,0.25722578,0.18686394,0.6721861,0.5576812,0.33775422,0.2161579,0.32772407,0.06125042,0.27112117,-0.33771828,-0.35098818,-0.4274208,-0.17476231,830.0366,817.5458,810.696,830.84247,777.25275,-0.04083251953125,0.0379638671875,1.00457763671875,4.314117431640625,-7.200164794921875,2.041168212890625,1,1.0,1.0,1.0,1.0,100.00
2021-04-26 22:37:23.813,0.24538864,0.81721497,0.61955684,-0.012804752,0.16064343,0.315901,0.41841483,0.14308107,0.3849369,0.68330735,0.53135324,0.42237532,0.21071383,0.32583994,0.1035785,0.31632066,-0.29814297,-0.35418117,-0.43107292,-0.1897829,778.86444,791.75824,798.20514,785.31134,637.4359,-0.0406494140625,0.0374755859375,1.00604248046875,4.05242919921875,-4.568328857421875,0.179443359375,1,1.0,1.0,1.0,1.0,100.00
2021-04-26 22:37:24.318,0.30185187,0.69945747,0.5987379,0.25755495,0.17818622,0.2451458,0.13875839,-0.027332697,0.35982013,0.68027544,0.41967365,0.3721866,0.34733447,0.31234697,0.14091235,0.40725943,-0.2529573,-0.29404438,-0.38469282,-0.13957249,770.40295,796.5934,803.0403,772.01465,697.47253,-0.01007080078125,0.0291748046875,1.010009765625,3.656158447265625,-4.224395751953125,0.61309814453125,1,1.0,1.0,1.0,1.0,100.00
2021-04-26 22:37:24.845,0.39859098,0.83985615,0.8474645,0.37474078,0.18713614,0.5519664,0.3222529,0.2761729,0.37921566,0.66101515,0.4100198,0.5478785,0.3483093,0.37959436,0.16971919,0.39490137,-0.17267093,-0.19270423,-0.42149407,-0.08780197,811.9048,809.4872,809.4872,804.2491,770.0,-0.03076171875,0.0323486328125,1.0048828125,4.553375244140625,-4.05242919921875,1.801910400390625,1,1.0,1.0,1.0,1.0,100.00
2021-04-26 22:37:25.349,0.45752567,0.8624743,0.84029996,0.451786,0.024034962,0.54069585,0.31441227,0.38634166,0.26010114,0.61784095,0.42140543,0.5525095,0.37435365,0.33623376,0.123649746,0.407303,-0.14464998,-0.17462356,-0.37112507,-0.055422395,859.85345,799.81683,800.2198,857.4359,867.1062,-0.0482177734375,0.02520751953125,1.0009765625,5.151519775390625,-3.730926513671875,0.007476806640625,1,1.0,1.0,1.0,1.0,100.00
2021-04-26 22:37:25.865,0.38189957,0.86529464,0.9170793,0.36371854,5.486458E-4,0.5120774,0.5176284,0.49628997,0.20579143,0.6491851,0.4234475,0.54497224,0.22228584,0.29181972,0.054322176,0.3362154,-0.09991968,-0.11908519,-0.26242223,-0.0975277,776.4469,798.60803,803.0403,773.22345,740.989,-0.03173828125,0.02838134765625,0.99481201171875,4.687957763671875,-4.074859619140625,-0.919647216796875,1,1.0,1.0,1.0,1.0,100.00
2021-04-26 22:37:26.377,0.07170315,0.8238167,0.8119243,0.20900592,-0.016455568,0.47315997,0.4802166,0.42316222,0.0056927586,0.5589777,0.50881535,0.5173075,0.18535003,0.22127625,0.018551366,0.37109646,-0.102625206,-0.1630777,-0.19306035,-0.13114986,808.2784,816.7399,802.23444,793.36993,778.0586,-0.039794921875,0.03131103515625,1.00396728515625,4.284210205078125,-4.8748779296875,0.261688232421875,1,1.0,1.0,1.0,1.0,100.00
2021-04-26 22:37:26.883,0.17448418,0.83263063,0.80041224,0.17956048,0.08854549,0.49051297,0.5080068,0.11190235,-0.041451856,0.53486145,0.5677544,0.295876,0.04069627,0.23899136,0.022524983,0.27247927,-0.27983126,-0.15049215,-0.19430205,-0.12727094,794.9817,787.326,803.8461,791.3553,953.3333,-0.0352783203125,0.025634765625,1.00146484375,4.05242919921875,-4.2767333984375,0.5084228515625,1,1.0,1.0,1.0,1.0,100.00
2021-04-26 22:37:27.385,0.22112235,0.77867514,0.49708176,0.14133573,0.023437833,0.44995502,0.33109394,0.039878286,0.18405782,0.53436553,0.5677544,0.38725558,0.19472618,0.2471754,0.1112545,0.24655716,-0.3167457,-0.23903966,-0.2143101,-0.17217787,792.5641,793.7729,806.26373,807.47253,686.1905,-0.03302001953125,0.03033447265625,1.00274658203125,4.44122314453125,-4.523468017578125,1.45050048828125,1,1.0,1.0,1.0,1.0,100.00
2021-04-26 22:37:27.905,0.26550913,0.58570844,0.10450456,0.10831923,0.114581324,0.068665095,0.16915001,-0.014168173,0.37471184,0.4067247,0.48744267,0.39558044,0.23542434,0.23670794,0.12458251,0.19423279,-0.31842908,-0.23474252,-0.2478016,-0.19368857,778.0586,806.26373,799.011,770.80585,581.4286,-0.02960205078125,0.02801513671875,1.004638671875,4.50103759765625,-4.418792724609375,1.173858642578125,1,1.0,1.0,1.0,1.0,100.00
2021-04-26 22:37:28.412,0.30151552,0.52970195,0.07795815,0.096205786,0.15369461,0.045806963,0.074775316,-0.011728703,0.379811,0.49763536,0.34745637,0.4015288,0.22631195,0.3204919,0.17063063,0.24782224,-0.32922485,-0.21792836,-0.31163973,-0.1825165,792.96704,796.5934,796.99634,786.1172,808.68134,-0.02886962890625,0.02484130859375,1.00140380859375,4.523468017578125,-4.373931884765625,0.657958984375,1,1.0,1.0,1.0,1.0,100.00
2021-04-26 22:37:28.926,0.24238567,0.31882992,0.018817646,-0.010115,0.27742752,-0.05830238,-0.07675454,0.21111222,0.4510388,0.5324408,0.025388576,0.4375189,0.15278655,0.29711598,0.044391755,0.24087779,-0.33455712,-0.087854154,-0.38236842,-0.11338698,812.3077,803.44324,805.4579,823.5897,733.3333,-0.02777099609375,0.02862548828125,1.0010986328125,4.254302978515625,-4.2169189453125,0.49346923828125,1,1.0,1.0,1.0,1.0,100.00
2021-04-26 22:37:29.437,0.15294035,0.45715815,0.27064493,-0.16862386,0.34971184,0.046794496,0.19590071,0.19303447,0.5677776,0.5693801,0.21689788,0.5190964,0.051135596,0.207089,-0.044192135,0.31333283,-0.32594058,-0.082040496,-0.28812838,-0.11318141,835.6777,812.3077,807.47253,840.9158,748.24176,-0.02984619140625,0.025634765625,1.002685546875,4.23187255859375,-3.2598876953125,0.530853271484375,1,1.0,1.0,1.0,1.0,100.00
2021-04-26 22:37:29.950,0.26848495,0.7242608,0.7291265,0.023171928,0.28463936,0.28286502,0.30981514,0.25471783,0.5678248,0.5113725,0.41874993,0.58083296,0.13086177,0.16690549,-0.060053077,0.29526746,-0.3414462,-0.07141583,-0.23492776,-0.05632913,788.1319,793.36993,806.26373,797.3993,657.5824,-0.04010009765625,0.009033203125,1.0179443359375,2.908477783203125,1.06170654296875,-0.3887939453125,1,1.0,1.0,1.0,1.0,100.00
2021-04-26 22:37:30.458,0.339557,0.7654616,0.77089643,0.04239678,0.14009619,0.29660517,0.31091583,0.19143999,0.5347296,0.46853,0.41874993,0.74198216,0.10534834,0.23588467,0.091105476,0.42343178,-0.22950578,-0.1770285,-0.23792398,-0.090936705,758.315,789.34064,798.20514,757.50916,671.28204,-0.0791015625,0.0511474609375,1.0128173828125,9.503021240234375,-3.895416259765625,4.246826171875,1,1.0,1.0,1.0,1.0,100.00
2021-04-26 22:37:30.967,0.6184229,0.7348403,0.73637664,0.1422486,-0.042286173,0.32555535,0.16481848,0.26101503,0.2197662,0.4149215,0.41874993,0.74755865,0.08533548,0.26876917,0.0963615,0.399167,-0.2433209,-0.18671966,-0.3088505,-0.12896451,842.9304,802.23444,813.1135,842.1245,767.5824,-0.05621337890625,0.0296630859375,0.99908447265625,3.312225341796875,-3.5888671875,-1.891632080078125,1,1.0,1.0,1.0,1.0,100.00
2021-04-26 22:37:31.480,0.6045416,0.47173554,0.33052838,-0.02835946,0.18985769,0.21191415,-0.1856049,0.29493114,0.27057344,0.32718867,0.15295616,0.68648124,0.06597064,0.2676996,0.07070408,0.37067595,-0.27502292,-0.28490755,-0.33400393,-0.35194632,779.67035,791.75824,806.6667,782.49084,676.1172,-0.0941162109375,0.0196533203125,0.99847412109375,3.45428466796875,-3.207550048828125,-0.49346923828125,1,1.0,1.0,1.0,1.0,100.00
2021-04-26 22:37:31.991,0.562983,0.55127525,0.47074434,0.088594995,0.2682463,0.17419115,-0.043110985,0.35458583,0.33834502,0.36220792,0.14863089,0.6990003,0.18161814,0.27903348,-0.016594134,0.28726512,-0.38043502,-0.36705297,-0.41907102,-0.30183226,751.06226,801.8315,809.4872,757.9121,657.1795,-0.0670166015625,0.030517578125,1.00128173828125,7.40203857421875,-7.79083251953125,2.930908203125,1,1.0,1.0,1.0,1.0,100.00
2021-04-26 22:37:32.506,0.03920104,0.56889486,0.49212745,0.053205222,0.27383456,0.19385993,0.0375476,0.37601283,0.38627738,0.35124174,0.285819,0.5288529,0.23066321,0.32475483,-0.011631527,0.32328686,-0.3692049,-0.37737465,-0.37676558,-0.17191239,840.10986,813.1135,794.9817,831.2454,739.7802,-0.036865234375,0.01763916015625,1.000732421875,2.9010009765625,-4.80010986328125,-4.299163818359375,1,1.0,1.0,1.0,1.0,100.00
2021-04-26 22:37:33.012,0.014251076,0.8880423,0.69971323,0.20601651,0.32147694,0.47524673,0.19492099,0.5464293,0.443837,0.49747264,0.41921908,0.6239186,0.24050345,0.321759,0.007972834,0.32623097,-0.3045658,-0.3269832,-0.39501625,-0.07572038,830.84247,795.38464,792.5641,831.2454,823.5897,-0.08270263671875,0.03167724609375,1.00244140625,3.33465576171875,1.1663818359375,0.777587890625,1,1.0,1.0,1.0,1.0,100.00
2021-04-26 22:37:33.536,0.35024044,0.85715103,0.6363268,0.26714906,0.34043398,0.47716802,0.1006195,0.4896471,0.4777018,0.5560109,0.4709839,0.62283367,0.28346795,0.25547865,0.006073699,0.32167593,-0.14069714,-0.30422714,-0.4114756,-0.029137228,801.8315,804.2491,792.96704,795.78754,633.4066,-0.09161376953125,0.0244140625,1.00018310546875,5.286102294921875,-5.36834716796875,1.233673095703125,1,1.0,1.0,1.0,1.0,100.00
2021-04-26 22:37:34.058,0.62499005,0.8655032,0.6868684,0.40481588,0.2590155,0.47276235,0.17465179,0.46436834,0.47638837,0.5741895,0.48540956,0.6039852,0.3883294,0.2893639,0.052319363,0.30042577,0.10193296,-0.34350207,-0.50647986,0.04912169,830.4396,808.2784,796.99634,829.6337,787.326,-0.0865478515625,0.02117919921875,1.00115966796875,4.164581298828125,-4.134674072265625,0.695343017578125,1,1.0,1.0,1.0,1.0,100.00
2021-04-26 22:37:34.571,0.58711094,0.68867403,0.68612045,0.6234606,0.22389898,0.20631771,0.29725885,0.5582183,0.59843457,0.4692705,0.4510345,0.45989317,0.4033551,0.3325345,0.06374752,0.3098071,0.11430536,-0.35308725,-0.49920177,0.025011199,778.46155,804.65204,798.20514,772.01465,714.7985,-0.07757568359375,0.01519775390625,0.9984130859375,4.38140869140625,-4.65057373046875,0.231781005859375,1,1.0,1.0,1.0,1.0,100.00
2021-04-26 22:37:35.091,0.47337458,0.77529,0.6929523,0.6868378,0.23232721,0.1561904,0.32372344,0.6630097,0.690877,0.5584847,0.4265059,0.37801033,0.35542586,0.31904823,0.09054877,0.3196599,0.05555957,-0.21856612,-0.42521602,-0.053347997,859.45056,804.2491,805.8608,852.6007,811.9048,-0.0755615234375,0.01806640625,1.00335693359375,4.3365478515625,-4.306640625,0.680389404296875,1,1.0,1.0,1.0,1.0,100.00
2021-04-26 22:37:35.616,-0.2926449,0.7145157,0.6271559,0.6684213,0.32554457,0.36336815,0.31576973,0.7000219,0.690877,0.5961641,0.44927222,0.37801033,0.28766695,0.24785818,0.07806847,0.30115637,-0.33767125,-0.23225401,-0.1921632,-0.15721689,841.7216,796.1905,794.9817,827.2161,844.94507,-0.0716552734375,0.02020263671875,0.99945068359375,4.314117431640625,-4.284210205078125,0.994415283203125,1,1.0,1.0,1.0,1.0,100.00
2021-04-26 22:37:36.144,-0.5640056,0.5864594,0.21725444,0.55229014,0.33337873,0.2737088,0.065526895,0.59096813,0.6652132,0.58735543,0.3026073,0.30381176,0.25656658,0.17798297,0.079120144,0.33088362,-0.5960247,-0.25258347,-0.16991419,-0.13801698,796.5934,812.71063,809.0842,795.38464,729.707,-0.07635498046875,0.02239990234375,1.00543212890625,4.224395751953125,-5.869293212890625,1.876678466796875,1,1.0,1.0,1.0,1.0,100.00
2021-04-26 22:37:36.666,0.6852046,0.6436646,0.071521364,0.22112055,0.03516442,0.2573398,0.05258889,-0.1518837,-0.15387543,0.37413684,0.34063205,0.3363863,0.07885544,0.1500489,0.0618974,0.23662469,-0.2643694,-0.34743845,-0.13398062,-0.42544386,819.15753,799.011,799.011,829.2308,749.45056,-0.0693359375,0.02001953125,1.00079345703125,4.18701171875,-4.56085205078125,0.19439697265625,1,1.0,1.0,1.0,1.0,100.00
2021-04-26 22:37:37.172,0.5255663,0.6764012,0.08212832,0.11522763,0.27135536,0.012814949,0.0074044405,-0.06453926,0.02146354,0.26107326,0.36219093,0.38795552,0.08187908,0.16689755,0.10749212,0.16777812,-0.3436499,-0.35362726,-0.2354562,-0.5288995,774.0293,795.78754,805.8608,780.07324,711.978,-0.06854248046875,0.02508544921875,1.006103515625,4.867401123046875,-4.628143310546875,1.39068603515625,1,1.0,1.0,1.0,1.0,100.00
2021-04-26 22:37:37.702,0.4599396,0.52941716,-0.025924476,0.09222522,0.29668945,-0.025522875,-0.008979645,0.029938024,0.372098,0.3083428,0.3918143,0.39546114,0.15159965,0.22461757,0.03287367,0.14784083,-0.3763378,-0.276847,-0.25261822,-0.39491144,773.6264,790.9524,799.81683,776.8498,736.1539,-0.0709228515625,0.02044677734375,0.998779296875,4.403839111328125,-4.74029541015625,0.770111083984375,1,1.0,1.0,1.0,1.0,100.00
2021-04-26 22:37:38.230,0.36880797,0.23337156,-0.18517339,-0.050925486,0.36581928,-0.16056563,0.05704867,0.22757867,0.51070917,0.15169984,0.4389101,0.3484131,0.13919747,0.20147951,-0.0060705505,0.13778187,-0.3089511,-0.22806883,-0.31173378,-0.3298276,836.4835,815.5311,804.2491,823.1868,898.5348,-0.071044921875,0.01873779296875,0.9991455078125,4.074859619140625,-4.329071044921875,0.7177734375,1,1.0,1.0,1.0,1.0,100.00
2021-04-26 22:37:38.734,0.3175024,0.07991745,-0.010049987,-0.15074627,0.26626626,-0.25960723,0.049528837,0.3020963,0.54167897,0.25334707,0.40251285,0.46468925,0.15361317,0.13689488,-0.034576852,0.182455,-0.2583378,-0.18053944,-0.3658514,-0.18917267,833.2601,803.8461,806.26373,834.4689,821.1722,-0.0682373046875,0.02227783203125,1.0013427734375,4.807586669921875,-4.777679443359375,0.83740234375,1,1.0,1.0,1.0,1.0,100.00
2021-04-26 22:37:39.251,0.24019596,0.30543137,0.28754514,-0.3710102,0.23048668,-0.08516344,0.0046070656,0.28319418,0.5684605,0.123106435,0.31509224,0.55390936,0.13228385,0.12638569,0.050568704,0.20965943,-0.22408514,-0.23320788,-0.42841697,-0.12493951,811.50183,803.8461,813.91943,808.2784,694.65204,-0.0712890625,0.0196533203125,1.0006103515625,4.508514404296875,-3.94775390625,1.069183349609375,1,1.0,1.0,1.0,1.0,95.00
2021-04-26 22:37:39.753,-0.063824356,0.79311424,0.6151518,0.115038656,0.04890155,0.34494254,0.18838875,0.21261346,0.5356073,0.2894448,0.48760867,0.6608206,0.16785608,0.14093028,0.06985928,0.19469419,-0.29619858,-0.3026893,-0.4785918,-0.11223054,770.0,798.60803,800.6227,770.0,678.1319,-0.07086181640625,0.0179443359375,0.9970703125,4.702911376953125,-3.7982177734375,1.495361328125,1,1.0,1.0,1.0,1.0,95.00
2021-04-26 22:37:40.270,-0.07190156,0.8599378,0.65563893,0.27455848,-0.006288349,0.4581454,0.21409298,0.17662632,0.44231984,0.33312842,0.48760867,0.6430094,0.14273617,0.2656874,0.060172565,0.14438589,-0.2939091,-0.30947122,-0.41938493,-0.119864166,866.7033,808.2784,796.5934,860.2564,846.55676,-0.0660400390625,0.01995849609375,1.00213623046875,3.99261474609375,-4.26177978515625,0.740203857421875,1,1.0,1.0,1.0,1.0,95.00
2021-04-26 22:37:40.773,-0.10586124,0.88885945,0.7257465,0.4354694,-0.1610168,0.51384765,0.36426678,0.20131604,0.39899048,0.35953373,0.48760867,0.56319124,0.112162314,0.27232158,0.034714717,0.07114375,-0.3004287,-0.29807702,-0.36310264,-0.1905016,796.99634,785.7143,818.7546,810.696,692.23444,-0.06610107421875,0.0196533203125,1.00018310546875,4.8150634765625,-5.674896240234375,0.5682373046875,1,1.0,1.0,1.0,1.0,95.00
2021-04-26 22:37:41.292,-0.14921947,0.6608935,0.649548,0.32298395,-0.009040877,0.33088514,0.258976,0.21387069,0.10564811,0.39708367,0.33466673,0.20925646,0.016546577,0.24832979,0.0014960325,0.011753577,-0.2668533,-0.24638847,-0.3705481,-0.16658773,828.022,813.91943,803.44324,829.2308,693.8461,-0.0523681640625,0.01513671875,1.0025634765625,4.568328857421875,-5.241241455078125,0.07476806640625,1,1.0,1.0,1.0,1.0,95.00
2021-04-26 22:37:41.800,0.15869571,0.86600405,0.8555432,0.1672974,-0.16939068,0.47411376,0.43152785,0.104148984,0.23385729,0.5561575,0.4666347,0.23600587,0.0043001105,0.13039586,0.035963684,0.3528911,-0.35797173,-0.30124706,-0.38807234,-0.3043288,779.67035,797.8022,799.81683,795.38464,579.81683,-0.04010009765625,0.0211181640625,1.00341796875,4.673004150390625,-5.764617919921875,1.42059326171875,1,1.0,1.0,1.0,1.0,95.00
2021-04-26 22:37:42.326,0.23874721,0.8152781,0.7419759,-0.028593866,0.0055668876,0.42417285,0.32647237,-0.08534561,0.29635864,0.52722156,0.4666347,0.26398745,0.060761094,0.13626792,0.013528151,0.34128535,-0.31501162,-0.32769436,-0.39639422,-0.26010865,851.39197,793.7729,815.9341,834.4689,993.6264,-0.02947998046875,0.01824951171875,1.0032958984375,4.366455078125,-4.762725830078125,1.278533935546875,1,1.0,1.0,1.0,1.0,95.00
2021-04-26 22:37:42.839,0.2815414,0.6994663,0.5455093,-0.07476784,-0.0015995749,0.41572195,0.15962097,0.054823097,0.35359383,0.5278603,0.4431202,0.3915885,0.21260664,0.22519141,-0.032489825,0.40658936,-0.31795472,-0.20693442,-0.36704007,-0.17772819,823.5897,809.4872,807.8755,814.7253,786.52014,-0.03955078125,0.01605224609375,1.00042724609375,4.403839111328125,-3.648681640625,0.949554443359375,1,1.0,1.0,1.0,1.0,95.00
2021-04-26 22:37:43.353,0.24263339,0.20975736,-0.109270036,-0.1713261,0.04372015,0.114117086,-0.1732102,0.07683364,0.31328297,0.28475457,0.04294321,0.36759967,0.23081689,0.22613874,-0.14651652,0.36272678,-0.3281498,-0.14475864,-0.41922787,-0.13692994,859.85345,821.978,789.34064,836.4835,792.96704,-0.02801513671875,0.020263671875,1.0029296875,4.762725830078125,-4.553375244140625,0.800018310546875,1,1.0,1.0,1.0,1.0,95.00
2021-04-26 22:37:43.865,0.13465863,0.62908757,0.52200437,0.20061041,0.034602083,0.39952564,0.30581602,0.35375485,0.32801226,0.38438904,0.4247681,0.4671102,0.23102185,0.21837121,-0.13803056,0.34624124,-0.33944422,-0.13064896,-0.47823602,-0.05272564,820.3663,797.8022,809.0842,821.978,727.6923,-0.0313720703125,0.0198974609375,1.0048828125,4.358978271484375,-4.882354736328125,1.338348388671875,1,1.0,1.0,1.0,1.0,95.00
2021-04-26 22:37:44.376,0.1422916,0.77354354,0.64517224,0.33072403,0.11892793,0.4852879,0.4531571,0.41049454,0.25059527,0.36110213,0.4712345,0.4307892,0.17220174,0.20956545,-0.099359654,0.29250666,-0.37723106,-0.15978967,-0.55218184,-0.08929903,772.4176,801.4286,802.23444,771.6117,655.16486,-0.02764892578125,0.01580810546875,0.99871826171875,4.478607177734375,-3.790740966796875,0.276641845703125,1,1.0,1.0,1.0,1.0,95.00
2021-04-26 22:37:44.885,0.12860422,0.85581356,0.66477156,0.31224903,0.20691377,0.52364975,0.47597182,0.3938786,0.172876,0.36037013,0.49096557,0.48230883,0.27187398,0.25761443,-0.019891785,0.32271448,-0.31422618,-0.18333828,-0.5438731,-0.0724164,840.9158,808.68134,807.47253,846.55676,857.8388,-0.02239990234375,0.01568603515625,1.00421142578125,4.119720458984375,-3.865509033203125,0.844879150390625,1,1.0,1.0,1.0,1.0,95.00
2021-04-26 22:37:45.400,0.1809442,0.77472883,0.4705233,0.14099762,0.21630599,0.42817062,0.35644576,0.24921529,0.16695164,0.3522022,0.48491225,0.55286497,0.25359866,0.29342973,0.0446264,0.3139534,-0.32502016,-0.15483084,-0.48290002,-0.16616148,815.5311,807.47253,812.71063,830.0366,798.60803,-0.02801513671875,0.014404296875,1.0064697265625,4.18701171875,-4.897308349609375,0.7476806640625,1,1.0,1.0,1.0,1.0,95.00
2021-04-26 22:37:45.926,0.118478574,0.53397936,0.13036634,-0.09560699,0.20327829,0.053181157,0.07694949,0.20393972,0.21066998,0.091648504,0.3594025,0.5073106,0.21154949,0.2941199,0.08472055,0.27434498,-0.23279156,-0.08559299,-0.40095165,-0.1950875,843.73627,810.696,801.8315,842.52747,705.12823,-0.02398681640625,0.01739501953125,1.00445556640625,4.538421630859375,-4.523468017578125,0.725250244140625,1,1.0,1.0,1.0,1.0,95.00
2021-04-26 22:37:46.439,0.22753865,0.38033646,-0.050516486,0.08743533,0.24129926,-0.021861123,0.0064082225,0.3058559,0.38541836,0.04183246,0.34699282,0.5033509,0.056171373,0.21706334,0.06927075,0.21380496,-0.2552182,-0.04114394,-0.38502675,-0.23147371,794.17584,820.3663,800.6227,791.3553,765.9707,-0.02960205078125,0.017822265625,1.01055908203125,4.687957763671875,-3.790740966796875,1.15142822265625,1,1.0,1.0,1.0,1.0,95.00
2021-04-26 22:37:46.955,0.14926982,0.5407735,-0.20734344,0.19350137,0.2342755,0.039016,-0.039047923,0.29112145,0.41148323,0.016065238,0.30576423,0.35492092,0.12222533,0.14289577,0.0059366496,0.22325696,-0.27562293,-0.04351621,-0.36214036,-0.15449592,827.619,800.6227,806.26373,818.7546,791.75824,-0.02545166015625,0.02032470703125,1.0006103515625,4.568328857421875,-4.29168701171875,0.9869384765625,1,1.0,1.0,1.0,1.0,95.00
2021-04-26 22:37:47.458,0.026462559,0.6245749,-0.2586586,0.1661068,0.19666223,0.19159052,0.049051683,0.13251047,0.45843947,0.18859722,0.13726148,0.24153012,0.25931644,0.17301682,-0.019561304,0.27871048,-0.23581378,-0.13984044,-0.41180766,-0.11667078,808.68134,803.44324,812.71063,799.41394,766.3736,-0.02899169921875,0.01953125,1.0015869140625,4.568328857421875,-3.940277099609375,1.203765869140625,1,1.0,1.0,1.0,1.0,95.00
2021-04-26 22:37:47.971,0.12305926,0.8645869,0.59874475,0.23724222,0.06948576,0.47798613,0.46665645,0.086331755,0.31313366,0.32619733,0.40255627,0.18170804,0.27214473,0.22055534,0.068501934,0.31739286,-0.2188154,-0.22150649,-0.41583347,-0.046590585,799.81683,797.8022,793.36993,801.02563,695.05493,-0.02294921875,0.01678466796875,1.00152587890625,4.74029541015625,-4.42626953125,0.964508056640625,1,1.0,1.0,1.0,1.0,95.00
2021-04-26 22:37:48.477,0.23166919,0.75734603,0.68195486,0.1947847,0.15229979,0.48975015,0.50127405,0.13612081,0.39453885,0.36875197,0.3841326,0.19725536,0.2737809,0.2287041,0.1243693,0.37514332,-0.20012113,-0.35785463,-0.45532855,-0.051592655,767.98535,802.23444,816.337,777.6557,650.32965,-0.0255126953125,0.01373291015625,0.999755859375,4.6356201171875,-4.2169189453125,1.084136962890625,1,1.0,1.0,1.0,1.0,95.00
2021-04-26 22:37:48.980,0.26576456,0.666748,0.7360035,0.10546399,0.13665026,0.45920464,0.5093302,0.13868037,0.3709713,0.41160616,0.4073539,0.47610706,0.1384685,0.2279579,0.14700703,0.2970521,-0.25539947,-0.24274929,-0.4091177,-0.023398073,806.26373,794.9817,811.0989,794.9817,725.2747,-0.02215576171875,0.01806640625,1.00445556640625,4.433746337890625,-4.897308349609375,1.338348388671875,1,1.0,1.0,1.0,1.0,95.00
2021-04-26 22:37:49.498,0.05825074,0.1473877,0.3770743,-0.1598415,0.077575766,0.13118386,0.20415208,-0.026555775,0.41603836,0.35352072,0.19551152,0.4840118,0.17777109,0.21747547,0.0736438,0.2894499,-0.25324565,-0.24598737,-0.39706367,-0.08797126,844.5421,801.8315,798.60803,839.304,887.25275,-0.02447509765625,0.01702880859375,0.99957275390625,4.02252197265625,-4.0972900390625,0.85235595703125,1,1.0,1.0,1.0,1.0,95.00
2021-04-26 22:37:50.000,-0.003433606,0.19788538,0.27397066,-0.25208494,0.055975012,0.073406495,0.10755756,0.008909346,0.50363934,0.4139365,0.12272855,0.5335707,0.15440193,0.22543812,0.04134027,0.20399898,-0.19135006,-0.23503898,-0.41285938,-0.12028197,777.25275,804.2491,811.0989,777.25275,703.5165,-0.0242919921875,0.0159912109375,1.00372314453125,4.29168701171875,-3.87298583984375,1.084136962890625,1,1.0,1.0,1.0,1.0,95.00
2021-04-26 22:37:50.508,0.05932153,0.1770114,0.15738463,-0.24986549,0.075620376,0.071522474,-0.07273046,0.06095504,0.50806266,0.3604318,0.09276984,0.43797228,0.18699415,0.18683536,-0.0106211305,0.18906277,-0.20407169,-0.32549888,-0.5017519,-0.11714789,785.31134,803.8461,798.60803,776.4469,723.663,-0.0213623046875,0.01708984375,1.00408935546875,4.66552734375,-4.508514404296875,1.12152099609375,1,1.0,1.0,1.0,1.0,95.00
2021-04-26 22:37:51.010,0.12909572,0.11258557,0.105952494,-0.36261183,0.16224277,0.009503473,-0.19388774,0.10479967,0.48889142,0.32892767,0.17836374,0.5046161,0.19672701,0.15675223,0.03683053,0.2717055,-0.24939595,-0.261665,-0.50772303,-0.033814352,844.1392,815.9341,802.6374,842.9304,890.07324,-0.02349853515625,0.01318359375,1.00408935546875,4.284210205078125,-4.486083984375,1.383209228515625,1,1.0,1.0,1.0,1.0,95.00
2021-04-26 22:37:51.538,0.029101567,0.33147764,0.14292638,-0.122116946,0.081771895,0.0104106525,-0.11206639,0.014638688,0.46522477,0.2339736,0.28537285,0.4799611,0.1562645,0.123697236,0.053673062,0.2718581,-0.3512318,-0.060899246,-0.46217534,-0.01960252,828.4249,821.978,794.17584,830.0366,771.2088,-0.0242919921875,0.017578125,1.00408935546875,4.71038818359375,-4.62066650390625,1.024322509765625,1,1.0,1.0,1.0,1.0,95.00
2021-04-26 22:37:52.065,-0.08081945,0.58672434,0.5521095,0.32734773,0.06313772,0.23280774,0.11885362,-0.022995515,0.41280004,0.036595475,0.4036357,0.47868508,0.11594353,0.08548417,0.1323824,0.3336997,-0.30848598,0.020866144,-0.4007679,-0.04910204,788.93774,799.011,803.44324,792.5641,751.8681,-0.02142333984375,0.0198974609375,1.0069580078125,4.972076416015625,-4.6356201171875,1.517791748046875,1,1.0,1.0,1.0,1.0,95.00
2021-04-26 22:37:52.580,0.054159436,0.81477445,0.83246803,0.42933515,0.20026897,0.43235883,0.4372614,-0.14520119,0.38779753,0.14925046,0.58969694,0.38779217,0.06286659,0.16229044,0.17013219,0.28259248,-0.18520777,0.08131146,-0.40927598,-0.10076949,808.2784,803.8461,804.2491,813.91943,748.24176,-0.020263671875,0.01373291015625,1.0059814453125,4.486083984375,-4.314117431640625,0.58319091796875,1,1.0,1.0,1.0,1.0,95.00
2021-04-26 22:37:53.103,0.16269006,0.75062484,0.82043123,0.396213,0.22289053,0.46123794,0.44118243,-0.15821005,0.20695902,0.1252651,0.5908753,0.44404805,0.08924154,0.3535409,0.17058018,0.26529798,-0.16312905,-0.092180856,-0.42783752,-0.08641506,816.7399,797.3993,815.12823,816.7399,740.989,-0.0172119140625,0.01605224609375,1.00146484375,4.62066650390625,-4.366455078125,0.16448974609375,1,1.0,1.0,1.0,1.0,95.00
2021-04-26 22:37:53.626,0.2587083,0.6416221,0.62309796,0.05724961,0.23382443,0.2895694,0.39533722,-0.030115806,0.29149956,0.3300005,0.54176885,0.43365595,0.0844147,0.318321,0.13805255,0.12443223,-0.26503867,-0.18454076,-0.5013162,-0.10640164,790.14655,808.68134,796.99634,776.4469,791.3553,-0.0093994140625,0.017578125,1.00311279296875,4.4561767578125,-4.0673828125,1.31591796875,1,1.0,1.0,1.0,1.0,95.00
2021-04-26 22:37:54.134,0.20023727,0.6300747,0.28278,0.021515526,0.08153895,0.19429912,0.13064761,0.092184186,0.31009176,0.34776595,0.38972172,0.3667489,0.044034835,0.29285422,0.027943997,-0.0028065895,-0.37013465,-0.16389185,-0.4995694,-0.13347214,812.3077,829.6337,782.8938,808.2784,744.61536,-0.01776123046875,0.01544189453125,1.00628662109375,4.403839111328125,-3.730926513671875,0.770111083984375,1,1.0,1.0,1.0,1.0,95.00
2021-04-26 22:37:54.655,0.10209869,0.8905242,0.71329886,0.5507619,0.017613774,0.38417044,0.40265977,0.14407025,0.31885636,0.4860923,0.40869567,0.44502068,0.06792136,0.2250777,-0.024870683,0.06854373,-0.43341988,-0.27430123,-0.45224524,-0.25000238,839.707,799.011,802.23444,848.1685,768.3883,-0.00836181640625,0.01837158203125,0.99859619140625,5.18890380859375,-3.1103515625,2.489776611328125,1,1.0,1.0,1.0,1.0,95.00
2021-04-26 22:37:55.163,-0.011950131,0.9090459,0.7227998,0.59182054,-0.12086114,0.38836595,0.37975743,0.1066419,0.30279022,0.51308155,0.24671069,0.43331748,0.1086593,0.20706919,-0.1376043,0.14325748,-0.3987714,-0.25838485,-0.3879891,-0.29254436,786.9231,798.60803,797.3993,799.011,728.9011,-0.04248046875,0.0091552734375,1.003662109375,3.626251220703125,-2.699127197265625,1.95892333984375,1,1.0,1.0,1.0,1.0,95.00
2021-04-26 22:37:55.674,0.1624808,1.0085201,0.87144554,0.5650184,-0.07444274,0.6105748,0.4948324,0.16897982,0.38980094,0.7781937,0.35840118,0.5013148,0.17473045,0.19036755,-0.08116269,0.20301867,-0.39544356,-0.22634025,-0.44785765,-0.2587846,768.3883,797.8022,807.8755,779.67035,636.63007,-0.04925537109375,0.0040283203125,0.99554443359375,5.42816162109375,-4.583282470703125,2.624359130859375,1,1.0,1.0,1.0,1.0,95.00
2021-04-26 22:37:56.196,0.21094461,1.0035651,0.8757802,0.44342163,0.029519297,0.6284184,0.45346192,0.41011348,0.4536821,0.8122576,0.4256457,0.4645328,0.22193837,0.17370227,-0.04790892,0.28716418,-0.3953607,-0.102558315,-0.4706074,-0.30407637,829.2308,790.9524,814.7253,837.6923,847.76556,-0.04779052734375,0.0064697265625,1.0001220703125,4.119720458984375,-5.779571533203125,-0.366363525390625,1,1.0,1.0,1.0,1.0,95.00
2021-04-26 22:37:56.702,0.34984356,0.9784318,0.9077863,0.47508776,0.14186646,0.6442848,0.45072487,0.43574366,0.45322436,0.8122576,0.43132982,0.45831344,0.19432342,0.14196803,-0.034784544,0.31965286,-0.34637526,-0.041712597,-0.46828425,-0.22389701,794.57874,803.0403,804.2491,795.38464,741.79486,-0.04718017578125,0.00640869140625,0.9964599609375,3.9178466796875,-4.448699951171875,0.396270751953125,1,1.0,1.0,1.0,1.0,95.00
2021-04-26 22:37:57.207,0.27554014,0.8665031,0.87441546,0.5458601,0.22726837,0.5082501,0.3124186,0.4337317,0.57002205,0.7352918,0.41531053,0.5173868,0.23284374,0.23848218,-0.05894274,0.37786615,-0.24492818,-0.08535614,-0.4329085,-0.19634844,768.3883,817.1429,805.05493,767.98535,606.4103,-0.0357666015625,0.011474609375,0.99737548828125,5.30853271484375,-6.512298583984375,1.786956787109375,1,1.0,1.0,1.0,1.0,95.00
2021-04-26 22:37:57.713,0.37959605,0.6215365,0.6463872,0.36817038,0.20643553,0.3996492,0.19326264,0.24577565,0.53776526,0.31439352,0.23943314,0.39916125,0.1936799,0.28333184,0.009868159,0.29126832,-0.13901809,-0.19367081,-0.37262648,-0.1842786,807.8755,803.44324,804.2491,799.81683,789.34064,-0.04095458984375,0.01251220703125,1.005615234375,4.254302978515625,-3.117828369140625,1.435546875,1,1.0,1.0,1.0,1.0,95.00
2021-04-26 22:37:58.232,0.33307242,0.6646486,0.79097563,0.3593724,0.1890724,0.57734853,0.40896392,0.23337235,0.53776526,0.4258153,0.25424427,0.39257655,0.24750558,0.319436,0.07772774,0.27878654,-0.08353013,-0.36044797,-0.30686525,-0.23893097,814.3223,795.38464,811.50183,820.3663,929.9634,-0.019287109375,0.01873779296875,0.9952392578125,4.90478515625,-7.6861572265625,2.998199462890625,1,1.0,1.0,1.0,1.0,95.00
2021-04-26 22:37:58.760,0.45131737,1.0706707,1.0529935,0.33570504,0.04050357,0.8601128,0.7529862,0.21431397,0.28035676,0.5963885,0.42737067,0.20592678,0.19803412,0.2678029,0.08196888,0.17698261,-0.050182626,-0.50113004,-0.2466167,-0.4327917,828.4249,813.1135,801.8315,829.2308,715.2015,-0.01806640625,-0.0078125,0.99456787109375,3.820648193359375,0.949554443359375,8.142242431640625,1,1.0,1.0,1.0,1.0,95.00
2021-04-26 22:37:59.262,0.38076892,1.1115226,1.0728196,1.1755905,0.009986881,0.8557525,0.7524059,1.196994,0.15346016,0.6152944,0.41810971,1.099002,0.23507911,0.24914958,-0.015714396,0.5175873,-0.013860288,-0.36731398,-0.23279484,-0.141604,786.9231,803.8461,806.6667,772.8205,690.2198,-0.06109619140625,0.021240234375,1.00439453125,7.4468994140625,-7.544097900390625,0.635528564453125,1,1.0,1.0,1.0,1.0,95.00
2021-04-26 22:37:59.772,0.38076892,1.0737311,0.9523319,0.93800634,0.009986881,0.72721845,0.6565574,0.94002074,0.15346016,0.6137231,0.41604212,1.1082288,0.23507911,0.30305883,0.023376055,0.6529812,-0.013860288,-0.32226238,-0.23085818,0.21477325,787.326,813.91943,821.5751,776.4469,638.24176,-0.09906005859375,-7.9345703125E-4,0.99237060546875,5.084228515625,-1.158905029296875,5.06927490234375,1,1.0,1.0,1.0,1.0,100.00
2021-04-26 22:38:00.281,0.38076892,0.8018142,0.6661603,0.9025015,0.009986881,0.4024369,0.47604695,0.8934442,0.15346016,0.5921168,0.2139402,1.1082288,0.23507911,0.29706153,0.06483619,0.64960504,-0.013860288,-0.21744236,-0.194819,0.20932157,844.5421,816.7399,802.6374,838.49817,829.2308,-0.14337158203125,7.9345703125E-4,0.98760986328125,0.9869384765625,-0.411224365234375,12.897491455078125,1,1.0,1.0,1.0,1.0,100.00
2021-04-26 22:38:00.795,0.38076892,0.9835488,0.7285269,0.27261287,0.009986881,0.5558647,0.5366574,-0.16875558,0.15346016,0.58049345,0.07742954,0.4511709,0.23507911,0.27119505,0.14233829,0.6292828,-0.013860288,-0.22948533,-0.16414133,0.25809637,840.5128,809.0842,803.8461,841.31866,835.6777,-0.148193359375,-0.01220703125,0.98858642578125,3.81317138671875,-6.258087158203125,0.16448974609375,1,1.0,1.0,1.0,1.0,100.00
2021-04-26 22:38:01.310,0.38076892,0.99866086,0.9392542,0.35589266,0.009986881,0.5915321,0.6682322,-0.08101297,0.15346016,0.6367661,0.35013163,0.3919681,0.23507911,0.19079725,0.07043598,0.63671523,-0.013860288,-0.026436675,-0.15006368,0.2614576,781.28204,807.0696,805.8608,767.98535,713.1868,-0.13336181640625,-0.0218505859375,0.99737548828125,2.9608154296875,-5.121612548828125,1.353302001953125,1,1.0,1.0,1.0,1.0,100.00
2021-04-26 22:38:01.834,0.38076892,0.9958838,0.94441515,0.35589266,0.009986881,0.5716674,0.38146883,-0.08101297,0.15346016,0.6714902,0.5914638,0.3919681,0.23507911,0.19253103,0.100547396,0.63671523,-0.013860288,0.04919469,-0.2730277,0.2614576,770.80585,774.43225,805.8608,786.9231,803.8461,-0.13519287109375,-0.01666259765625,0.9964599609375,4.673004150390625,-3.043060302734375,0.55328369140625,1,1.0,1.0,1.0,1.0,100.00
2021-04-26 22:38:02.337,0.38076892,0.9156212,0.92331564,0.35589266,0.009986881,0.68479186,0.39407608,-0.08101297,0.15346016,0.6422521,0.5914638,0.3919681,0.23507911,0.32113332,0.015932854,0.63671523,-0.013860288,0.0028097355,-0.2696437,0.2614576,794.9817,792.96704,796.1905,796.1905,967.4359,-0.14581298828125,-0.01715087890625,0.993408203125,5.30853271484375,-3.656158447265625,0.770111083984375,1,1.0,1.0,1.0,1.0,100.00
2021-04-26 22:38:02.846,0.38076892,0.91406673,0.7763443,0.35589266,0.009986881,0.63543135,0.278166,-0.08101297,0.15346016,0.6321524,0.5713725,0.3919681,0.23507911,0.31144312,0.02534783,0.63671523,-0.013860288,-0.20795861,-0.26276186,0.2614576,842.52747,820.3663,807.47253,829.2308,778.46155,-0.154296875,-0.0201416015625,0.9931640625,4.26177978515625,-4.388885498046875,0.4486083984375,1,2.0,1.0,1.0,2.0,100.00
2021-04-26 22:38:03.372,-0.04887603,0.74924284,0.45296746,-0.37805843,0.17758036,0.4425063,0.019543694,0.042159393,0.17377958,0.6197683,0.021464376,0.3620235,0.052147523,0.22008646,-0.0030425957,0.19556807,-0.27433583,-0.1879182,-0.21892843,-0.09071452,816.7399,799.41394,797.8022,817.9487,827.2161,-0.14923095703125,-0.02252197265625,0.98907470703125,4.119720458984375,-4.32159423828125,0.52337646484375,1,1.0,1.0,1.0,1.0,100.00
2021-04-26 22:38:03.889,0.13714443,0.48795208,0.046556186,-0.25871524,0.2434561,0.06121935,-0.24583006,0.022153974,0.29979032,0.5636331,0.076069206,0.3620235,0.12089597,0.1279971,-0.0050026146,0.20322974,-0.29363954,-0.20351319,-0.18511605,-0.11859527,797.3993,795.78754,796.99634,787.326,849.7802,-0.1494140625,-0.0223388671875,0.99505615234375,4.209442138671875,-5.30853271484375,1.03179931640625,1,1.0,1.0,1.0,1.0,100.00
2021-04-26 22:38:04.406,0.13062687,0.45294222,0.23352832,0.040956758,0.17197284,0.019435573,-0.013238585,0.16910085,0.46734437,0.31475598,0.12140373,0.40524203,0.17927606,0.13251191,-0.0809365,0.2856134,-0.3515944,-0.23541327,-0.14081661,-0.123596646,777.25275,805.8608,808.2784,769.59705,650.32965,-0.14532470703125,-0.0224609375,0.98883056640625,4.673004150390625,-3.895416259765625,1.099090576171875,1,1.0,1.0,1.0,1.0,100.00
2021-04-26 22:38:04.922,0.19464569,0.66633224,0.56228715,0.15125404,0.17614123,0.27117378,0.23956697,0.23638576,0.48579022,0.41325134,0.28971958,0.43351835,0.21642318,0.22285524,-0.02130958,0.36126342,-0.40087625,-0.29604587,-0.12086963,-0.10088956,841.31866,808.2784,794.9817,835.2747,865.89746,-0.1385498046875,-0.0247802734375,0.9967041015625,4.194488525390625,-5.420684814453125,1.622467041015625,1,1.0,1.0,1.0,1.0,100.00
2021-04-26 22:38:05.431,0.06324103,0.8446978,0.82288134,0.23379691,0.038685046,0.5097458,0.47253105,0.3319071,0.4592178,0.41786546,0.40224326,0.42758182,0.2235464,0.32168978,0.05728606,0.42645362,-0.44055656,-0.24533597,-0.16324627,-0.06757195,830.0366,813.91943,800.2198,832.8571,770.80585,-0.1324462890625,-0.0240478515625,0.99267578125,4.47113037109375,-4.568328857421875,0.500946044921875,1,1.0,1.0,1.0,1.0,100.00
2021-04-26 22:38:05.960,0.09142019,0.8324681,0.8332794,0.13286752,0.051663492,0.57126796,0.481887,0.27926323,0.4553965,0.37129804,0.45608738,0.35169008,0.24191894,0.3294766,0.09231943,0.46914494,-0.40338647,-0.20313245,-0.20552948,-0.023387298,799.41394,794.9817,809.0842,815.9341,813.5165,-0.1341552734375,-0.02459716796875,0.99658203125,5.136566162109375,-3.775787353515625,0.635528564453125,1,1.0,1.0,1.0,1.0,100.00
2021-04-26 22:38:06.491,-0.32759595,0.7117787,0.7218539,0.084748745,0.2045369,0.49409539,0.40229213,0.27883133,0.053739183,0.3339955,0.41176364,0.23836984,0.0817499,0.3156549,0.027538454,0.34351522,-0.25811434,-0.20870772,-0.20981568,-0.089219436,692.6374,797.8022,810.293,694.2491,619.707,-0.13604736328125,-0.020263671875,0.99383544921875,5.33843994140625,-3.805694580078125,0.650482177734375,1,1.0,1.0,1.0,1.0,100.00
2021-04-26 22:38:07.015,1.2502611,0.6185448,0.8265455,0.084748745,0.9295164,0.2763326,0.3825401,0.27883133,1.3809388,0.4662018,0.55829436,0.23836984,0.15444988,0.25051647,-0.021259613,0.34351522,-0.24002138,-0.22506647,-0.21108782,-0.089219436,784.10254,796.99634,797.3993,787.326,638.6447,-0.14111328125,-0.02020263671875,0.990234375,4.538421630859375,-4.5458984375,0.829925537109375,1,1.0,1.0,1.0,1.0,100.00
2021-04-26 22:38:07.542,1.2502611,0.539891,0.893191,0.084748745,0.9295164,0.14346014,0.36642453,0.27883133,1.3809388,0.48742878,0.54406375,0.23836984,0.15444988,0.25292137,-0.10389857,0.34351522,-0.24002138,-0.26286733,-0.26800478,-0.089219436,742.1978,794.57874,817.5458,749.0476,844.94507,-0.1436767578125,-0.02337646484375,0.9866943359375,4.71038818359375,-4.209442138671875,0.97198486328125,1,1.0,1.0,1.0,1.0,100.00
2021-04-26 22:38:08.043,1.4206676,0.34580082,0.9326396,0.084748745,1.0842879,0.20290595,0.4501913,0.27883133,1.3808749,0.20246053,0.54108787,0.23836984,0.20466138,0.25108144,-0.04456016,0.34351522,-0.22834682,-0.20782165,-0.32234505,-0.089219436,819.5604,807.8755,805.8608,817.5458,716.0073,-0.132080078125,-0.0230712890625,0.99114990234375,4.478607177734375,-4.32159423828125,0.874786376953125,1,1.0,1.0,1.0,1.0,100.00
2021-04-26 22:38:08.553,1.4206676,0.33394143,0.7248206,0.084748745,1.0842879,0.16972063,0.3228865,0.27883133,1.3808749,0.37138522,0.2861107,0.23836984,0.20466138,0.23546956,-0.029942522,0.34351522,-0.22834682,-0.17370528,-0.31828395,-0.089219436,784.90845,800.2198,801.02563,790.54944,592.3077,-0.1287841796875,-0.01947021484375,0.99566650390625,4.05242919921875,-4.1571044921875,0.441131591796875,1,1.0,1.0,1.0,1.0,100.00
2021-04-26 22:38:09.059,0.5097616,0.17036097,0.5491858,0.084748745,0.27497876,0.23130526,0.24849574,0.27883133,0.6157279,0.498908,0.28911263,0.23836984,0.14913961,0.19593178,0.067952156,0.34351522,-0.37654525,-0.0883453,-0.27248824,-0.089219436,778.86444,787.326,801.4286,776.04395,697.8755,-0.12042236328125,-0.02618408203125,0.99493408203125,3.895416259765625,-3.850555419921875,0.538330078125,1,1.0,1.0,1.0,1.0,100.00
2021-04-26 22:38:09.579,0.49837774,0.17070621,0.5694265,0.43954456,0.32035893,0.29019699,0.1851391,0.23941919,0.6157279,0.59259707,0.3762834,0.6040112,0.30643246,0.23295887,0.015907379,0.32638657,-0.2612249,-0.11778638,-0.2888627,0.048671216,807.8755,801.4286,806.6667,808.2784,729.304,-0.1253662109375,-0.0225830078125,0.99383544921875,4.6356201171875,-3.775787353515625,1.79443359375,1,1.0,1.0,1.0,1.0,100.00
2021-04-26 22:38:10.099,0.50775725,0.3551926,0.64348155,0.45293382,0.2988899,0.40036318,0.33697093,0.23345381,0.6157279,0.5932954,0.38171616,0.61564904,0.28941572,0.29432613,0.020538265,0.33069527,-0.25889662,-0.15650529,-0.2867903,0.031317163,856.2271,811.50183,782.8938,850.989,872.3443,-0.13165283203125,-0.025390625,0.9969482421875,4.239349365234375,-5.061798095703125,0.785064697265625,1,1.0,1.0,1.0,1.0,95.00
2021-04-26 22:38:10.615,0.50641584,0.7343065,1.0622095,0.48807147,0.31412926,0.6478928,0.6960929,0.17260666,0.32245937,0.72769886,0.50079757,0.58208084,0.36277342,0.31422624,0.041603655,0.27404946,-0.19511202,-0.29154533,-0.24699505,-0.0068209483,804.65204,792.1612,795.38464,824.7985,1082.2711,-0.1285400390625,-0.0186767578125,0.98870849609375,4.41131591796875,-3.566436767578125,0.94207763671875,1,1.0,1.0,1.0,1.0,95.00
2021-04-26 22:38:11.120,0.54606944,0.84211844,1.0382699,0.5828833,0.27900434,0.6386454,0.6470109,0.16515939,0.14595169,0.78165525,0.5362197,0.58162147,0.31607068,0.26401183,0.20255423,0.29772738,-0.19196016,-0.34922972,-0.23632123,-0.049157366,759.5238,796.1905,796.99634,763.1502,607.2161,-0.13470458984375,-0.02508544921875,0.99530029296875,4.059906005859375,-5.21881103515625,1.62994384765625,1,1.0,1.0,1.0,1.0,95.00
2021-04-26 22:38:11.627,0.1151483,0.828776,0.9717047,0.07330805,0.07647341,0.6456181,0.53647923,-0.2767152,0.5063794,0.80808806,0.5362197,0.5516936,0.19178799,0.18751618,0.21411411,0.29707322,-0.25633144,-0.4826523,-0.19418232,0.0044001318,790.9524,797.8022,801.4286,787.326,849.3773,-0.1253662109375,-0.02886962890625,0.99652099609375,4.119720458984375,-5.9515380859375,1.71966552734375,1,1.0,1.0,1.0,1.0,95.00
2021-04-26 22:38:12.148,0.33252466,0.8935932,0.5883409,0.16579963,-0.023497442,0.5732055,0.23836286,0.084538475,0.5304004,0.83053046,0.44899708,0.5996577,0.372005,0.19404517,0.14769,0.34758708,-0.2631373,-0.44373953,-0.24563438,-0.012011941,829.6337,804.65204,799.011,832.8571,871.13556,-0.11492919921875,-0.0289306640625,0.99652099609375,4.448699951171875,-4.523468017578125,0.657958984375,1,1.0,1.0,1.0,1.0,95.00
2021-04-26 22:38:12.659,0.38144222,0.901183,0.53165317,0.1684699,-0.11514734,0.5202556,0.29619083,0.06782516,0.5071292,0.83053046,0.35568383,0.57523745,0.31437224,0.16009076,-0.051519185,0.32581422,-0.28563824,-0.27661926,-0.24911165,-0.06330697,823.1868,805.05493,808.68134,839.304,772.01465,-0.1162109375,-0.02239990234375,0.99993896484375,4.65057373046875,-3.6785888671875,0.814971923828125,1,1.0,1.0,1.0,1.0,95.00
2021-04-26 22:38:13.160,0.5134763,0.8996103,0.48871833,0.14743899,-0.09866313,0.4343396,0.28665715,0.10022119,0.508461,0.75945026,0.25994006,0.4245922,0.30640882,0.10300751,-0.136876,0.34528825,-0.2967192,-0.27802527,-0.31361073,-0.06783179,780.4762,797.8022,798.60803,778.46155,686.1905,-0.117431640625,-0.0242919921875,0.99603271484375,4.658050537109375,-4.366455078125,1.12152099609375,1,1.0,1.0,1.0,1.0,95.00
2021-04-26 22:38:13.670,0.40810603,0.5925556,0.1529877,0.051239472,0.051415876,0.061016914,-0.054036874,-0.04561191,0.48791143,0.6031165,0.010752694,0.48352236,0.1618794,0.071372926,-0.122874536,0.27780116,-0.32510853,-0.2946154,-0.32175004,-0.07291239,767.98535,803.8461,795.78754,765.56775,613.663,-0.117431640625,-0.024658203125,0.98834228515625,4.388885498046875,-4.029998779296875,0.515899658203125,1,1.0,1.0,1.0,1.0,95.00
2021-04-26 22:38:14.191,0.36788982,0.42457527,-0.05739175,-0.03135276,0.38601366,0.065694235,-0.2992393,0.13874304,0.48666427,0.4364682,0.11304232,0.37791762,0.16374254,0.10707707,-0.10552971,0.2926519,-0.32298288,-0.47679478,-0.30797565,-0.13021798,800.2198,794.9817,797.8022,813.1135,813.1135,-0.12176513671875,-0.02532958984375,0.99566650390625,4.568328857421875,-4.822540283203125,1.069183349609375,1,1.0,1.0,1.0,1.0,95.00
2021-04-26 22:38:14.718,0.28683704,0.7246511,0.49089256,0.18227331,0.46838817,0.24221368,0.11080387,0.17185394,0.42755622,0.53967196,0.37241143,0.41167408,0.17223406,0.2370914,-0.05144008,0.32959434,-0.28568518,-0.42799765,-0.25050887,-0.12341849,842.9304,810.293,792.96704,836.08057,853.8095,-0.1241455078125,-0.02447509765625,0.99676513671875,4.598236083984375,-3.90289306640625,1.398162841796875,1,1.0,1.0,1.0,1.0,95.00
2021-04-26 22:38:15.241,0.25235334,0.7850186,0.60775745,0.22089641,0.45906326,0.29637825,0.23100586,0.37184674,0.42793632,0.5198081,0.37053165,0.37556252,0.13628098,0.28602758,-0.06179338,0.29503787,-0.28912735,-0.40588102,-0.24745731,-0.22049792,774.83514,795.38464,805.8608,770.0,698.2784,-0.1259765625,-0.01947021484375,0.99761962890625,4.47113037109375,-4.32159423828125,1.60003662109375,1,1.0,1.0,1.0,1.0,95.00
2021-04-26 22:38:15.746,0.12969859,0.7111278,0.59274906,0.20041902,0.28194878,0.32677966,0.22933127,0.4618774,0.35503078,0.5148384,0.35925776,0.4759078,0.140614,0.26675105,-0.0050080228,0.25372237,-0.284595,-0.30136675,-0.23544082,-0.11231229,768.7912,791.75824,798.20514,772.8205,674.10254,-0.116455078125,-0.02587890625,0.995849609375,4.42626953125,-4.867401123046875,1.375732421875,1,1.0,1.0,1.0,1.0,95.00
2021-04-26 22:38:16.259,0.10953977,0.49843732,0.2524927,0.16380177,0.18741055,0.2296948,0.047650162,0.5077784,0.33663416,0.053897794,0.072977275,0.44306362,0.117648326,0.23936711,0.017971458,0.2199207,-0.2900885,-0.26108074,-0.28729248,-0.09166197,849.3773,808.68134,804.2491,846.55676,891.685,-0.11083984375,-0.02947998046875,0.99603271484375,4.44122314453125,-4.822540283203125,1.173858642578125,1,1.0,1.0,1.0,1.0,95.00
2021-04-26 22:38:16.782,0.13935463,0.4267502,-0.093937114,0.14745109,0.106646925,0.15750168,-0.12619579,0.39294592,0.32385197,0.27952987,0.118695885,0.44469404,0.12690626,0.24095325,0.029022431,0.2917754,-0.33022094,-0.21012107,-0.31224483,-0.090653665,830.4396,792.96704,812.3077,843.73627,821.5751,-0.12158203125,-0.02581787109375,0.99560546875,4.792633056640625,-4.1571044921875,0.777587890625,1,1.0,1.0,1.0,1.0,95.00
2021-04-26 22:38:17.296,0.21232416,0.59288555,0.3046165,0.26375827,0.25385264,0.23279049,-0.06042709,0.33913305,0.604529,0.4778289,0.106786355,0.57512665,0.18921016,0.29684943,-0.05989148,0.3447742,-0.37151226,-0.18250202,-0.39695624,-0.057991344,830.4396,841.31866,786.9231,818.3516,848.5714,-0.11297607421875,-0.022216796875,0.9932861328125,4.448699951171875,-4.1571044921875,0.59814453125,1,1.0,1.0,1.0,1.0,95.00
2021-04-26 22:38:17.798,0.40844336,0.7654608,0.48686832,0.30686846,0.27849168,0.30411097,0.14026383,0.31214342,0.67075783,0.6412691,0.36829397,0.62799275,0.3015995,0.2980707,-0.13800322,0.36467293,-0.49240944,-0.22167327,-0.33663666,-0.111026034,788.1319,809.4872,793.36993,795.38464,733.73627,-0.12115478515625,-0.0201416015625,0.99676513671875,4.403839111328125,-3.90289306640625,1.203765869140625,1,1.0,1.0,1.0,1.0,95.00
2021-04-26 22:38:18.316,0.62774366,0.90556633,0.5298148,0.4415682,0.30961734,0.37279516,0.17621621,0.35550162,0.671355,0.6473444,0.34889853,0.6519571,0.2921426,0.28592414,-0.2036681,0.35449916,-0.44610095,-0.28583476,-0.29945624,-0.080611505,826.8132,805.4579,808.68134,825.6044,820.7692,-0.11505126953125,-0.017578125,1.0,5.330963134765625,-4.583282470703125,1.5850830078125,1,1.0,1.0,1.0,1.0,95.00
2021-04-26 22:38:18.824,0.5610872,0.8081934,0.36351448,0.37642363,0.14091504,0.31025225,0.13300835,0.40182176,0.60735774,0.5106808,0.3052827,0.6291868,0.20717336,0.26992586,-0.15644825,0.27733907,-0.47752303,-0.33451018,-0.29598188,-0.13972946,838.49817,804.2491,798.20514,832.8571,823.5897,-0.12298583984375,-0.02557373046875,0.9935302734375,4.329071044921875,-5.001983642578125,1.1962890625,1,1.0,1.0,1.0,1.0,95.00
2021-04-26 22:38:19.332,0.37492913,0.5574554,0.11629331,0.3173505,0.10704924,0.19267988,-0.069793046,0.36275476,0.32414842,0.46512926,0.19886993,0.60621256,0.059169203,0.27117246,-0.0759145,0.24048245,-0.4719404,-0.24594015,-0.2924136,-0.11899194,789.34064,819.9634,779.2674,786.52014,612.4542,-0.11212158203125,-0.02752685546875,0.9918212890625,3.7982177734375,-5.7421875,0.650482177734375,1,1.0,1.0,1.0,1.0,95.00
2021-04-26 22:38:19.837,-0.13067707,0.284229,0.25503868,0.2963831,0.08856808,0.16850626,-0.032584406,0.32578024,0.14778444,0.36601028,0.28778994,0.6262117,0.066939525,0.26452085,0.06835596,0.2546314,-0.45865062,-0.22578782,-0.28182837,-0.08804152,828.8278,803.0403,803.44324,833.2601,757.1062,-0.10235595703125,-0.0240478515625,0.99993896484375,5.061798095703125,-4.246826171875,2.205657958984375,1,1.0,1.0,1.0,1.0,95.00
2021-04-26 22:38:20.346,-0.059306465,0.514163,0.5552009,0.40817833,0.10850086,0.25536308,0.09754685,0.14971222,0.014378931,0.37383977,0.33281076,0.5712106,0.048343994,0.25360158,0.04191288,0.2850591,-0.42084572,-0.19041613,-0.23384811,-0.091003776,760.32965,796.1905,813.1135,766.77655,652.3443,-0.10198974609375,-0.02508544921875,0.99725341796875,4.179534912109375,-3.93280029296875,1.487884521484375,1,1.0,1.0,1.0,1.0,100.00
2021-04-26 22:38:20.853,-0.05014912,0.6865976,0.6830401,0.5844284,0.10347443,0.5652456,0.21670492,0.20589788,-0.0433775,0.4263088,0.35527837,0.56139535,0.080974385,0.23798089,-0.0350765,0.24308974,-0.32207158,-0.22332652,-0.1761556,-0.08880476,823.9927,800.2198,793.7729,825.6044,785.7143,-0.1116943359375,-0.02471923828125,0.9981689453125,4.65057373046875,-3.790740966796875,1.158905029296875,1,1.0,1.0,1.0,1.0,100.00
2021-04-26 22:38:21.368,-0.05014912,0.64456964,0.66237843,0.5844284,0.10347443,0.57034636,0.25025254,0.20589788,-0.0433775,0.42577392,0.36541167,0.56139535,0.080974385,0.19741662,-0.17289172,0.24308974,-0.32207158,-0.22234313,-0.12284844,-0.08880476,775.64105,801.02563,797.3993,775.64105,729.707,-0.115234375,-0.02838134765625,0.99609375,4.269256591796875,-3.745880126953125,0.919647216796875,1,1.0,1.0,1.0,1.0,100.00
2021-04-26 22:38:21.890,0.1653794,0.5155972,0.41099364,0.010284449,-0.1343637,0.4767239,0.23962311,0.0028915624,0.0018112739,0.112373084,-0.006376454,0.2061987,0.19086176,0.2480161,-0.14663018,0.3126738,-0.48085326,-0.27010128,-0.15989104,-0.33455628,800.6227,797.8022,803.8461,796.1905,705.9341,-0.1175537109375,-0.02642822265625,0.9937744140625,4.20196533203125,-4.448699951171875,0.3887939453125,1,1.0,1.0,1.0,1.0,100.00
2021-04-26 22:38:22.395,0.26520923,0.21727268,0.14305088,-0.11873701,-0.17120619,0.028763074,0.23482049,-0.057052918,0.31104723,0.11715953,-0.017628431,0.21271941,0.21215102,0.27410683,-0.10745569,0.27412474,-0.4756571,-0.26301542,-0.2552038,-0.17516084,772.4176,794.9817,800.6227,765.9707,698.2784,-0.12030029296875,-0.02471923828125,0.994873046875,4.6356201171875,-5.555267333984375,1.55517578125,1,1.0,1.0,1.0,1.0,100.00
2021-04-26 22:38:22.900,0.34022167,0.56316644,0.09701131,-0.039823208,0.09787609,0.0740959,0.2606918,0.032250684,0.5175272,0.19326371,0.19004993,0.38469842,0.26909056,0.29356346,-0.046492312,0.38643667,-0.35001406,-0.22544597,-0.3502659,-0.09623657,848.97437,804.65204,801.02563,846.1539,847.76556,-0.09967041015625,-0.03131103515625,0.993896484375,3.865509033203125,-5.8319091796875,0.897216796875,1,1.0,1.0,1.0,1.0,100.00
2021-04-26 22:38:23.407,0.41905776,0.83488584,0.33313543,0.13513389,0.21834318,0.2300404,0.38612,0.121299766,0.57224375,0.301911,0.26287544,0.3681912,0.33436334,0.26692533,0.042702418,0.523531,-0.29300937,-0.2474458,-0.28427258,-0.03235289,796.1905,808.2784,796.1905,799.011,701.50183,-0.11480712890625,-0.02642822265625,0.996826171875,4.912261962890625,-3.84307861328125,1.517791748046875,1,1.0,1.0,1.0,1.0,100.00
2021-04-26 22:38:23.914,0.342434,0.8549642,0.3502467,0.21688652,0.23987414,0.23962148,0.3055525,0.16719699,0.569036,0.41549918,0.30983222,0.47173965,0.35256138,0.22512561,0.08268197,0.5571258,-0.2671325,-0.25683632,-0.24357001,-0.05881769,770.40295,794.57874,802.6374,771.2088,732.9304,-0.1156005859375,-0.03033447265625,0.99920654296875,4.433746337890625,-4.134674072265625,1.4654541015625,1,1.0,1.0,1.0,1.0,100.00
2021-04-26 22:38:24.436,0.16332841,0.68337584,0.2512667,0.1724642,0.17840043,0.19470313,0.14306422,0.09983906,0.5575303,0.5751198,0.32766804,0.50512993,0.33573285,0.24573086,0.07393858,0.48679763,-0.31023833,-0.29811457,-0.24363035,-0.15179315,799.41394,793.7729,801.4286,793.7729,744.61536,-0.1058349609375,-0.02587890625,0.9967041015625,4.493560791015625,-4.015045166015625,0.770111083984375,1,1.0,1.0,1.0,1.0,100.00
2021-04-26 22:38:24.962,0.0018384956,0.20222667,-0.0028194878,0.013262597,0.21359758,0.045849398,-0.34966323,-0.11659469,0.5835039,0.5527697,0.18150194,0.43684193,0.2718713,0.18717036,0.1268071,0.3192505,-0.31093645,-0.28780422,-0.36921093,-0.23680028,842.9304,803.8461,804.2491,838.49817,784.10254,-0.1146240234375,-0.02386474609375,0.9942626953125,4.224395751953125,-3.90289306640625,1.024322509765625,1,1.0,1.0,1.0,1.0,100.00
2021-04-26 22:38:25.475,-0.040348377,0.18792573,0.008720631,0.041918818,0.25338098,-0.047308955,-0.16238494,-0.013543478,0.6382712,0.48481855,0.13757703,0.3206044,0.1537501,0.14233164,0.17106101,0.28036368,-0.3087841,-0.3380966,-0.45238253,-0.27006456,824.3956,796.5934,817.9487,827.619,1120.5494,-0.11004638671875,-0.013671875,0.9962158203125,5.0543212890625,-4.314117431640625,1.248626708984375,1,1.0,1.0,1.0,1.0,100.00
2021-04-26 22:38:25.998,0.013499124,0.29467854,0.09077747,0.1279062,0.18473299,-0.21982853,-0.04822871,-0.03139796,0.6295393,0.10280032,-0.049508758,0.28701356,0.055380274,0.13030653,0.20994575,0.25540587,-0.31272516,-0.34670997,-0.41827244,-0.2542843,789.34064,807.0696,805.4579,786.9231,620.9158,-0.11456298828125,-0.0203857421875,0.9976806640625,4.493560791015625,-4.194488525390625,1.31591796875,1,1.0,1.0,1.0,1.0,100.00
2021-04-26 22:38:26.501,0.03131626,0.5416295,0.4106718,0.29344988,0.014390322,-0.13227502,0.23209387,0.16268274,0.51796716,-0.004521982,0.04166728,0.31775728,0.04699261,0.20571153,0.17628649,0.21713641,-0.32545942,-0.31233135,-0.32083565,-0.16605416,804.65204,813.91943,814.7253,808.2784,643.47986,-0.1124267578125,-0.0198974609375,1.0025634765625,5.21881103515625,-5.016937255859375,1.98883056640625,1,1.0,1.0,1.0,1.0,100.00
2021-04-26 22:38:27.014,0.16076235,0.7101452,0.7143028,0.3731719,-0.15251738,0.012616146,0.4311113,0.09951102,0.39534625,0.14576235,0.14184101,0.27745962,0.11891881,0.32267547,0.100903705,0.14441523,-0.29751623,-0.2347147,-0.11769466,-0.08970617,776.8498,796.5934,804.2491,775.2381,685.38464,-0.11383056640625,-0.0225830078125,0.9979248046875,4.433746337890625,-5.555267333984375,1.308441162109375,1,1.0,1.0,1.0,1.0,100.00
2021-04-26 22:38:27.526,0.28648174,0.69858915,0.7053593,0.5023113,-0.12357848,0.10420438,0.41007605,0.2555909,0.10029383,0.14141084,0.14442733,0.18963887,0.22643003,0.3637463,0.02604806,0.10065524,-0.29646224,-0.16752255,-0.093417175,-0.0063171783,849.7802,813.91943,799.41394,847.3626,830.84247,-0.10455322265625,-0.02496337890625,0.99932861328125,4.47113037109375,-5.33843994140625,1.24114990234375,1,1.0,1.0,1.0,1.0,100.00
2021-04-26 22:38:28.036,-0.14543131,0.5274662,0.5412852,-0.15981849,-0.03904774,0.06955625,0.24909897,0.19334988,0.044168063,0.18103716,0.12965836,0.3945987,0.13228717,0.36232835,-0.05197163,0.15156472,-0.21747814,-0.12051964,-0.075520836,-0.006720584,816.337,811.0989,799.011,807.0696,739.3773,-0.09326171875,-0.0303955078125,1.00311279296875,4.433746337890625,-6.287994384765625,0.25421142578125,1,1.0,1.0,1.0,1.0,100.00
2021-04-26 22:38:28.547,0.05282487,0.7227822,0.43524086,0.027049182,0.05150443,0.19407474,0.27154386,0.103840016,0.06631196,0.36444503,0.4668153,0.43640238,0.19724375,0.3172755,-0.04718596,0.16693832,-0.28319088,-0.18562926,-0.18537122,-0.011164814,796.99634,812.71063,799.81683,803.44324,633.4066,-0.09912109375,-0.02569580078125,0.99560546875,4.089813232421875,-3.820648193359375,-0.919647216796875,1,1.0,1.0,1.0,1.0,100.00
2021-04-26 22:38:29.072,0.07644668,0.8470545,0.67107826,0.028065637,0.062240485,0.4607387,0.41573912,0.12766784,-0.0010909052,0.4881569,0.5011406,0.43640238,0.21282342,0.28309414,0.036635697,0.1667097,-0.2843471,-0.24715306,-0.1678575,-0.0058955313,786.9231,815.12823,804.65204,778.86444,682.5641,-0.1046142578125,-0.03155517578125,0.99462890625,3.835601806640625,-4.85992431640625,-0.79254150390625,1,1.0,1.0,1.0,1.0,100.00
2021-04-26 22:38:29.577,0.20691764,0.8876309,0.69653916,0.15391308,0.13694103,0.52305514,0.46260718,0.026756076,-0.04867095,0.6205705,0.5011406,0.35606307,0.27188152,0.28717402,0.14597003,0.18335824,-0.40276054,-0.33924967,-0.24261802,-0.033938356,837.6923,796.5934,806.6667,836.08057,940.0366,-0.08172607421875,-0.0810546875,1.00537109375,-1.383209228515625,-10.175933837890625,-11.79840087890625,1,1.0,1.0,1.0,1.0,100.00
2021-04-26 22:38:30.109,0.6118408,0.7216888,0.50994164,0.2633012,0.35783756,0.46396455,0.2843621,0.23880069,0.16440934,0.63850904,0.3634914,0.28848213,0.040897857,0.30844763,0.17680533,0.33528697,-0.3742331,-0.27682275,-0.25642326,0.12122402,834.0659,802.6374,803.8461,845.7509,1061.3187,0.01617431640625,-0.14794921875,0.990234375,3.768310546875,-6.811370849609375,-8.3441162109375,1,1.0,1.0,1.0,1.0,100.00
2021-04-26 22:38:30.634,0.4908265,0.49340236,0.26403537,0.3092023,0.25161737,0.14960541,0.14021216,0.18248427,0.2097858,0.55439097,0.09334419,0.42950276,0.04461929,0.25232127,0.11446926,0.36803743,-0.32988107,-0.1668928,-0.36320817,0.15738426,782.0879,804.2491,801.4286,779.67035,587.8755,-0.02459716796875,-0.11083984375,1.002197265625,5.14404296875,-2.908477783203125,-6.452484130859375,1,1.0,1.0,1.0,1.0,100.00
2021-04-26 22:38:31.145,0.4829354,0.33464816,0.28367704,0.26225355,0.23170272,0.103052266,0.11756044,0.20209968,0.2097858,0.4974918,0.34856495,0.51381266,0.03551017,0.26618618,0.046406455,0.37321544,-0.29902837,-0.06303537,-0.288693,0.18550168,745.42126,1504.9451,754.68866,743.8095,683.36993,-0.0379638671875,-0.100830078125,0.99444580078125,3.33465576171875,-1.338348388671875,-1.83929443359375,1,1.0,1.0,1.0,1.0,100.00
2021-04-26 22:38:31.671,0.35982627,-0.16886362,0.3611459,0.2582785,0.11210364,0.13954735,0.10285774,0.13238011,0.08133825,0.27611512,0.32551056,0.51066345,0.031620488,0.23654792,0.011274357,0.392338,-0.2523099,-6.519862E-4,-0.30059072,0.20545223,824.3956,631.79486,793.36993,801.02563,711.1722,-0.06207275390625,-0.09906005859375,0.99822998046875,3.805694580078125,-3.372039794921875,6.3702392578125,1,1.0,1.0,1.0,1.0,100.00
2021-04-26 22:38:32.172,0.3478086,-0.25641093,0.25077555,0.791028,0.055826902,0.27128303,0.1288503,0.4825004,-0.047541544,0.24543373,0.29050285,0.6035349,0.041118164,0.34165514,0.14128841,0.45929372,-0.1983204,0.043321244,-0.19819063,0.21364594,842.1245,685.78754,798.60803,847.3626,858.24176,-0.0225830078125,-0.15020751953125,0.99517822265625,5.211334228515625,-8.03009033203125,5.899200439453125,1,1.0,1.0,1.0,1.0,100.00
2021-04-26 22:38:32.673,0.82480925,-0.25641093,0.25077555,0.858517,0.123435475,0.27128303,0.1288503,0.5439262,0.33264625,0.24543373,0.29050285,0.5664832,0.3230993,0.34165514,0.14128841,0.49176493,-0.27370682,0.043321244,-0.19819063,-0.038706206,771.6117,762.3443,805.05493,765.16486,674.10254,-0.01446533203125,-0.1397705078125,0.99365234375,5.390777587890625,-4.523468017578125,2.160797119140625,1,1.0,1.0,1.0,1.0,100.00
2021-04-26 22:38:33.204,0.70962155,-0.25641093,0.27449465,0.73865557,0.087094046,0.27128303,-0.009934085,0.44311914,0.33264625,0.24543373,0.13126838,0.57206374,0.23663267,0.34165514,-0.022576662,0.4134784,-0.3435518,0.043321244,-0.26189822,-0.034733273,830.0366,830.84247,796.1905,828.022,565.7143,-0.051025390625,-0.1292724609375,0.99609375,5.136566162109375,-3.626251220703125,3.910369873046875,1,1.0,1.0,1.0,1.0,100.00
2021-04-26 22:38:33.710,0.70962155,-0.25641093,0.93285334,0.5388749,0.087094046,0.27128303,0.52591467,0.33549675,0.33264625,0.24543373,0.4930916,0.507781,0.23663267,0.34165514,0.036893573,0.37246373,-0.3435518,0.043321244,-0.26810208,-0.07487221,795.38464,788.93774,807.47253,780.87915,713.9927,-0.0633544921875,-0.1131591796875,1.0006103515625,3.99261474609375,-3.805694580078125,1.697235107421875,1,1.0,1.0,1.0,1.0,100.00
2021-04-26 22:38:34.239,0.45421922,-0.25641093,0.9405628,0.24451612,0.030646523,0.27128303,0.5237935,0.07894322,0.091754995,0.24543373,0.49396995,0.24466816,0.052193757,0.34165514,0.13042831,0.21977457,-0.42991865,0.043321244,-0.29989678,-0.083715774,830.84247,796.1905,805.8608,828.4249,847.76556,-0.05731201171875,-0.123291015625,0.9935302734375,4.5458984375,-4.433746337890625,1.0467529296875,1,1.0,1.0,1.0,1.0,100.00
2021-04-26 22:38:34.751,0.45421922,0.43055084,0.9218604,0.24451612,0.030646523,0.2760295,0.5381303,0.07894322,0.091754995,0.16232894,0.4902322,0.24466816,0.052193757,0.1489908,0.1520806,0.21977457,-0.42991865,-0.054818634,-0.33369586,-0.083715774,844.1392,813.5165,803.44324,850.58606,751.8681,-0.05596923828125,-0.123046875,0.9984130859375,3.745880126953125,-4.44122314453125,0.40374755859375,1,1.0,1.0,1.0,1.0,100.00
2021-04-26 22:38:35.274,0.05078867,0.6408367,0.18513158,-0.0016758358,0.2219565,0.37354696,0.095113985,0.2695704,0.36018518,0.4286866,0.20028077,0.45069826,0.22125606,0.26899996,0.11618756,0.58039165,-0.32050183,-0.16705716,-0.30235058,-0.0133277,792.5641,796.5934,799.011,804.65204,747.4359,-0.05419921875,-0.12664794921875,0.99407958984375,4.32159423828125,-4.344024658203125,0.635528564453125,1,1.0,1.0,1.0,1.0,100.00
2021-04-26 22:38:35.777,0.08841813,0.57954353,-0.058497563,0.3034266,0.19834808,0.2976363,-0.032622095,0.26519454,0.45948777,0.4286866,0.15227488,0.53264606,0.32822078,0.24148011,0.029362356,0.59837234,-0.3950325,-0.21504155,-0.22055846,0.07641651,770.80585,795.38464,800.2198,761.9414,650.7326,-0.06097412109375,-0.12652587890625,0.9954833984375,4.687957763671875,-3.9178466796875,1.24114990234375,1,1.0,1.0,1.0,1.0,100.00
2021-04-26 22:38:36.288,0.22993045,0.5609764,-0.11994342,0.4916858,0.23703781,0.22671427,-0.1059071,0.21885048,0.4562387,0.40937147,0.15206195,0.5200803,0.35671,0.24261883,0.024942936,0.58688366,-0.33994043,-0.3008579,-0.24306203,0.040027324,830.4396,803.8461,808.68134,840.5128,743.00366,-0.05908203125,-0.12823486328125,0.991943359375,4.08233642578125,-4.418792724609375,0.500946044921875,1,1.0,1.0,1.0,1.0,100.00
2021-04-26 22:38:36.794,0.3278123,0.38771462,-0.4274882,0.59453624,0.23458518,0.12323864,-0.23329677,0.21445619,0.52980685,0.32290822,0.054422606,0.4562167,0.35736316,0.20644501,0.08584867,0.48891118,-0.29082176,-0.40792727,-0.28599235,0.052292414,850.989,798.60803,804.2491,847.76556,1035.5311,-0.0638427734375,-0.141357421875,1.0018310546875,7.065582275390625,-0.0299072265625,-5.570220947265625,1,1.0,1.0,1.0,1.0,100.00
2021-04-26 22:38:37.296,0.3930717,0.48570576,-0.25930655,0.581676,0.268269,0.19128594,-0.10314545,0.16634728,0.5822958,0.3078474,0.16254848,0.39179096,0.30853045,0.33138293,0.087298416,0.38286728,-0.22328831,-0.34220013,-0.33055618,-0.06436375,776.04395,798.60803,813.5165,778.86444,663.22345,-0.15240478515625,-0.08990478515625,0.99462890625,2.579498291015625,-4.388885498046875,4.9346923828125,1,1.0,1.0,1.0,1.0,100.00
2021-04-26 22:38:37.811,0.38799763,0.78235954,0.03687245,0.5299199,0.21420826,0.34467572,0.021507496,0.021676471,0.590074,0.25770694,0.16299655,0.28753084,0.37488365,0.41022488,0.10682312,0.28016308,-0.20325144,-0.31819874,-0.3418669,-0.10041399,795.38464,801.4286,799.41394,783.69965,704.7253,-0.1104736328125,-0.10430908203125,0.99462890625,3.715972900390625,-6.467437744140625,0.1495361328125,1,1.0,1.0,1.0,1.0,100.00
2021-04-26 22:38:38.334,0.48272398,1.0115786,0.60366726,0.6942988,0.054656845,0.49157423,0.19220592,-0.03440003,0.5554238,0.4308634,0.3116449,0.111387454,0.42878997,0.47333014,0.14104937,0.23342319,-0.1820503,-0.18436117,-0.266211,-0.220848,828.4249,778.86444,805.05493,842.1245,879.19415,-0.1026611328125,-0.1051025390625,0.99749755859375,4.029998779296875,-5.390777587890625,1.4654541015625,1,1.0,1.0,1.0,1.0,100.00
2021-04-26 22:38:38.844,0.5219175,1.1530373,0.84026504,0.78804624,-0.13157566,0.5987781,0.37934908,-0.05746754,0.35368395,0.42514735,0.2965847,0.059877377,0.48987806,0.38807875,0.17326063,0.24922381,-0.18419401,-0.20262998,-0.21559185,-0.2518334,826.8132,801.8315,805.4579,818.7546,769.59705,-0.0933837890625,-0.102294921875,0.9930419921875,4.0673828125,-5.30853271484375,1.0467529296875,1,1.0,1.0,1.0,1.0,100.00
2021-04-26 22:38:39.353,0.52446866,1.1776782,0.8600568,0.89955723,-0.29945803,0.65484124,0.39891943,0.14060822,0.06580125,0.42514735,0.28891304,0.03450282,0.45082742,0.37682995,0.09365158,0.2917168,-0.22210465,-0.16387843,-0.1822826,-0.30977547,853.00366,789.34064,803.44324,850.18317,988.3883,-0.090087890625,-0.1019287109375,0.991455078125,3.289794921875,-5.001983642578125,1.114044189453125,1,1.0,1.0,1.0,1.0,100.00
2021-04-26 22:38:39.855,0.19623522,0.5194386,0.64743316,0.24309652,0.29918194,0.28737974,0.29925093,-0.043293823,0.24124104,0.29171816,0.2538508,0.33689976,0.07269968,0.101923406,0.054967575,0.23000777,-0.53606176,-0.27265966,-0.21036007,-0.17427549,777.25275,794.17584,799.011,768.3883,732.9304,-0.08929443359375,-0.115234375,0.99029541015625,3.207550048828125,-4.5758056640625,-0.142059326171875,1,1.0,1.0,1.0,1.0,100.00
2021-04-26 22:38:40.372,-0.0553191,0.3496127,0.25036126,0.22358143,0.30931085,0.18591727,0.002207416,0.02050304,0.32332548,0.3522527,0.07300986,0.41116202,0.22177398,0.12967017,0.020612365,0.20784043,-0.472322,-0.25255653,-0.21079557,-0.14022405,811.9048,805.05493,795.78754,809.4872,819.9634,-0.0819091796875,-0.11865234375,0.99371337890625,4.254302978515625,-4.284210205078125,0.889739990234375,1,1.0,1.0,1.0,1.0,100.00
2021-04-26 22:38:40.900,0.3799554,0.372662,0.11850849,0.54151654,0.4793515,0.20490816,-0.12916586,0.51415694,0.78499,0.3522527,0.12509236,0.97566515,0.2537263,0.27345842,0.062837206,0.25452954,-0.46718708,-0.19039708,-0.21455011,-0.07318526,840.10986,801.02563,809.89014,848.97437,790.14655,-0.08966064453125,-0.12506103515625,0.98858642578125,5.802001953125,-4.254302978515625,0.46356201171875,1,1.0,1.0,1.0,1.0,100.00
2021-04-26 22:38:41.411,0.45295274,0.51173925,0.23090051,0.63249874,0.5687286,0.37684947,0.016037142,0.64043146,0.78499,0.33117875,0.2416465,0.97616905,0.32545006,0.32805857,0.0069074426,0.3251418,-0.44843623,-0.16668043,-0.19363393,0.008537436,791.75824,792.5641,805.8608,794.57874,773.22345,-0.03546142578125,-0.05322265625,1.0098876953125,8.127288818359375,-8.65814208984375,4.53094482421875,1,1.0,1.0,1.0,1.0,100.00
2021-04-26 22:38:41.912,0.6656153,0.8041729,0.48073497,0.7755768,0.6873177,0.523028,0.152936,0.80438536,0.78499,0.37197673,0.27150267,0.97616905,0.33444348,0.38435736,0.047360454,0.39255482,-0.46418083,-0.14938712,-0.2014914,0.070931554,628.1685,759.92676,800.6227,621.31866,543.1502,-0.02777099609375,-0.0562744140625,1.00384521484375,4.62066650390625,-3.192596435546875,0.6280517578125,1,1.0,1.0,1.0,1.0,100.00
2021-04-26 22:38:42.432,0.7350499,0.9976399,0.45515925,0.78561103,0.82572806,0.8521627,0.16215315,0.8172814,0.7827899,0.88547015,0.3473347,0.91504514,0.42059547,0.36580735,0.08449778,0.4785893,-0.48492473,-0.16749771,-0.18272671,0.13043788,793.36993,799.011,806.26373,792.5641,745.0183,-0.02044677734375,-0.06170654296875,1.00103759765625,4.194488525390625,-4.568328857421875,0.142059326171875,1,1.0,1.0,1.0,1.0,100.00
2021-04-26 22:38:42.934,0.7350499,1.0611763,0.4541796,0.78561103,0.82572806,0.98370063,0.21012628,0.8172814,0.7827899,0.91173536,0.43487263,0.91504514,0.42059547,0.3924451,0.1266058,0.4785893,-0.48492473,-0.087637484,-0.19477077,0.13043788,833.663,819.5604,797.3993,827.619,842.1245,-0.02032470703125,-0.060791015625,1.0003662109375,4.433746337890625,-4.1571044921875,1.233673095703125,1,1.0,1.0,1.0,1.0,100.00
2021-04-26 22:38:43.448,0.7350499,0.8438299,0.2581384,0.78561103,0.82572806,0.79897386,0.08788154,0.8172814,0.7827899,0.91173536,0.42767254,0.91504514,0.42059547,0.32846385,0.09691248,0.4785893,-0.48492473,-0.20315002,-0.21470283,0.13043788,837.28937,808.68134,796.1905,827.619,798.60803,-0.043212890625,-0.04901123046875,1.005126953125,5.084228515625,-3.69354248046875,2.46734619140625,1,1.0,1.0,1.0,1.0,100.00
2021-04-26 22:38:43.952,0.13235196,0.7580061,0.41477463,0.5203622,0.068289496,0.5527307,0.15899009,0.23431301,0.34067693,0.8747306,0.41945213,-0.037493017,-0.13947044,0.25465888,0.06778322,0.22829062,-0.31798786,-0.22098595,-0.28029296,-0.14261602,764.7619,760.32965,827.2161,780.4762,1067.7656,0.00311279296875,-0.06585693359375,1.00726318359375,4.179534912109375,-4.68048095703125,1.15142822265625,1,1.0,1.0,1.0,1.0,100.00
2021-04-26 22:38:44.462,0.47107753,0.6957053,0.54353863,0.41790447,0.4132307,0.21290344,0.18272589,0.3372038,0.66541225,0.6576963,0.4236761,0.28907442,-0.09605844,0.21646346,-0.06419769,0.35818884,-0.35687888,-0.26347703,-0.41857532,-0.094127044,838.9011,813.1135,805.05493,828.8278,801.02563,-0.0098876953125,-0.1038818359375,0.99444580078125,4.179534912109375,-2.923431396484375,-0.321502685546875,1,1.0,1.0,1.0,1.0,100.00
2021-04-26 22:38:44.971,0.8208864,0.88839895,0.7602106,0.36480668,0.66018856,0.46455115,0.4782128,0.36344886,0.77035177,0.7300891,0.45705384,0.64771193,0.17793788,0.263542,-0.081278756,0.5034321,-0.2410073,-0.14983389,-0.52937835,-0.039658535,832.0513,817.1429,812.3077,840.10986,804.2491,-0.0797119140625,-0.0740966796875,0.99114990234375,6.377716064453125,-1.652374267578125,-0.0299072265625,1,1.0,1.0,1.0,1.0,100.00
2021-04-26 22:38:45.490,0.94304025,0.98829085,0.8449681,0.49117234,0.64862865,0.6022456,0.52140266,0.417303,0.76613045,0.7187668,0.41986188,0.6450968,0.34878665,0.30173257,-0.10160148,0.5523249,-0.092537135,-0.12325448,-0.51351553,0.12992711,778.46155,796.99634,803.8461,792.5641,857.8388,-0.0595703125,-0.05364990234375,1.00579833984375,2.332763671875,-5.42816162109375,-1.188812255859375,1,1.0,1.0,1.0,1.0,100.00
2021-04-26 22:38:46.011,0.9090046,1.0327674,0.84834397,0.5169737,0.4718646,0.5523017,0.50940627,0.4981661,0.80447733,0.58960396,0.3402712,0.72949064,0.4136109,0.31000343,-0.008152582,0.48840293,-0.07148256,-0.22701024,-0.45527044,0.14971949,767.1795,803.44324,806.26373,762.3443,709.15753,-0.05169677734375,-0.06964111328125,1.0040283203125,5.076751708984375,-5.585174560546875,-0.73272705078125,1,1.0,1.0,1.0,1.0,100.00
2021-04-26 22:38:46.522,0.6568511,0.59444106,0.40760967,0.48586452,-0.032640874,0.06709066,-0.15637615,0.39125806,0.4773129,0.18455087,0.07479468,0.67527026,0.35330778,0.21010439,-0.06451881,0.3750334,-0.105098695,-0.20033811,-0.46942556,0.15567131,808.2784,798.20514,810.696,807.0696,883.22345,-0.04229736328125,-0.05731201171875,1.00408935546875,5.973968505859375,-4.3963623046875,-2.325286865234375,1,1.0,1.0,1.0,1.0,100.00
2021-04-26 22:38:47.034,0.38598123,0.5213916,0.15504265,0.24712552,0.18607783,0.015845938,-0.2230254,0.36860946,0.47173858,0.2426602,0.12364906,0.6661206,0.24925575,0.1898348,-0.027593972,0.2619483,-0.25623044,-0.19224042,-0.40802833,-0.012711306,837.6923,810.696,806.6667,838.9011,851.79486,-0.04241943359375,-0.0550537109375,1.00457763671875,4.50103759765625,-4.807586669921875,0.605621337890625,1,1.0,1.0,1.0,1.0,100.00
2021-04-26 22:38:47.542,0.14447865,0.3226218,0.16200435,0.15813589,0.3325877,0.19226016,0.03765132,0.1496283,0.491106,0.42806855,0.16951981,0.52050173,0.31005678,0.07845657,0.024455102,0.23023424,-0.18688662,-0.16051824,-0.32656774,-0.12806967,846.55676,815.12823,792.1612,826.0073,911.8315,-0.02471923828125,-0.05120849609375,1.00152587890625,4.897308349609375,-4.732818603515625,0.478515625,1,1.0,1.0,1.0,1.0,100.00
2021-04-26 22:38:48.070,0.034910385,0.4360432,0.22974749,0.03967053,0.2525741,0.22300424,0.16309825,0.12791671,0.5438914,0.47617513,0.3027144,0.4078864,0.31690678,0.10956883,0.030576862,0.20233817,-0.2352293,-0.2527169,-0.38491535,-0.12447068,780.07324,799.41394,807.0696,787.326,707.1429,-0.0538330078125,-0.05224609375,0.9857177734375,7.828216552734375,-5.719757080078125,3.117828369140625,1,1.0,1.0,1.0,1.0,100.00
2021-04-26 22:38:48.595,0.38161185,0.5330683,0.30662414,0.4065192,0.2415023,0.2776405,0.21936409,0.15614755,0.58967555,0.46036923,0.30810344,0.62709546,0.3279463,0.20823601,0.011302434,0.26564956,-0.21297649,-0.2902971,-0.49185017,-0.12321374,780.4762,802.6374,800.2198,774.83514,730.10986,0.045654296875,-0.03582763671875,1.0030517578125,3.36456298828125,-3.671112060546875,-1.951446533203125,1,1.0,1.0,1.0,1.0,100.00
2021-04-26 22:38:49.104,0.52858114,0.8096558,0.5956542,0.48334128,0.23673029,0.32937774,0.1982336,0.24914612,0.58967555,0.3541413,0.31571794,0.6508591,0.24516547,0.2879848,-8.380207E-4,0.26955813,-0.25926068,-0.17256525,-0.62525666,-0.1273848,763.5531,782.8938,812.3077,774.83514,719.2308,0.0101318359375,-0.04473876953125,0.996826171875,4.80010986328125,-4.164581298828125,1.368255615234375,1,1.0,1.0,1.0,1.0,100.00
2021-04-26 22:38:49.619,0.5603739,0.896018,0.6350086,0.5334112,0.27405384,0.36841747,0.20438989,0.35359597,0.56258714,0.2965754,0.29330626,0.6508591,0.1528829,0.32597458,0.029897006,0.24067852,-0.23646656,-0.0976839,-0.465637,-0.22378582,751.4652,791.75824,819.9634,758.71796,756.7033,0.0135498046875,-0.02691650390625,1.00189208984375,2.093505859375,-0.441131591796875,-1.487884521484375,1,1.0,1.0,1.0,1.0,100.00
2021-04-26 22:38:50.128,0.45101604,0.984694,0.71949244,0.38258472,0.08597124,0.5204617,0.21661904,0.344596,0.44665393,0.35073265,0.3095423,0.43017203,0.07610374,0.3134067,-0.034218755,0.21857564,-0.27161017,-0.04280917,-0.36030436,-0.23493929,794.17584,807.47253,813.5165,807.8755,599.5604,0.0013427734375,-0.0355224609375,1.00738525390625,6.11602783203125,-9.94415283203125,7.289886474609375,1,1.0,1.0,1.0,1.0,100.00
2021-04-26 22:38:50.632,0.28309152,1.1063961,1.0270627,0.3091356,-0.20360246,0.5888742,0.29446784,0.25935414,0.4284833,0.36400142,0.4471114,0.35186055,-0.08498607,0.32336465,-0.018978221,0.22114995,-0.32761273,-0.07425708,-0.27635604,-0.23676695,758.71796,795.38464,805.8608,761.13556,631.39197,0.024658203125,0.0194091796875,0.9996337890625,6.332855224609375,-4.403839111328125,11.0955810546875,1,1.0,1.0,1.0,1.0,100.00
2021-04-26 22:38:51.146,0.28309152,1.0597954,1.0875064,0.3091356,-0.20360246,0.6423935,0.27155915,0.25935414,0.4284833,0.52719855,0.48876,0.35186055,-0.08498607,0.2238186,-0.060759164,0.22114995,-0.32761273,-0.081551015,-0.36840686,-0.23676695,805.05493,795.38464,798.60803,792.96704,755.4945,0.06475830078125,-0.0665283203125,0.9862060546875,10.52734375,2.594451904296875,13.7872314453125,1,1.0,1.0,1.0,1.0,100.00
2021-04-26 22:38:51.671,1.0204076,0.97044045,1.048195,0.7309788,0.61171424,0.51493245,0.19648923,0.62507457,0.7088488,0.5224924,0.47353318,0.52471745,0.06304869,0.10759377,-0.093878105,0.29098916,-0.30936408,-0.038922142,-0.5091298,-0.24989854,847.76556,811.9048,802.23444,824.7985,756.30035,0.03692626953125,0.055908203125,1.00048828125,6.519775390625,-4.26177978515625,2.938385009765625,1,1.0,1.0,1.0,1.0,100.00
2021-04-26 22:38:52.187,1.0865268,0.63674456,0.5260582,0.75947666,0.6343422,0.32880262,0.0024705275,0.7081844,0.7341564,0.51907474,0.13280132,0.6909301,0.15268303,0.10825979,-0.16667947,0.276633,-0.40854266,-0.10857735,-0.62231827,-0.3053538,846.55676,805.05493,809.89014,840.10986,1099.1941,0.05035400390625,0.02838134765625,0.99200439453125,2.97576904296875,-7.155303955078125,7.3272705078125,1,1.0,1.0,1.0,1.0,100.00
2021-04-26 22:38:52.697,0.9920785,0.54884106,0.3389445,0.7373868,0.51146275,0.2238425,0.0022891506,0.6189314,0.7279927,0.4383458,-0.04930738,0.6909301,0.17023198,0.14601716,-0.13102399,0.25765607,-0.40258875,-0.15608685,-0.521589,-0.24645273,757.9121,806.26373,805.8608,763.5531,618.0952,0.0655517578125,0.03143310546875,1.01507568359375,2.6019287109375,-6.512298583984375,4.74029541015625,1,1.0,1.0,1.0,1.0,100.00
2021-04-26 22:38:53.209,0.873746,0.41749677,0.30087033,0.6496129,0.37135255,0.14072919,-0.06829142,0.5013863,0.65185827,0.4268958,-0.021681964,0.6909301,0.2144108,0.17669044,-0.009771028,0.16290908,-0.45103806,-0.36038783,-0.43431726,-0.20603757,772.4176,796.1905,807.0696,763.95605,770.40295,0.0533447265625,-0.008544921875,1.00543212890625,4.0673828125,-4.254302978515625,-7.379608154296875,1,1.0,1.0,1.0,1.0,100.00
2021-04-26 22:38:53.717,0.5040786,0.36425284,0.28816405,0.47432858,0.008933041,0.043699823,-0.121798344,0.13171741,0.47769892,0.30221507,0.10326993,0.3076151,0.24237499,0.15190864,0.03467478,0.10532608,-0.45619494,-0.26667267,-0.4538373,-0.21946296,828.8278,809.0842,801.4286,834.0659,909.011,0.07476806640625,0.0443115234375,1.007568359375,7.85064697265625,-6.2506103515625,-14.542388916015625,1,1.0,1.0,1.0,1.0,100.00
2021-04-26 22:38:54.221,0.6548183,0.85988057,0.6917256,0.48064485,0.32823715,0.4306234,0.069037706,0.31321877,0.57971555,0.49763802,0.2228164,0.3088616,0.23432785,0.1270283,0.0416975,0.15659527,-0.4814149,-0.23189941,-0.552412,-0.13027062,846.55676,807.0696,798.60803,837.28937,786.9231,0.0528564453125,-0.0155029296875,0.9935302734375,0.605621337890625,-5.2337646484375,-5.973968505859375,1,1.0,1.0,1.0,1.0,100.00
2021-04-26 22:38:54.735,0.7834783,0.9387847,0.68058187,0.45266908,0.38757744,0.46563622,0.08252745,0.26680058,0.5440079,0.47594842,0.21794051,0.4377281,0.29143462,0.27150407,-0.09460205,0.224729,-0.35632455,-0.25113028,-0.58745956,-0.054614738,793.36993,807.47253,803.0403,798.20514,640.2564,0.06640625,-0.00860595703125,0.99578857421875,4.344024658203125,-3.880462646484375,-5.271148681640625,1,1.0,1.0,1.0,1.0,100.00
2021-04-26 22:38:55.248,0.70992285,0.9111251,0.625,0.41531393,0.2811545,0.4355822,0.029005444,0.2793488,0.54596096,0.5830733,0.2155625,0.44718626,0.23835926,0.3292486,-0.2090408,0.24071325,-0.24027795,-0.40300262,-0.53845835,-0.005534081,763.95605,796.5934,797.8022,762.3443,668.0586,0.0882568359375,0.01165771484375,1.0064697265625,6.093597412109375,-2.31781005859375,1.55517578125,1,1.0,1.0,1.0,1.0,100.00
2021-04-26 22:38:55.759,0.4835693,0.5277148,0.15145522,0.009659663,0.14074086,0.061856,-0.35352445,-0.0029987306,0.36933345,0.50346196,0.05619387,0.46718863,0.25037682,0.32394272,-0.20556717,0.2371284,-0.2718997,-0.30792475,-0.55913424,-0.04439524,858.6447,807.47253,802.23444,816.337,801.02563,0.13232421875,-0.01312255859375,0.9569091796875,6.736602783203125,-14.78912353515625,-8.47869873046875,1,1.0,1.0,1.0,1.0,100.00
2021-04-26 22:38:56.261,0.18099636,0.38465762,-0.16638231,-0.21276294,0.06724759,-0.038174625,-0.46455604,-0.0012037033,0.22127697,0.43410957,-0.06204024,0.47063476,0.198634,0.27582374,-0.1266984,0.35639384,-0.233438,-0.24342729,-0.6394433,0.04963051,788.93774,783.2967,804.65204,790.54944,685.78754,0.2515869140625,0.0355224609375,0.98583984375,3.671112060546875,-13.99658203125,-3.491668701171875,1,1.0,1.0,1.0,1.0,100.00
2021-04-26 22:38:56.784,0.19448724,0.64369136,-0.55209035,-0.14177471,0.098832175,0.088483244,-0.5885754,0.013200729,0.3535252,0.20791182,-0.067481056,0.44275767,0.3372736,0.29916087,-0.07336279,0.49831045,-0.24076414,-0.15114826,-0.6259365,0.10158545,760.7326,784.90845,802.6374,760.32965,643.47986,0.37603759765625,0.03485107421875,0.93487548828125,5.016937255859375,-13.23394775390625,-0.755157470703125,1,1.0,1.0,1.0,1.0,100.00
2021-04-26 22:38:57.310,0.21559492,0.678149,-0.54414827,-0.031378288,0.31297648,0.16495246,-0.3957072,0.059311908,0.56622386,0.37962568,0.12613992,0.54330444,0.44699535,0.2962408,-0.08642816,0.55002666,-0.1998801,-0.1857456,-0.6486464,0.03974102,798.20514,804.65204,792.96704,792.5641,732.52747,0.3663330078125,0.0308837890625,0.9298095703125,4.5458984375,-7.215118408203125,-0.471038818359375,1,1.0,1.0,1.0,1.0,100.00
2021-04-26 22:38:57.814,0.2734319,0.94671506,-0.46344775,0.049664985,0.35828415,0.29314694,-0.2577472,0.22447263,0.56622386,0.4007346,0.20814824,0.6240029,0.4750964,0.32103002,-0.048212368,0.56644034,-0.28585845,-0.13141549,-0.6100587,-0.21651718,783.69965,795.38464,809.4872,794.9817,940.4396,0.4046630859375,0.034423828125,0.92340087890625,3.566436767578125,-5.630035400390625,0.904693603515625,1,1.0,1.0,1.0,1.0,100.00
2021-04-26 22:38:58.328,0.56544924,0.9808154,-0.29184294,0.48105052,0.2997569,0.532658,-0.25092408,0.3208787,0.7268254,0.4419048,0.21169192,0.6961791,0.3437688,0.33873817,-0.05623947,0.47100082,-0.31842452,-0.19204105,-0.5531269,-0.15036796,834.0659,805.8608,798.20514,829.6337,797.3993,0.40606689453125,0.02880859375,0.91522216796875,3.81317138671875,-3.656158447265625,0.306549072265625,1,1.0,1.0,1.0,1.0,100.00
2021-04-26 22:38:58.837,0.56457925,1.2625688,-0.07075883,0.58278733,0.035141055,0.8564026,-0.06713024,0.27167085,0.71523595,0.5097821,0.11929572,0.66505724,0.18301763,0.39297378,-0.067576155,0.37647098,-0.38992584,-0.21018429,-0.47660384,-0.05021482,775.2381,803.0403,796.99634,780.4762,669.2674,0.39752197265625,0.02545166015625,0.92047119140625,5.5926513671875,-7.125396728515625,2.056121826171875,1,1.0,1.0,1.0,1.0,100.00
2021-04-26 22:38:59.341,0.5590733,1.2836137,0.10572344,0.57893604,-0.0141991135,0.9944659,-0.005888017,0.22735494,0.7185177,0.5097821,-0.008527484,0.54941577,0.1473378,0.38011944,-0.115534864,0.2896395,-0.35656148,-0.31368312,-0.47749296,-0.050144996,766.77655,803.44324,803.8461,773.22345,814.7253,0.41656494140625,0.02996826171875,0.91168212890625,5.75714111328125,-4.844970703125,3.51409912109375,1,1.0,1.0,1.0,1.0,100.00
2021-04-26 22:38:59.857,0.25364444,1.3491197,0.2678283,0.35607973,0.036526363,1.0032364,0.11549386,0.10558536,0.6977218,0.42109114,0.1125112,0.43485174,0.20704535,0.36416274,-0.13129245,0.35299948,-0.4014223,-0.24614207,-0.5723171,-0.12369033,857.03296,834.0659,810.293,845.34796,819.5604,0.42236328125,0.02056884765625,0.9034423828125,4.62066650390625,-7.65625,0.897216796875,1,1.0,1.0,1.0,1.0,100.00
2021-04-26 22:39:00.362,0.046618227,1.337701,0.56704843,0.050332576,0.002517627,0.9629679,0.27491483,0.14686374,0.113283634,0.3521896,0.1661914,0.17856362,0.274033,0.35774183,-0.09219443,0.44132486,-0.36388877,-0.19559994,-0.5456211,-0.21602648,857.4359,826.0073,807.0696,844.94507,911.4286,0.45587158203125,0.018798828125,0.89288330078125,4.478607177734375,-4.8150634765625,0.79254150390625,1,1.0,1.0,1.0,1.0,100.00
2021-04-26 22:39:00.879,0.1290054,1.337701,0.60656774,0.06952782,-0.07209771,0.9629679,0.2304961,0.1220825,-2.4595455E-4,0.3521896,0.1661914,0.14228612,0.28596443,0.35774183,-0.12783928,0.47609052,-0.3834329,-0.19559994,-0.5202385,-0.30870184,775.64105,805.4579,808.2784,783.2967,720.0366,0.454833984375,0.0062255859375,0.89208984375,3.087921142578125,-3.39447021484375,-0.530853271484375,1,1.0,1.0,1.0,1.0,100.00
2021-04-26 22:39:01.399,0.23708586,1.128629,0.5583613,0.06952782,-0.098737925,0.86675453,0.14720054,0.1220825,0.12520754,0.6945695,0.14576311,0.14228612,-0.08021245,0.33815202,-0.15742695,0.47609052,-0.4570699,-0.26641873,-0.45486796,-0.30870184,759.92676,817.1429,796.1905,757.1062,613.663,0.45489501953125,0.0068359375,0.89190673828125,4.47113037109375,-5.9814453125,0.59814453125,1,1.0,1.0,1.0,1.0,100.00
2021-04-26 22:39:01.908,0.3538915,1.0733827,0.24992041,0.421785,0.04729107,0.7738717,-0.34199354,0.2731747,0.20896564,0.7567833,-0.012698907,0.13169603,0.03275922,0.28781834,-0.15546045,0.3698264,-0.4532933,-0.2529046,-0.44764233,-0.14348695,794.57874,786.9231,799.011,780.4762,728.49817,0.46875,0.00238037109375,0.879150390625,2.699127197265625,-4.373931884765625,0.201873779296875,1,1.0,1.0,1.0,1.0,100.00
2021-04-26 22:39:02.419,0.2687919,1.0328348,0.06419498,0.30158424,0.05285851,0.86288536,-0.39162534,0.16660826,0.225918,0.7567833,0.019882135,0.18757132,0.028114738,0.28584397,-0.09602723,0.29105812,-0.3664036,-0.31794304,-0.44551346,-0.10799891,840.10986,792.1612,801.8315,830.4396,716.4103,0.47528076171875,0.00579833984375,0.8865966796875,4.306640625,-4.26177978515625,0.171966552734375,1,1.0,1.0,1.0,1.0,100.00
2021-04-26 22:39:02.930,0.24020159,0.89899844,-0.07222831,0.1933477,-7.4898096E-4,0.8045421,-0.4697017,0.09762417,0.21722622,0.7051837,-0.0063343346,0.25647536,0.03444329,0.27349013,-0.040839914,0.27910328,-0.38062295,-0.32994738,-0.42836884,-0.06819971,765.56775,811.50183,807.0696,757.50916,634.21246,0.47589111328125,0.0010986328125,0.88323974609375,2.983245849609375,-5.7122802734375,1.12152099609375,1,1.0,1.0,1.0,1.0,100.00
2021-04-26 22:39:03.450,0.080811255,0.863524,-0.1762607,-0.009482022,-0.09800506,0.81745446,-0.35951874,-0.1569221,-0.035301916,0.36603943,0.035652645,0.2923642,-0.021460135,0.270518,-0.010653681,0.20699602,-0.38131407,-0.3393821,-0.4578127,-0.0676961,805.05493,830.0366,797.3993,813.5165,698.68134,0.4854736328125,0.00885009765625,0.88482666015625,4.628143310546875,-9.398345947265625,2.5421142578125,1,1.0,1.0,1.0,1.0,100.00
2021-04-26 22:39:03.954,0.098751806,0.80932397,0.06132237,-0.010267629,-0.26540488,0.64603734,0.08288711,-0.2128246,-0.05348917,0.33204216,0.19728144,0.18874756,-0.05338679,0.26327053,-0.016528027,0.2574761,-0.5157525,-0.26730484,-0.4570182,-0.075771816,833.663,816.337,801.4286,829.6337,863.0769,0.5113525390625,0.00152587890625,0.8575439453125,4.987030029296875,-7.678680419921875,3.641204833984375,1,1.0,1.0,1.0,1.0,100.00
2021-04-26 22:39:04.482,0.03241573,0.93973476,0.41763467,0.15567747,-0.2347391,0.62381434,0.16052592,-0.27986398,-0.058224436,0.18677571,0.19728144,0.13573259,-0.060762957,0.21894433,-0.033871464,0.23407333,-0.60615736,-0.22938205,-0.48930618,-0.11095675,824.3956,842.52747,787.72894,820.7692,796.1905,0.5291748046875,0.00128173828125,0.84710693359375,6.287994384765625,-3.028106689453125,1.577606201171875,1,1.0,1.0,1.0,1.0,100.00
2021-04-26 22:39:04.985,0.2584114,0.93973476,0.5002147,-0.0742216,-0.35026354,0.62381434,0.2025514,0.34254885,-0.041539058,0.18677571,0.18313502,-0.064632,0.16188794,0.21894433,-0.08668626,0.24824943,-0.3468618,-0.22938205,-0.5123976,-0.08727209,840.5128,781.685,799.81683,836.8865,1163.2601,0.54205322265625,0.00457763671875,0.85009765625,6.018829345703125,-4.553375244140625,2.0635986328125,1,1.0,1.0,1.0,1.0,100.00
2021-04-26 22:39:05.496,0.3410113,0.93973476,0.49527064,0.45985684,-0.2441418,0.62381434,0.05622634,0.36560813,0.054884758,0.18677571,0.07317395,-0.061155938,0.05126417,0.21894433,-0.070912346,0.27690113,-0.27172163,-0.22938205,-0.53758097,0.012686372,773.6264,826.4103,802.23444,778.46155,702.71063,0.54583740234375,0.0081787109375,0.844970703125,1.21124267578125,-2.175750732421875,-1.016845703125,1,1.0,1.0,1.0,1.0,100.00
2021-04-26 22:39:06.034,0.28186676,0.93973476,0.28388897,0.5197232,-0.17834505,0.62381434,0.0075896066,0.2740697,0.054884758,0.18677571,0.21075843,0.11061052,0.091120705,0.21894433,-0.07836384,0.32253355,-0.31624374,-0.22938205,-0.61918163,0.022772528,773.6264,794.17584,805.05493,788.5348,763.95605,0.52728271484375,-0.02301025390625,0.8427734375,3.36456298828125,-6.83380126953125,2.332763671875,1,1.0,1.0,1.0,1.0,100.00
2021-04-26 22:39:06.554,0.19108663,0.93973476,0.28158656,0.5889325,-0.14847158,0.62381434,-0.024655413,0.24251886,0.0085771065,0.18677571,0.1988127,0.123425305,0.1474465,0.21894433,-0.048127808,0.3210724,-0.32129064,-0.22938205,-0.5411057,0.08323195,839.304,809.0842,797.8022,831.6484,904.17584,0.54119873046875,-0.00616455078125,0.84722900390625,3.6785888671875,-5.2935791015625,-0.55328369140625,1,1.0,1.0,1.0,1.0,100.00
2021-04-26 22:39:07.082,0.09863921,0.93973476,0.35340258,0.5532293,-0.059421208,0.62381434,-0.1867138,0.13325138,0.12530069,0.18677571,0.07596138,0.28072944,0.17193028,0.21894433,-0.056097686,0.32462183,-0.3614799,-0.22938205,-0.42257875,-0.019079199,815.9341,786.9231,802.6374,813.91943,674.5055,0.563720703125,-0.00567626953125,0.8343505859375,2.699127197265625,-3.94775390625,-0.082244873046875,1,1.0,1.0,1.0,1.0,100.00
2021-04-26 22:39:07.584,0.07109516,1.0828284,0.31928635,0.47304547,-0.019807631,0.9243105,-0.33599523,0.16326785,0.43554926,0.79374444,0.0030450728,0.36769772,0.15809351,0.36760408,-0.05438524,0.30223456,-0.3408344,-0.13326935,-0.41759273,-0.07125074,831.6484,775.64105,809.0842,827.619,794.57874,0.57501220703125,-0.02642822265625,0.830810546875,2.908477783203125,-6.243133544921875,-1.9140625,1,1.0,1.0,1.0,1.0,100.00
2021-04-26 22:39:08.089,0.0817101,1.0828284,0.25216913,0.42683733,0.007118834,0.9243105,-0.52150923,0.14854993,0.47961256,0.79374444,0.10448648,0.4471396,0.11516441,0.36760408,-0.14815116,0.28329253,-0.39537293,-0.13326935,-0.5652186,-0.20593822,778.86444,797.3993,799.81683,771.2088,727.28937,0.5421142578125,-0.0281982421875,0.8338623046875,3.850555419921875,-3.60382080078125,0.785064697265625,1,1.0,1.0,1.0,1.0,100.00
2021-04-26 22:39:08.602,-0.1187709,1.1319681,0.007687614,0.2745646,-0.005080853,0.988641,-0.31970155,0.18524007,0.52568656,0.75687623,0.15679128,0.60329133,0.15162113,0.341325,-0.16790643,0.3250985,-0.40751126,-0.12065251,-0.6742463,-0.12069067,826.4103,803.0403,801.02563,818.7546,785.7143,0.5606689453125,-0.0081787109375,0.83453369140625,4.792633056640625,-4.65057373046875,2.31781005859375,1,1.0,1.0,1.0,1.0,100.00
2021-04-26 22:39:09.108,-0.15676022,1.1319681,0.18458438,0.12084724,0.08097161,0.988641,-0.07440274,0.19585094,0.5349889,0.75687623,0.15116252,0.6046834,0.12459742,0.341325,-0.21014033,0.36264253,-0.38990998,-0.12065251,-0.60373515,-0.09649391,828.022,804.65204,808.2784,835.6777,858.24176,0.56097412109375,-0.00146484375,0.83648681640625,5.0543212890625,-3.09539794921875,1.443023681640625,1,1.0,1.0,1.0,1.0,100.00
2021-04-26 22:39:09.613,-0.106386095,1.1319681,0.18261357,-0.02436849,0.2296103,0.988641,-0.031744666,0.19917412,0.40431046,0.75687623,0.116666846,0.7655842,0.13015158,0.341325,-0.088121004,0.39769834,-0.24422124,-0.12065251,-0.47591949,-0.09556487,790.54944,824.3956,798.60803,796.99634,687.8022,0.50860595703125,-0.085693359375,0.82098388671875,3.192596435546875,-5.24871826171875,2.85614013671875,1,1.0,1.0,1.0,1.0,100.00
2021-04-26 22:39:10.129,0.041405715,1.1319681,0.18438728,-0.010152467,0.23348707,0.988641,-0.1330846,0.17538494,0.4550795,0.75687623,0.17829682,0.7039813,0.17057854,0.341325,-0.050761495,0.37860894,-0.19936833,-0.12065251,-0.4960999,-0.15717842,762.74725,797.8022,803.0403,772.01465,660.40295,0.52947998046875,-0.058349609375,0.8460693359375,5.854339599609375,-3.386993408203125,1.57012939453125,1,1.0,1.0,1.0,1.0,100.00
2021-04-26 22:39:10.649,0.051755182,0.7669513,0.010658863,0.08787455,0.18960135,0.3691808,-0.31227767,0.13222408,0.4455704,0.31006297,0.09655537,0.65268785,0.21784282,0.26716018,-0.04010789,0.29979777,-0.20464754,-0.09169144,-0.54762554,-0.13682808,803.8461,794.9817,802.6374,801.02563,799.41394,0.55230712890625,-0.0623779296875,0.84881591796875,5.27862548828125,-5.38330078125,2.280426025390625,1,1.0,1.0,1.0,1.0,100.00
2021-04-26 22:39:11.150,0.06583248,0.6925726,-0.07060885,0.2296969,0.034654487,0.32073283,-0.25176296,0.03634483,0.40811613,0.37808147,0.013798168,0.514168,0.20659564,0.21585834,-0.12037699,0.31954095,-0.31459966,-0.113267295,-0.6099458,-0.036699183,835.2747,793.36993,801.4286,838.9011,853.4066,0.53369140625,-0.05596923828125,0.85052490234375,5.091705322265625,-4.964599609375,1.55517578125,1,1.0,1.0,1.0,1.0,100.00
2021-04-26 22:39:11.654,-0.039519012,0.6542387,-0.3161041,0.21065308,0.009838307,0.32753727,-0.1829155,-0.14363578,0.18981224,0.3368938,-0.04234161,0.246222,0.23341519,0.2115739,-0.13213778,0.32506,-0.3318839,-0.12825996,-0.5282234,0.07107208,807.8755,784.90845,808.2784,817.5458,749.45056,0.54034423828125,-0.0406494140625,0.847412109375,5.27862548828125,-4.56085205078125,2.52716064453125,1,1.0,1.0,1.0,1.0,90.00
2021-04-26 22:39:12.179,-0.09343173,0.55615705,-0.23393857,0.18162535,-0.06773131,0.25682238,-0.07054123,-0.27046674,0.13238892,0.29180056,-0.043622773,0.117878325,0.24906342,0.12575886,-0.14290221,0.37489247,-0.34781018,-0.13457948,-0.4834503,0.036011264,864.2857,836.8865,802.23444,857.8388,753.47986,0.53924560546875,-0.04998779296875,0.850830078125,4.717864990234375,-4.104766845703125,1.54022216796875,1,1.0,1.0,1.0,1.0,90.00
2021-04-26 22:39:12.687,-0.1578189,0.55615705,-0.12225658,0.0056790337,-0.08885763,0.25682238,0.11204273,-0.2464478,0.12913711,0.29180056,0.21278892,0.10273213,0.28999135,0.12575886,-0.15274131,0.3685542,-0.3011043,-0.13457948,-0.4444573,0.018363997,835.2747,814.3223,802.23444,848.97437,778.46155,0.54180908203125,-0.0377197265625,0.8463134765625,5.3533935546875,-4.194488525390625,1.42059326171875,1,1.0,1.0,1.0,1.0,90.00
2021-04-26 22:39:13.210,-0.1352776,0.55615705,-0.05095515,0.030895045,-0.27925655,0.25682238,0.1368664,-0.17592366,0.04848156,0.29180056,0.19738102,0.07864931,0.26206008,0.12575886,-0.2079254,0.2695857,-0.35365388,-0.13457948,-0.44821307,-0.19354342,819.9634,803.8461,794.57874,813.1135,759.12085,0.54571533203125,-0.06597900390625,0.83184814453125,5.0244140625,-4.807586669921875,0.441131591796875,1,1.0,1.0,1.0,1.0,90.00
2021-04-26 22:39:13.716,-0.1352776,0.55615705,-0.1276195,0.6051858,-0.27925655,0.25682238,0.036283325,-0.5583943,0.04848156,0.29180056,0.19738102,0.109964445,0.26206008,0.12575886,-0.19971068,0.28017327,-0.35365388,-0.13457948,-0.44278213,-0.088579744,823.5897,806.6667,793.7729,827.2161,770.80585,0.54547119140625,-0.06219482421875,0.83990478515625,4.089813232421875,-4.224395751953125,0.456085205078125,1,1.0,1.0,1.0,1.0,90.00
2021-04-26 22:39:14.237,0.13564418,0.29732797,-0.1651522,0.3708951,-0.3623032,0.023923937,-0.2087521,-0.33813486,0.030260345,0.11697629,0.04789158,0.18688872,0.046846382,0.4031834,-0.13562204,0.29926246,-0.39417726,-0.35150152,-0.43102232,-0.012724959,781.685,806.6667,810.293,784.10254,631.39197,0.551025390625,-0.0604248046875,0.83306884765625,5.18890380859375,-4.59075927734375,1.323394775390625,1,1.0,1.0,1.0,1.0,90.00
2021-04-26 22:39:14.738,0.03482657,0.2953194,-0.110874586,0.25717074,-0.23955932,0.078334756,-0.29522747,-0.20606536,0.3612251,0.24843761,-0.10453372,0.23326494,0.19015689,0.34571072,-0.05570727,0.39636874,-0.39112854,-0.33807817,-0.4738674,0.0040500723,783.2967,796.5934,806.26373,786.9231,648.71796,0.54541015625,-0.0521240234375,0.84539794921875,4.553375244140625,-4.015045166015625,0.605621337890625,1,1.0,1.0,1.0,1.0,90.00
2021-04-26 22:39:15.256,-0.09560146,0.3229554,-0.10491932,0.09511716,-0.16295403,0.15265152,-0.28080902,-0.009255936,0.43213513,0.24843761,-0.13816193,0.31091624,0.15607889,0.3106169,-0.041425493,0.4675045,-0.4013965,-0.31700635,-0.46091324,0.005615394,835.2747,813.91943,799.011,826.4103,767.5824,0.5318603515625,-0.05487060546875,0.8443603515625,4.254302978515625,-5.869293212890625,1.734619140625,1,1.0,1.0,1.0,1.0,90.00
2021-04-26 22:39:15.765,-0.09496685,0.23301995,-0.06747665,0.20705576,-0.09046891,0.22758615,-0.435714,-0.0077529233,0.44471705,0.11868798,-0.26828042,0.36411715,0.15800302,0.21403521,-0.06714265,0.4812466,-0.41263086,-0.25340205,-0.5082705,-0.0031579155,786.1172,799.81683,801.8315,792.1612,679.7436,0.53900146484375,-0.05462646484375,0.843017578125,4.702911376953125,-3.342132568359375,6.02630615234375,1,1.0,1.0,1.0,1.0,90.00
2021-04-26 22:39:16.289,-0.09573482,0.20430103,-0.11845746,0.24766837,-0.0035969028,0.3003206,-0.4874807,0.056778695,0.30486006,0.14265797,-0.14768432,0.4023528,0.0014643447,0.23582165,-0.041986324,0.4235307,-0.42282674,-0.23245738,-0.51584196,-0.04412137,770.40295,795.78754,798.20514,770.80585,686.99634,0.52374267578125,-0.077880859375,0.852783203125,5.091705322265625,-6.811370849609375,0.7476806640625,1,1.0,1.0,1.0,1.0,90.00
2021-04-26 22:39:16.809,0.12650666,0.32027286,-0.16516188,0.1775145,0.06775395,0.5673978,-0.284698,-0.038475417,0.28001195,0.43174496,-0.13499859,0.34567106,-0.01939811,0.32987836,0.0809373,0.32168704,-0.3804106,-0.13886808,-0.6038225,0.018530773,776.04395,801.02563,801.8315,769.59705,642.27106,0.53662109375,-0.06622314453125,0.8394775390625,4.119720458984375,-5.78704833984375,0.381317138671875,1,1.0,1.0,1.0,1.0,90.00
2021-04-26 22:39:17.320,0.07278576,0.7043668,-0.26562366,0.052707862,0.13799961,0.67998344,-0.27884552,-0.021212336,0.19657409,0.5269429,-0.18664244,0.32506686,0.12850206,0.36511832,0.115075596,0.31637624,-0.3742075,-0.17820325,-0.60509086,-0.0087582795,788.5348,793.36993,805.4579,770.80585,672.0879,0.53314208984375,-0.06488037109375,0.84808349609375,5.106658935546875,-3.671112060546875,-0.560760498046875,1,1.0,1.0,1.0,1.0,90.00
2021-04-26 22:39:17.832,0.073221266,0.9150305,-0.29996288,0.045857485,0.21331233,0.76593673,-0.31613767,-0.06067807,0.16559719,0.59797657,-0.06758436,0.18124343,0.20275873,0.35783544,0.05643723,0.27607352,-0.3865691,-0.16892274,-0.5244995,-0.021321228,775.2381,766.3736,812.3077,771.6117,767.1795,0.54705810546875,-0.0748291015625,0.8482666015625,4.80010986328125,-5.81695556640625,0.22430419921875,1,1.0,1.0,1.0,1.0,90.00
2021-04-26 22:39:18.338,-0.0786351,1.0713744,0.1612215,0.039771613,0.26015824,0.68027794,-0.06554757,-0.04700938,-0.053111553,0.51910716,5.640392E-4,0.16660292,0.28479314,0.30066565,0.03247676,0.26495194,-0.4191766,-0.3306357,-0.38521647,-0.11943034,778.0586,811.0989,795.38464,773.22345,584.65204,0.5357666015625,-0.0693359375,0.84857177734375,3.028106689453125,-3.7384033203125,2.534637451171875,1,1.0,1.0,1.0,1.0,90.00
2021-04-26 22:39:18.852,-0.14158644,1.1564894,0.57745624,0.18080506,0.35038927,0.5664349,0.2665294,0.11810496,-0.18980722,0.42713627,0.17238624,-0.33333054,0.1954525,0.26068056,0.01574757,0.2077732,-0.34091553,-0.3655478,-0.37224174,-0.11391798,645.09155,727.6923,800.6227,633.00366,685.38464,0.539794921875,-0.08551025390625,0.8560791015625,5.54779052734375,-3.94775390625,0.500946044921875,1,1.0,1.0,1.0,1.0,90.00
2021-04-26 22:39:19.361,-0.14158644,1.1564894,0.62595797,0.18080506,0.35038927,0.5664349,0.35581324,0.11810496,-0.18980722,0.42713627,0.17238624,-0.33333054,0.1954525,0.26068056,0.09583354,0.2077732,-0.34091553,-0.3655478,-0.39032167,-0.11391798,832.0513,805.05493,794.17584,824.3956,870.32965,0.525390625,-0.06439208984375,0.85858154296875,3.48419189453125,-2.474822998046875,-1.83929443359375,1,1.0,1.0,1.0,1.0,90.00
2021-04-26 22:39:19.874,-0.14158644,1.1564894,0.59045875,0.18080506,0.35038927,0.5664349,0.34257674,0.11810496,-0.18980722,0.42713627,0.17238624,-0.33333054,0.1954525,0.26068056,0.037125546,0.2077732,-0.34091553,-0.3655478,-0.37060362,-0.11391798,836.8865,823.5897,796.1905,841.31866,734.1392,0.4854736328125,-0.03814697265625,0.8330078125,4.553375244140625,3.887939453125,-1.86920166015625,1,1.0,1.0,1.0,1.0,90.00
2021-04-26 22:39:20.387,-0.14158644,1.1564894,0.23037957,0.18080506,0.35038927,0.5664349,0.16863231,0.11810496,-0.18980722,0.42713627,-0.26757163,-0.33333054,0.1954525,0.26068056,0.08500604,0.2077732,-0.34091553,-0.3655478,-0.3505952,-0.11391798,788.5348,807.8755,792.96704,792.5641,715.2015,0.4600830078125,-0.0225830078125,0.88543701171875,4.538421630859375,-4.702911376953125,0.246734619140625,1,1.0,1.0,1.0,1.0,90.00
2021-04-26 22:39:20.890,0.18843965,1.1564894,0.13080122,0.3576604,-0.3928611,0.5664349,0.08704307,-0.068830475,0.2159266,0.42713627,-0.055262357,0.4295498,0.26453766,0.26068056,0.04601325,0.22961903,-0.32647964,-0.3655478,-0.30936465,-0.39970806,769.59705,809.89014,802.6374,768.3883,616.4835,0.46893310546875,-0.0010986328125,0.897216796875,6.3104248046875,-3.058013916015625,-3.78326416015625,1,1.0,1.0,1.0,1.0,90.00
2021-04-26 22:39:21.393,0.29407388,1.1564894,0.0925367,0.2924238,-0.31825957,0.5664349,-0.00772402,-0.049304437,0.21748972,0.42713627,-0.035439286,0.43581837,0.24119508,0.26068056,0.06114883,0.2403095,-0.43183586,-0.3655478,-0.37375066,-0.42309198,805.8608,803.8461,793.7729,801.4286,779.2674,0.4537353515625,-0.0018310546875,0.8985595703125,3.96270751953125,-6.512298583984375,0.560760498046875,1,1.0,1.0,1.0,1.0,90.00
2021-04-26 22:39:21.907,0.18216972,0.5007798,0.15656964,0.15539029,-0.24332419,0.44785348,0.0019061131,0.024453487,0.2159204,0.4001818,-0.008982283,0.4027172,0.2098109,0.21893845,-0.0559386,0.21551608,-0.39465445,-0.10701409,-0.44861963,-0.37170622,749.85345,774.83514,808.2784,745.42126,697.8755,0.4981689453125,0.02459716796875,0.88018798828125,6.960906982421875,-5.659942626953125,-0.097198486328125,1,1.0,1.0,1.0,1.0,100.00
2021-04-26 22:39:22.413,0.2346336,0.8023491,0.48108917,0.15865843,-0.16385889,0.5600592,0.13450328,0.07732644,-0.021848714,0.48120403,0.29114556,0.25849214,0.19046144,0.16333571,-0.097153656,0.18186598,-0.424348,-0.072819896,-0.53014636,-0.3442209,771.6117,806.26373,803.0403,772.4176,700.293,0.4820556640625,0.0087890625,0.87139892578125,6.138458251953125,-5.435638427734375,1.30096435546875,1,1.0,1.0,1.0,1.0,100.00
2021-04-26 22:39:22.923,-0.060602795,0.8023491,0.7329363,0.15524188,-0.10530491,0.5600592,0.34248516,0.15663946,-0.19453943,0.48120403,0.27864188,0.1662937,0.17407444,0.16333571,0.017984629,0.091125324,-0.27980784,-0.072819896,-0.54776734,-0.25084016,813.91943,801.02563,803.0403,812.3077,886.04395,0.49853515625,0.02838134765625,0.88092041015625,5.0543212890625,-6.557159423828125,1.248626708984375,1,1.0,1.0,1.0,1.0,100.00
