TimeStamp,Delta_TP9,Delta_AF7,Delta_AF8,Delta_TP10,Theta_TP9,Theta_AF7,Theta_AF8,Theta_TP10,Alpha_TP9,Alpha_AF7,Alpha_AF8,Alpha_TP10,Beta_TP9,Beta_AF7,Beta_AF8,Beta_TP10,Gamma_TP9,Gamma_AF7,Gamma_AF8,Gamma_TP10,RAW_TP9,RAW_AF7,RAW_AF8,RAW_TP10,AUX_RIGHT,Accelerometer_X,Accelerometer_Y,Accelerometer_Z,Gyro_X,Gyro_Y,Gyro_Z,HeadBandOn,HSI_TP9,HSI_AF7,HSI_AF8,HSI_TP10,Battery,Elements
2021-04-09 22:37:36.136,0.88142306,0.6080557,0.7857233,0.7785739,0.6192628,0.58075327,0.86113435,0.69181263,0.8849655,0.08330491,0.7055744,0.3904976,0.5443716,0.03628687,0.24929038,0.3192833,0.43331748,-0.4347912,-0.09026205,-0.009774928,840.9158,1236.1904,783.2967,826.8132,732.52747,0.78173828125,0.03936767578125,0.62933349609375,4.50103759765625,-4.463653564453125,0.590667724609375,1,1.0,4.0,1.0,1.0,35.00
2021-04-09 22:37:36.657,0.34191138,0.6080557,1.0222355,0.47304,0.51368165,0.58075327,0.9956749,0.5038812,0.44613123,0.08330491,0.7344991,0.21990599,0.48007843,0.03628687,0.2948112,0.19787353,0.46795455,-0.4347912,0.10329641,0.032922532,823.9927,394.8718,817.5458,811.0989,991.2088,0.78045654296875,0.04925537109375,0.64111328125,3.050537109375,0.859832763671875,0.58319091796875,1,1.0,4.0,1.0,1.0,35.00
2021-04-09 22:37:37.166,0.45902458,0.6080557,1.081763,0.47304,0.33054343,0.58075327,1.139049,0.5038812,0.48025665,0.08330491,0.7344991,0.21990599,0.64853084,0.03628687,0.33370247,0.19787353,0.26020816,-0.4347912,0.21326457,0.032922532,784.10254,273.99268,801.8315,808.68134,689.011,0.7257080078125,0.04510498046875,0.7042236328125,2.041168212890625,7.170257568359375,2.930908203125,1,1.0,4.0,1.0,1.0,35.00
2021-04-09 22:37:37.679,0.5031936,0.6080557,1.0232387,0.6975469,0.22906098,0.58075327,0.70111877,0.12127454,0.49374118,0.08330491,0.6081792,0.42185843,0.68335706,0.03628687,0.26283824,0.20773809,0.3976616,-0.4347912,0.10731762,0.020961951,802.23444,333.22345,834.4689,814.7253,651.53845,0.58990478515625,0.02490234375,0.78466796875,0.8673095703125,6.89361572265625,-11.342315673828125,1,1.0,4.0,1.0,1.0,40.00
2021-04-09 22:37:38.204,0.5031936,0.6080557,0.8859616,0.6980052,0.22906098,0.58075327,0.30898312,0.14595543,0.49374118,0.08330491,0.29343036,0.42185843,0.68335706,0.03628687,0.2370834,0.21383959,0.3976616,-0.4347912,-0.15130186,0.020414805,805.05493,1005.31134,843.73627,825.6044,831.6484,0.53240966796875,-0.07220458984375,0.769287109375,-5.24871826171875,-2.773895263671875,-10.4974365234375,1,1.0,4.0,1.0,1.0,40.00
2021-04-09 22:37:38.706,0.5432824,0.6080557,0.8859616,0.66310316,0.096392855,0.58075327,0.30898312,0.2245937,0.43601134,0.08330491,0.29343036,0.35331714,0.7155966,0.03628687,0.2370834,0.2139193,0.5019109,-0.4347912,-0.15130186,-0.09352427,809.0842,39.48718,855.42126,811.50183,835.6777,0.524169921875,-0.0013427734375,0.84393310546875,4.725341796875,-4.26177978515625,-6.108551025390625,1,1.0,4.0,1.0,1.0,40.00
2021-04-09 22:37:39.217,0.5432824,0.6080557,1.3818989,0.6052604,0.096392855,0.58075327,0.34685576,0.273145,0.43601134,0.08330491,0.5009591,0.17538714,0.7155966,0.03628687,0.15042587,0.2431469,0.5019109,-0.4347912,-0.15647547,-0.093688846,808.2784,751.8681,836.08057,803.8461,796.99634,0.56060791015625,-0.03680419921875,0.82635498046875,5.151519775390625,-2.654266357421875,8.3441162109375,1,1.0,4.0,1.0,1.0,40.00
2021-04-09 22:37:39.724,0.97451454,0.6080557,1.3696642,0.9332975,0.40390554,0.58075327,0.52703345,0.5179095,0.17982636,0.08330491,0.41322127,0.6452328,0.5261193,0.03628687,0.14857984,0.9759605,0.2493407,-0.4347912,-0.2796369,0.40678585,808.68134,501.24542,827.2161,816.7399,746.63007,0.52618408203125,-0.0687255859375,0.88336181640625,5.151519775390625,22.98370361328125,21.17431640625,1,1.0,4.0,1.0,1.0,40.00
2021-04-09 22:37:40.237,0.95552737,0.6080557,1.3647604,0.9527622,0.3457506,0.58075327,0.5367749,0.529908,0.56130284,0.08330491,0.57238126,0.6452328,0.525786,0.03628687,0.11124682,0.9247271,0.14642867,-0.4347912,-0.27824593,0.46195057,790.14655,1625.0183,957.3626,784.5055,733.3333,0.16168212890625,-0.0107421875,0.919189453125,18.19854736328125,11.065673828125,-10.3179931640625,1,1.0,4.0,1.0,1.0,40.00
2021-04-09 22:37:41.757,0.8557266,0.6080557,1.3706133,0.92434853,0.19830653,0.58075327,0.5067589,0.4435242,0.5783519,0.08330491,0.5061303,0.31485596,0.4552126,0.03628687,-0.002574397,0.6701801,0.05875239,-0.4347912,-0.26853144,0.5084242,806.26373,709.5604,824.3956,802.6374,620.9158,0.1395263671875,-0.06658935546875,0.97467041015625,14.78912353515625,9.592742919921875,7.61138916015625,1,1.0,2.0,1.0,1.0,40.00
2021-04-09 22:37:42.260,1.7026372,0.6080557,1.3706133,0.92434853,1.0623988,0.58075327,0.5067589,0.4435242,1.0450683,0.08330491,0.5061303,0.31485596,0.5015624,0.03628687,-0.002574397,0.6701801,-0.13975638,-0.4347912,-0.26853144,0.5084242,821.978,336.04395,846.55676,828.022,852.1978,-0.100341796875,0.0369873046875,0.99066162109375,3.6785888671875,11.581573486328125,-1.5252685546875,1,1.0,2.0,1.0,1.0,40.00
2021-04-09 22:37:42.794,1.6240824,0.6080557,1.1395367,1.143523,0.9821503,0.58075327,0.71425194,0.7815912,1.0450683,0.08330491,0.532911,0.915481,0.45890978,0.03628687,-0.032767758,0.57074386,-0.08816301,-0.4347912,-0.3130913,0.10483592,814.7253,643.0769,854.61536,821.1722,697.8755,-0.09722900390625,-0.01995849609375,0.98992919921875,3.536529541015625,1.95892333984375,2.953338623046875,1,1.0,1.0,1.0,1.0,40.00
2021-04-09 22:37:43.300,1.5005318,0.6080557,1.0805017,1.1365912,0.7941363,0.58075327,0.61878026,0.7422237,1.0471512,0.08330491,0.5715297,0.915481,0.36271876,0.03628687,0.028117543,0.5328358,-0.16347481,-0.4347912,-0.3548312,0.07879127,809.4872,657.98535,823.5897,811.0989,678.5348,0.00836181640625,0.0550537109375,0.9752197265625,1.801910400390625,-9.3310546875,13.02459716796875,1,1.0,1.0,1.0,1.0,40.00
2021-04-09 22:37:43.826,1.1407301,0.6080557,1.000127,0.9485994,0.66095537,0.58075327,0.28701496,0.72978544,0.8670364,0.08330491,0.4996338,0.60765797,0.28106746,0.03628687,0.034714833,0.28482628,-0.20981558,-0.4347912,-0.3893498,-0.0764206,805.05493,770.80585,861.4652,806.6667,786.52014,-0.15008544921875,-0.02435302734375,1.0103759765625,1.55517578125,1.51031494140625,13.1591796875,1,1.0,1.0,1.0,1.0,40.00
2021-04-09 22:37:44.336,0.88053006,0.6080557,1.1459368,0.6720194,0.8101484,0.58075327,0.28781855,0.8319069,0.7779697,0.08330491,0.59244955,0.45500803,0.36600128,0.03628687,0.06484673,0.14263938,-0.18446319,-0.4347912,-0.4529574,-0.08490395,806.6667,698.2784,826.4103,808.2784,760.32965,-0.0906982421875,-0.0087890625,1.00946044921875,1.1065673828125,-7.70111083984375,10.108642578125,1,1.0,1.0,1.0,1.0,40.00
2021-04-09 22:37:44.859,0.97089297,0.6080557,1.1915177,0.5345113,0.89234173,0.58075327,0.29308006,0.80755574,0.9343998,0.08330491,0.5827124,0.73943037,0.4177625,0.03628687,-0.020644234,0.18461375,-0.06497594,-0.4347912,-0.4638416,-0.14890587,812.3077,780.07324,821.978,816.337,893.69965,-0.0811767578125,-3.0517578125E-4,1.0140380859375,-3.21502685546875,-5.196380615234375,7.170257568359375,1,1.0,1.0,1.0,1.0,40.00
2021-04-09 22:37:45.362,0.9763906,0.6080557,1.1371471,0.44511646,0.76470107,0.58075327,0.3169991,0.60555196,0.9343998,0.08330491,0.58021444,0.71353114,0.40528768,0.03628687,-0.026311953,0.17726074,0.026090736,-0.4347912,-0.503621,-0.15518849,808.68134,801.02563,809.4872,808.2784,829.2308,-0.05572509765625,-0.0322265625,1.01031494140625,4.867401123046875,-7.559051513671875,-1.854248046875,1,1.0,1.0,1.0,1.0,40.00
2021-04-09 22:37:45.866,0.9358697,0.6080557,0.9527258,0.3029801,0.5545468,0.58075327,0.253607,0.3156729,0.9343998,0.08330491,0.49849057,0.72234356,0.31994903,0.03628687,-0.04548353,0.09858706,-0.008689788,-0.4347912,-0.5066068,-0.1804448,782.8938,778.0586,802.6374,796.99634,848.5714,-0.02093505859375,-0.005126953125,1.00506591796875,6.89361572265625,-16.187286376953125,-9.45068359375,1,1.0,1.0,1.0,1.0,40.00
2021-04-09 22:37:46.368,0.70975715,0.6080557,0.53653735,0.2761083,0.53026897,0.58075327,0.22021817,0.2752972,0.8516531,0.08330491,0.3521251,0.7119503,0.26884413,0.03628687,-0.011952597,-0.029387927,-0.10779674,-0.4347912,-0.5994843,-0.14044921,831.2454,790.54944,821.1722,830.0366,851.79486,0.0626220703125,0.00103759765625,0.99346923828125,9.34600830078125,-17.82470703125,-9.667510986328125,1,1.0,1.0,1.0,1.0,40.00
2021-04-09 22:37:46.887,1.0157595,0.6080557,0.567523,0.7232695,1.0211716,0.58075327,0.35248876,0.80001336,0.94567657,0.08330491,0.48489574,0.81220293,0.26912576,0.03628687,0.042068597,0.105171934,-0.22952892,-0.4347912,-0.6779746,-0.11318646,817.1429,820.3663,810.293,801.4286,787.326,0.1580810546875,0.03424072265625,0.99713134765625,6.878662109375,-3.401947021484375,-0.76263427734375,1,1.0,1.0,1.0,1.0,40.00
2021-04-09 22:37:47.404,1.1645838,0.6080557,0.85460687,0.900591,1.2146039,0.58075327,0.3551318,0.97219,0.99257284,0.08330491,0.48889303,0.7320501,0.30310947,0.03628687,0.04606052,0.23723745,-0.16355479,-0.4347912,-0.6290071,-0.1376093,798.60803,808.68134,806.26373,807.0696,626.9597,0.1312255859375,0.0220947265625,0.9998779296875,4.6954345703125,3.18511962890625,12.99468994140625,1,1.0,1.0,1.0,1.0,40.00
2021-04-09 22:37:47.910,1.1524062,0.6080557,1.1376576,1.009441,1.3159423,0.58075327,0.38849878,1.0774169,0.97736865,0.08330491,0.44794306,0.65017056,0.2689864,0.03628687,0.0401075,0.33491653,-0.09330808,-0.4347912,-0.43231758,-0.19333817,821.978,785.31134,812.71063,829.2308,995.2381,-0.00921630859375,0.08746337890625,1.00189208984375,2.415008544921875,8.9422607421875,27.761383056640625,1,1.0,1.0,1.0,1.0,35.00
2021-04-09 22:37:48.427,0.93565893,0.6080557,1.1182613,0.9316622,1.2556545,0.58075327,0.34227076,1.0244834,0.86067367,0.08330491,0.10730343,0.577105,0.23853704,0.03628687,-0.05553624,0.34153265,-0.039496835,-0.4347912,-0.4248498,-0.23142295,827.2161,806.26373,809.89014,809.89014,795.38464,-0.05328369140625,0.12371826171875,0.998291015625,9.188995361328125,-7.394561767578125,19.4097900390625,1,1.0,1.0,1.0,1.0,35.00
2021-04-09 22:37:48.940,1.2126899,0.7402311,1.0119618,1.2630895,1.041367,0.37813404,0.3293268,1.1949998,0.973024,0.5939068,0.06336203,0.7408567,0.29527402,0.2413234,-0.14175415,0.39090574,-0.16621135,0.2408967,-0.4731837,-0.1698523,832.4542,752.27106,801.02563,828.022,766.77655,-0.10888671875,0.18804931640625,1.01019287109375,7.304840087890625,1.801910400390625,33.0474853515625,1,1.0,1.0,1.0,1.0,35.00
2021-04-09 22:37:49.469,1.1710637,0.7402311,0.35795936,1.210593,1.0042717,0.37813404,0.21589297,1.045855,1.0808668,0.5939068,0.33729193,0.865794,0.36789358,0.2413234,-0.17619057,0.32559997,-0.049509034,0.2408967,-0.5623792,-0.22403446,798.60803,767.5824,799.011,781.685,754.2857,0.003173828125,0.164306640625,0.98846435546875,10.385284423828125,-5.929107666015625,30.086669921875,1,1.0,1.0,1.0,1.0,35.00
2021-04-09 22:37:49.995,1.1608516,0.7339603,0.25836354,1.2157383,0.95428747,0.37985998,0.27087963,0.9901537,1.1095482,0.5939068,0.35933527,0.865794,0.48875013,0.23252524,-0.06171262,0.37287745,0.05069492,0.2529932,-0.5099366,-0.27866095,821.978,713.5897,802.23444,814.7253,660.40295,-0.0767822265625,0.178955078125,0.959228515625,6.841278076171875,-0.336456298828125,-6.273040771484375,1,1.0,1.0,1.0,1.0,35.00
2021-04-09 22:37:51.047,1.0203431,0.7339603,0.37503505,1.1405671,0.68001205,0.37985998,0.33184728,0.7491157,1.0901685,0.5939068,0.30651152,0.6259023,0.6066336,0.23252524,0.012769953,0.46202448,0.096244596,0.2529932,-0.5382722,-0.35871315,817.5458,456.52014,819.15753,832.0513,903.36993,-0.22406005859375,0.1318359375,1.00830078125,-5.3533935546875,10.848846435546875,-0.037384033203125,1,1.0,1.0,1.0,1.0,35.00
2021-04-09 22:37:51.573,0.95205873,0.7339603,0.41309544,1.1309079,0.3734342,0.37985998,0.12348331,0.713337,1.0645175,0.5939068,0.24336854,0.5475185,0.57871526,0.23252524,-0.041975297,0.46465546,-0.066883005,0.2529932,-0.6721482,-0.3839394,796.1905,550.40295,825.2015,805.8608,760.32965,-0.23199462890625,0.12725830078125,1.0185546875,-0.276641845703125,-14.706878662109375,16.142425537109375,1,1.0,1.0,1.0,1.0,35.00
2021-04-09 22:37:52.101,0.95205873,0.7339603,0.8114407,1.1309079,0.3734342,0.37985998,0.19433637,0.713337,1.0645175,0.5939068,0.24761294,0.5475185,0.57871526,0.23252524,0.3856913,0.46465546,-0.066883005,0.2529932,-0.6922221,-0.3839394,774.0293,610.84247,798.60803,799.011,1019.011,-0.2869873046875,0.09051513671875,0.97064208984375,7.0281982421875,-9.338531494140625,11.446990966796875,1,1.0,1.0,1.0,1.0,35.00
2021-04-09 22:37:52.622,0.95205873,0.7339603,0.8114407,1.1309079,0.3734342,0.37985998,0.19433637,0.713337,1.0645175,0.5939068,0.24761294,0.5475185,0.57871526,0.23252524,0.3856913,0.46465546,-0.066883005,0.2529932,-0.6922221,-0.3839394,809.4872,682.1612,790.54944,809.89014,683.36993,-0.254150390625,0.1280517578125,0.98663330078125,3.611297607421875,-6.930999755859375,3.00567626953125,1,1.0,1.0,1.0,1.0,35.00
2021-04-09 22:37:53.152,0.95205873,0.7339603,1.1640823,1.1309079,0.3734342,0.37985998,0.36838523,0.713337,1.0645175,0.5939068,0.66921693,0.5475185,0.57871526,0.23252524,0.32475558,0.46465546,-0.066883005,0.2529932,-0.22726841,-0.3839394,786.9231,677.72894,777.6557,788.5348,1018.20514,-0.23919677734375,0.1209716796875,0.99273681640625,12.8302001953125,-2.51220703125,-9.749755859375,1,2.0,1.0,1.0,2.0,35.00
2021-04-09 22:37:53.672,1.4237571,0.7339603,1.3705753,1.1470548,0.7111488,0.37985998,0.49412432,0.5683614,0.5577013,0.5939068,0.6098539,0.3238205,0.20194101,0.23252524,0.23901394,0.51636434,-0.38552788,0.2529932,0.037135035,-0.379516,815.12823,759.92676,791.75824,805.8608,761.9414,-0.28216552734375,0.08197021484375,0.9676513671875,2.115936279296875,-4.62066650390625,-7.2076416015625,1,1.0,1.0,1.0,1.0,35.00
2021-04-09 22:37:54.188,1.3917359,0.7339603,1.3378664,1.1966985,0.8415643,0.37985998,0.6796796,0.8980765,0.5723475,0.5939068,0.8157932,0.7490372,0.35163462,0.23252524,0.29039085,0.52343357,-0.3388914,0.2529932,0.026071964,-0.05976858,734.94507,792.96704,832.4542,715.2015,599.9634,-0.2430419921875,0.03485107421875,0.9752197265625,4.029998779296875,-6.0113525390625,-1.637420654296875,1,1.0,1.0,1.0,1.0,35.00
2021-04-09 22:37:54.690,1.4803517,0.7339603,1.3212028,1.2809722,0.91048527,0.37985998,0.8514133,1.0079274,0.44160601,0.5939068,0.6334795,0.7434193,0.40139827,0.23252524,0.33546674,0.53014517,-0.30536324,0.2529932,0.02856073,0.040418413,839.707,776.8498,808.68134,834.4689,935.6044,-0.21746826171875,0.03411865234375,0.98046875,3.790740966796875,-3.3795166015625,1.77947998046875,1,1.0,1.0,1.0,1.0,35.00
2021-04-09 22:37:55.200,1.4068846,0.9398771,1.0564336,1.232694,1.0347526,0.8231163,0.9486646,1.0520638,0.40885726,0.85600495,0.81227756,0.7434193,0.5452062,0.09100021,0.32160634,0.52900726,-0.269353,-0.15629251,0.035856694,0.0915624,800.6227,789.7436,799.41394,800.2198,654.7619,-0.24755859375,0.03271484375,0.9715576171875,4.373931884765625,-3.760833740234375,-0.52337646484375,1,1.0,1.0,1.0,1.0,35.00
2021-04-09 22:37:55.716,1.4068846,0.929835,0.75940466,1.1496639,1.0347526,0.75876313,0.84982485,0.9952229,0.40885726,0.85600495,0.61381984,0.74185294,0.5452062,0.08455998,0.17864189,0.57209814,-0.269353,-0.16488682,0.017596055,0.077003725,826.4103,798.20514,801.8315,801.02563,608.022,-0.2412109375,0.01837158203125,0.97174072265625,4.164581298828125,-3.626251220703125,-0.725250244140625,1,1.0,1.0,1.0,1.0,35.00
2021-04-09 22:37:56.222,1.1042278,0.929835,0.75528497,0.78516984,0.5034304,0.75876313,0.698242,0.53797966,0.73175985,0.85600495,0.66676104,0.40301296,0.47679657,0.08455998,0.24764204,0.44585264,-0.5000621,-0.16488682,-0.048687797,-0.21582946,814.7253,790.54944,813.1135,814.3223,712.7839,-0.249267578125,0.0198974609375,0.9727783203125,4.42626953125,-4.029998779296875,0.2392578125,1,1.0,1.0,1.0,1.0,35.00
2021-04-09 22:37:56.732,1.0129805,0.8836258,0.67519957,0.6883769,0.52568257,0.65989184,0.46850497,0.5615544,0.73175985,0.52891177,0.28607228,0.4542959,0.45189762,0.020444173,0.23511481,0.43549785,-0.3962193,-0.19802369,-0.094531626,-0.15223894,832.0513,794.17584,809.89014,825.2015,591.9048,-0.25732421875,0.0340576171875,0.96881103515625,4.59075927734375,-3.75335693359375,2.669219970703125,1,1.0,1.0,1.0,1.0,35.00
2021-04-09 22:37:57.259,0.89896977,0.19013722,0.8946919,0.60116386,0.5413264,0.43073887,0.71650946,0.583541,0.6412249,0.2793603,0.93073696,0.4542959,0.4674373,0.35073215,0.22054331,0.4397339,-0.36928886,-0.13169001,-0.0823712,-0.14563389,823.9927,770.40295,823.1868,839.304,807.47253,-0.25506591796875,0.0362548828125,0.9715576171875,5.973968505859375,-1.069183349609375,-0.755157470703125,1,1.0,1.0,1.0,1.0,35.00
2021-04-09 22:37:57.787,0.5895596,0.37727025,1.1843925,0.35383973,0.5840624,0.44655663,0.9377397,0.5738583,0.47822914,0.55529124,0.95415384,0.41916922,0.38425842,0.30741185,0.1527403,0.3941671,-0.24030368,-0.063267626,-0.03664681,-0.078318864,816.337,730.9158,817.1429,827.2161,696.26373,-0.2584228515625,0.01861572265625,0.9615478515625,3.39447021484375,-3.1402587890625,4.747772216796875,1,1.0,1.0,1.0,1.0,35.00
2021-04-09 22:37:58.315,0.76430994,0.37727025,1.2704253,0.548492,1.0780857,0.44655663,1.001613,1.0827707,0.97200274,0.55529124,0.9566744,1.0142862,0.29735956,0.30741185,0.11820443,0.61499393,0.48826343,-0.063267626,-0.08663898,0.24569535,802.23444,784.5055,791.3553,796.5934,699.4872,-0.25604248046875,0.0272216796875,0.969970703125,6.10107421875,-6.160888671875,0.61309814453125,1,1.0,1.0,1.0,1.0,30.00
2021-04-09 22:37:58.819,0.7024354,0.40007803,1.0847839,0.50726056,1.010318,0.422902,0.6803898,1.0450324,0.97200274,0.51992565,0.80542725,1.0142862,0.2715853,0.2541925,0.11041767,0.6039924,0.45591822,0.008580838,-0.11606741,0.20922835,824.7985,784.10254,806.6667,816.7399,761.13556,-0.2467041015625,0.01904296875,0.96954345703125,4.844970703125,-1.03179931640625,4.613189697265625,1,1.0,1.0,1.0,1.0,30.00
2021-04-09 22:37:59.335,0.7024354,0.8006542,1.099329,0.50726056,1.010318,0.62462896,0.93690795,1.0450324,0.97200274,0.29612574,1.069607,1.0142862,0.2715853,0.09358641,0.17982377,0.6039924,0.45591822,-0.23634917,-0.14356472,0.20922835,794.9817,784.5055,789.34064,790.14655,632.1978,-0.24542236328125,0.02001953125,0.96929931640625,4.38140869140625,-5.802001953125,1.293487548828125,1,1.0,1.0,1.0,1.0,30.00
2021-04-09 22:37:59.862,0.633147,0.6387492,1.0785959,0.4660222,0.8177711,0.5394722,0.8352841,0.9925508,0.94169956,0.40555003,1.0660962,0.9163494,0.15100214,0.02992546,0.16396366,0.56229985,0.45096713,-0.29640037,-0.1513397,0.1158051,810.293,786.52014,802.23444,819.15753,822.381,-0.24755859375,0.00921630859375,0.970947265625,4.6356201171875,-5.166473388671875,3.162689208984375,1,1.0,1.0,1.0,1.0,30.00
2021-04-09 22:38:00.386,0.633147,0.75779426,1.1422626,0.4660222,0.8177711,0.4846679,1.0057627,0.9925508,0.94169956,0.40734708,1.0815598,0.9163494,0.15100214,0.060567014,0.36287075,0.56229985,0.45096713,-0.32908762,-0.13239768,0.1158051,815.5311,797.8022,801.4286,823.5897,825.2015,-0.2237548828125,0.05535888671875,0.978515625,6.228179931640625,-4.6356201171875,1.27105712890625,1,1.0,1.0,1.0,1.0,30.00
2021-04-09 22:38:00.896,0.633147,0.83892,1.0254298,0.4660222,0.8177711,0.37989765,0.8286418,0.9925508,0.94169956,0.39283648,0.93393046,0.9163494,0.15100214,0.13749786,0.37073335,0.56229985,0.45096713,-0.3823443,-0.092435665,0.1158051,812.71063,823.5897,806.26373,817.1429,696.6667,-0.23095703125,0.02960205078125,0.97894287109375,5.570220947265625,-4.508514404296875,2.73651123046875,1,1.0,1.0,1.0,1.0,30.00
2021-04-09 22:38:01.405,0.42866436,1.0004048,1.0204228,0.22446962,-0.08007859,0.40219045,0.8459801,0.24379516,0.017758122,0.14233465,0.93393046,0.29652166,0.14665397,0.23369934,0.36569393,0.53049487,-0.34963208,-0.29709116,-0.0479231,-0.109424174,818.3516,823.1868,816.7399,826.4103,805.4579,-0.232421875,0.02313232421875,0.97100830078125,4.508514404296875,-4.47113037109375,0.2691650390625,1,1.0,1.0,1.0,1.0,30.00
2021-04-09 22:38:01.907,0.43163013,0.92489845,0.74363256,0.107371,0.05241643,0.36592406,0.38171145,0.17506018,0.20505151,0.19477132,0.5668847,0.3094244,0.090504,0.20411013,0.18416432,0.42787066,-0.34987897,-0.24812832,-0.1204845,-0.18015401,727.28937,812.3077,968.6447,709.15753,608.8278,-0.22625732421875,0.0299072265625,0.9742431640625,3.865509033203125,-5.443115234375,3.072967529296875,1,1.0,1.0,1.0,1.0,30.00
2021-04-09 22:38:02.411,0.43421227,0.796324,0.6804327,0.08773949,0.06363182,0.33710957,0.20551,0.18093103,0.20505151,0.1734225,0.28899294,0.2862258,0.06560734,0.07103865,0.14167602,0.43053854,-0.37510097,-0.17494194,-0.16377933,-0.22205096,809.0842,789.7436,794.17584,801.8315,602.381,-0.2489013671875,-0.01202392578125,0.97705078125,0.112152099609375,4.613189697265625,-2.056121826171875,1,1.0,1.0,1.0,1.0,30.00
2021-04-09 22:38:02.933,0.439561,0.55387336,0.10591984,-0.27162555,0.1965414,0.2185444,-0.26293996,0.049607962,0.2042202,-0.054793727,-0.40536165,0.22955883,-0.028479956,-0.044915814,0.15531808,0.1822505,-0.34226838,-0.16271268,-0.2775789,-0.38663828,809.89014,829.2308,799.41394,815.12823,845.7509,-0.25177001953125,0.0234375,0.97332763671875,-0.545806884765625,-2.579498291015625,12.538604736328125,1,1.0,1.0,1.0,1.0,30.00
2021-04-09 22:38:03.448,0.439561,1.0107862,0.6224292,-0.27162555,0.1965414,0.2869293,0.053619042,0.049607962,0.2042202,0.24913901,0.35226017,0.22955883,-0.028479956,-0.08820782,0.010110886,0.1822505,-0.34226838,-0.3062777,-0.109033465,-0.38663828,742.1978,770.0,729.304,747.8388,813.1135,-0.32122802734375,0.04638671875,0.95648193359375,6.400146484375,-8.08990478515625,-3.39447021484375,1,1.0,1.0,1.0,1.0,30.00
2021-04-09 22:38:03.971,0.439561,1.0764092,0.6224292,-0.27162555,0.1965414,0.3149105,0.053619042,0.049607962,0.2042202,0.24913901,0.35226017,0.22955883,-0.028479956,-0.04132026,0.010110886,0.1822505,-0.34226838,-0.3820779,-0.109033465,-0.38663828,799.81683,783.2967,800.6227,791.75824,791.3553,-0.2862548828125,0.06085205078125,0.968994140625,4.486083984375,-13.794708251953125,12.3516845703125,1,1.0,1.0,1.0,1.0,30.00
2021-04-09 22:38:04.495,0.439561,1.1551256,0.6224292,-0.27162555,0.1965414,0.2962982,0.053619042,0.049607962,0.2042202,0.24431847,0.35226017,0.22955883,-0.028479956,-0.028854873,0.010110886,0.1822505,-0.34226838,-0.39027658,-0.109033465,-0.38663828,829.2308,828.022,800.2198,815.12823,695.8608,-0.22119140625,0.05902099609375,0.97802734375,5.345916748046875,-4.508514404296875,-7.618865966796875,1,2.0,1.0,1.0,2.0,30.00
2021-04-09 22:38:05.022,0.439561,1.1551256,0.6224292,-0.27162555,0.1965414,0.2962982,0.053619042,0.049607962,0.2042202,0.24431847,0.35226017,0.22955883,-0.028479956,-0.028854873,0.010110886,0.1822505,-0.34226838,-0.39027658,-0.109033465,-0.38663828,733.73627,716.0073,709.15753,719.6337,680.54944,-0.2078857421875,0.0439453125,0.98028564453125,3.102874755859375,-4.32159423828125,0.3289794921875,1,2.0,1.0,1.0,2.0,30.00
2021-04-09 22:38:05.548,0.439561,1.1551256,0.6224292,-0.27162555,0.1965414,0.2962982,0.053619042,0.049607962,0.2042202,0.24431847,0.35226017,0.22955883,-0.028479956,-0.028854873,0.010110886,0.1822505,-0.34226838,-0.39027658,-0.109033465,-0.38663828,815.9341,799.011,796.1905,805.8608,720.0366,-0.21929931640625,0.03411865234375,0.97637939453125,5.03936767578125,-4.91973876953125,1.51031494140625,1,2.0,1.0,1.0,2.0,30.00
2021-04-09 22:38:06.050,0.439561,1.1551256,0.6224292,-0.27162555,0.1965414,0.2962982,0.053619042,0.049607962,0.2042202,0.24431847,0.35226017,0.22955883,-0.028479956,-0.028854873,0.010110886,0.1822505,-0.34226838,-0.39027658,-0.109033465,-0.38663828,812.3077,804.2491,815.9341,822.7839,882.8205,-0.2164306640625,0.03472900390625,0.976806640625,5.166473388671875,-4.32159423828125,1.68975830078125,1,2.0,1.0,1.0,2.0,30.00
2021-04-09 22:38:06.560,0.439561,1.1551256,0.6224292,-0.27162555,0.1965414,0.2962982,0.053619042,0.049607962,0.2042202,0.24431847,0.35226017,0.22955883,-0.028479956,-0.028854873,0.010110886,0.1822505,-0.34226838,-0.39027658,-0.109033465,-0.38663828,815.5311,826.8132,818.3516,831.6484,804.65204,-0.21197509765625,0.0418701171875,0.97723388671875,4.306640625,-4.02252197265625,0.471038818359375,1,2.0,1.0,1.0,2.0,30.00
2021-04-09 22:38:07.076,0.439561,1.1551256,0.6224292,-0.27162555,0.1965414,0.2962982,0.053619042,0.049607962,0.2042202,0.24431847,0.35226017,0.22955883,-0.028479956,-0.028854873,0.010110886,0.1822505,-0.34226838,-0.39027658,-0.109033465,-0.38663828,823.5897,824.7985,819.9634,808.2784,713.5897,-0.20733642578125,0.033935546875,0.97698974609375,3.671112060546875,-6.05621337890625,0.83740234375,1,2.0,1.0,1.0,2.0,30.00
2021-04-09 22:38:07.578,0.9068621,1.2002627,1.0365572,0.6601077,0.35835436,0.7523243,0.5547875,0.20081529,0.24188145,0.7706729,0.121475734,0.27058163,0.30359676,0.24540856,0.2007034,0.4389054,-0.02439986,-0.17124286,0.053636152,-0.03478029,831.6484,810.696,808.68134,829.2308,659.59705,-0.19976806640625,0.03240966796875,0.98583984375,4.007568359375,-4.844970703125,1.1663818359375,1,1.0,1.0,1.0,1.0,30.00
2021-04-09 22:38:08.086,0.9068621,1.0074598,0.921574,0.6601077,0.35835436,0.60867083,0.49936396,0.20081529,0.24188145,0.7706729,0.5483651,0.27058163,0.30359676,0.18439324,0.18690787,0.4389054,-0.02439986,-0.18036692,0.11491993,-0.03478029,817.1429,823.5897,819.9634,833.663,771.2088,-0.21771240234375,0.04315185546875,0.97900390625,5.929107666015625,-2.64678955078125,3.357086181640625,1,1.0,1.0,1.0,1.0,30.00
2021-04-09 22:38:08.597,0.93540597,0.8706091,0.855758,0.64771104,0.39157984,0.53794736,0.4383137,0.25040644,0.24188145,0.7706729,0.5585239,0.16170911,0.31168428,0.16725491,0.13604186,0.4930639,-0.063064225,-0.17979006,0.089976035,-0.099266,802.23444,817.1429,801.4286,807.8755,601.5751,-0.21820068359375,0.04473876953125,0.97332763671875,3.715972900390625,-4.68048095703125,-0.31402587890625,1,1.0,1.0,1.0,1.0,35.00
2021-04-09 22:38:09.111,0.48296434,0.3712255,0.57746744,0.06438791,0.23389195,0.2089845,0.14886951,0.05794437,0.39255682,0.37370938,0.56103176,-0.061436668,0.17554285,0.100687705,0.17832048,0.11894586,-0.28840694,-0.24254347,0.003859935,-0.0737517,818.7546,807.8755,809.4872,809.0842,656.77655,-0.21923828125,0.044921875,0.97869873046875,4.6356201171875,-4.9346923828125,0.22430419921875,1,1.0,1.0,1.0,1.0,35.00
2021-04-09 22:38:09.616,0.37489802,0.18172128,0.38689113,0.25002044,0.16134746,0.061364617,-0.21703812,-0.10336149,0.56454027,0.23940328,0.36860946,0.1579856,0.11522793,0.063153505,0.1885118,0.18339898,-0.3863682,-0.37075076,-0.17228778,-0.16689478,802.6374,801.8315,811.0989,811.9048,706.337,-0.21490478515625,0.0364990234375,0.98046875,4.717864990234375,-4.50103759765625,0.037384033203125,1,1.0,1.0,1.0,1.0,35.00
2021-04-09 22:38:10.122,0.34702358,0.20873193,0.28989547,0.26791042,0.1924459,-0.09036428,-0.42496148,-0.036347397,0.59501886,0.17320612,0.18096301,0.24126431,0.18191874,0.066286966,0.19452067,0.28601167,-0.40366006,-0.53805757,-0.28886902,-0.21777526,796.1905,810.293,799.41394,810.696,763.95605,-0.21759033203125,0.0374755859375,0.9783935546875,4.3963623046875,-4.433746337890625,0.411224365234375,1,1.0,1.0,1.0,1.0,35.00
2021-04-09 22:38:10.635,0.31900644,0.70414037,0.5922443,0.36264777,0.17134863,0.37153897,0.16893332,-0.07481553,0.39757848,0.6044892,0.30136234,0.19066559,0.19264409,-0.01249276,0.15870418,0.3635956,-0.48692644,-0.5705431,-0.31613877,-0.26623082,817.5458,804.65204,804.65204,828.4249,904.57874,-0.2139892578125,0.03302001953125,0.9820556640625,4.88983154296875,-5.0244140625,1.323394775390625,1,1.0,1.0,1.0,1.0,35.00
2021-04-09 22:38:11.154,0.39422914,0.8039082,0.633497,0.31744015,0.21223986,0.49787226,0.2117778,0.056578193,0.34959477,0.6044892,0.30288485,0.10034666,0.29483363,0.02803365,0.14669682,0.45979583,-0.4684222,-0.476705,-0.25930795,-0.2416108,817.5458,809.0842,811.50183,810.696,653.5531,-0.21539306640625,0.04400634765625,0.97418212890625,10.519866943359375,-3.970184326171875,5.2337646484375,1,1.0,1.0,1.0,1.0,35.00
2021-04-09 22:38:11.682,0.43782902,0.7892243,0.6381456,0.30771878,0.18081577,0.49226522,0.1846252,-7.6652534E-4,0.31955835,0.607379,0.35241312,0.058960102,0.30205566,0.012068974,0.17125744,0.47023305,-0.48414892,-0.4927774,-0.20039502,-0.17440762,807.47253,800.6227,802.6374,804.2491,815.12823,-0.1932373046875,0.11456298828125,0.97930908203125,2.452392578125,-4.015045166015625,2.52716064453125,1,1.0,1.0,1.0,1.0,35.00
2021-04-09 22:38:12.189,0.3367155,0.36182937,0.42600763,0.0086261,0.36468974,0.15826666,-0.21876095,-0.046439946,0.39692354,0.24468865,0.22156146,0.27498588,0.3436147,0.017990716,0.2177082,0.3256694,-0.055168435,-0.41733465,-0.19586833,-0.07943208,836.8865,811.50183,805.4579,840.10986,849.3773,-0.19403076171875,0.0963134765625,0.98193359375,2.265472412109375,-3.955230712890625,-1.368255615234375,1,1.0,1.0,1.0,1.0,35.00
2021-04-09 22:38:12.703,0.3367155,0.37176412,0.56118435,0.0086261,0.36468974,0.051078707,-0.14484063,-0.046439946,0.39692354,0.2935506,0.18517594,0.27498588,0.3436147,-0.06254114,0.22716422,0.3256694,-0.055168435,-0.3331587,-0.2180533,-0.07943208,797.3993,812.71063,803.44324,815.5311,738.97437,-0.21240234375,0.07501220703125,0.9771728515625,4.8150634765625,-3.132781982421875,0.49346923828125,1,1.0,1.0,1.0,1.0,35.00
2021-04-09 22:38:13.221,0.3367155,0.53415215,0.8094199,0.0086261,0.36468974,0.26586923,0.301669,-0.046439946,0.39692354,0.3945721,0.35358196,0.27498588,0.3436147,0.0734398,0.20100641,0.3256694,-0.055168435,-0.29388288,-0.22070806,-0.07943208,800.2198,804.2491,794.17584,808.2784,712.7839,-0.21795654296875,0.07928466796875,0.97845458984375,4.583282470703125,-4.822540283203125,0.456085205078125,1,1.0,1.0,1.0,1.0,35.00
2021-04-09 22:38:13.724,0.3395232,0.65658885,0.76328886,0.28645653,0.07698543,0.37104467,0.41715783,0.5943803,0.13704452,0.3951637,0.3180956,0.4139874,0.22846873,0.15496325,0.22196282,0.23159868,-0.07930665,-0.27375424,-0.073380664,-0.17901255,811.0989,804.65204,803.0403,801.4286,653.5531,-0.20806884765625,0.0777587890625,0.976318359375,4.388885498046875,-4.164581298828125,0.276641845703125,1,1.0,1.0,1.0,1.0,35.00
2021-04-09 22:38:14.235,0.20751253,0.6621495,0.63237774,0.11473418,0.11473752,0.32716724,0.3423925,0.39066347,0.24067414,0.38718238,0.3293721,0.5994631,0.22601081,0.22097069,0.23587449,0.21480723,-0.13689102,-0.3564596,-0.09223281,-0.15272425,809.4872,813.91943,799.81683,817.1429,810.696,-0.2132568359375,0.07257080078125,0.97491455078125,4.493560791015625,-4.314117431640625,0.7476806640625,1,1.0,1.0,1.0,1.0,35.00
2021-04-09 22:38:14.743,0.21359043,0.74967635,0.46979752,0.19163533,0.05853744,0.12936299,0.26144853,0.30385217,0.2650821,0.2748406,0.12750466,0.602415,0.19139199,0.15942377,0.25996733,0.22667168,-0.19431819,-0.335882,-0.12547211,-0.1558041,823.9927,811.0989,809.0842,832.0513,691.02563,-0.20574951171875,0.07403564453125,0.9766845703125,4.717864990234375,-4.2767333984375,0.246734619140625,1,1.0,1.0,1.0,1.0,35.00
2021-04-09 22:38:15.263,0.13361232,0.69890404,0.41292214,0.1197743,0.049011003,0.10982031,0.19961664,-0.08883842,0.21268505,0.29576102,0.13190533,0.46875137,0.17159483,0.10418164,0.18073013,0.22356367,-0.2657179,-0.40964118,-0.111723475,-0.1419044,791.75824,811.50183,798.20514,811.50183,864.2857,-0.20965576171875,0.070068359375,0.97845458984375,3.715972900390625,-5.2935791015625,-0.0,1,1.0,1.0,1.0,1.0,35.00
2021-04-09 22:38:15.785,0.23049478,0.6301953,0.4598601,0.29829735,-0.09681774,0.15560305,0.1581547,-0.25081015,0.16516382,0.36554748,0.07289579,0.25244832,0.106897056,0.054059938,0.17178452,0.2582099,-0.38716525,-0.43123683,-0.10680122,-0.11705177,808.68134,809.0842,805.05493,802.6374,697.0696,-0.19842529296875,0.0692138671875,0.9771728515625,3.910369873046875,-5.5328369140625,0.5682373046875,1,1.0,1.0,1.0,1.0,35.00
2021-04-09 22:38:16.287,-0.17531118,0.42822665,0.51111776,0.19869034,0.41185197,0.25126308,0.24132499,0.1027645,0.5109494,0.5433195,0.48770684,0.2451247,0.14358303,-0.029923027,0.12755248,0.27053896,-0.2940452,-0.5264528,-0.08085398,-0.27270636,805.05493,807.0696,799.81683,812.3077,859.85345,-0.2022705078125,0.060302734375,0.983154296875,4.463653564453125,-3.828125,-0.299072265625,1,1.0,1.0,1.0,1.0,35.00
2021-04-09 22:38:16.789,0.023252659,0.66578406,0.62997836,0.114993095,0.22559701,0.2938601,0.395427,0.25528687,0.5370674,0.5607588,0.56966496,0.43505597,0.16485336,0.074610785,0.12602352,0.29683188,-0.20726164,-0.35214707,-0.21448296,-0.2280655,795.38464,811.9048,799.41394,802.6374,849.7802,-0.21038818359375,0.05902099609375,0.98126220703125,4.329071044921875,-3.648681640625,-0.95703125,1,1.0,1.0,1.0,1.0,35.00
2021-04-09 22:38:17.292,0.11521659,0.6788196,0.5682775,0.15215908,0.23472698,0.21009825,0.41376343,0.26106626,0.5370674,0.5518724,0.57323074,0.4481661,0.13787274,0.08151529,0.08923429,0.28033528,-0.14874385,-0.3113035,-0.282296,-0.124009416,804.65204,802.6374,809.4872,790.14655,703.5165,-0.21368408203125,0.0579833984375,0.9755859375,4.224395751953125,-4.18701171875,0.740203857421875,1,1.0,1.0,1.0,1.0,35.00
2021-04-09 22:38:17.800,0.3906912,0.64902765,0.34128505,0.16071671,0.20573,0.058713913,0.2053687,0.3411545,0.7447769,0.5471433,0.5645288,0.752172,0.12926847,0.10437633,0.14141499,0.25550938,-0.08429695,-0.286007,-0.1562109,0.04527052,809.89014,809.89014,803.44324,791.75824,752.674,-0.21527099609375,0.05322265625,0.981689453125,4.5458984375,-4.4561767578125,1.07666015625,1,1.0,1.0,1.0,1.0,35.00
2021-04-09 22:38:18.312,0.3598088,0.36213112,0.23578048,0.18625514,0.3203224,-0.09620606,-0.019926436,0.3786622,0.7733731,0.34322736,0.3079533,0.80682737,0.096344106,0.012951737,0.16177846,0.24112475,-0.11649371,-0.42018792,-0.11139188,0.05975757,808.68134,816.337,798.60803,818.3516,819.15753,-0.25628662109375,0.072509765625,0.97503662109375,2.594451904296875,10.310516357421875,1.03179931640625,1,1.0,1.0,1.0,1.0,35.00
2021-04-09 22:38:18.846,0.4048836,0.31552356,0.6161413,0.23024122,0.26514885,0.012269933,-0.030668775,0.29116604,0.77914244,0.43745452,0.2754944,0.8389848,0.14839801,-0.047776643,0.17210872,0.2526867,-0.09222076,-0.45195976,-0.072806865,0.0048930896,799.41394,820.3663,824.7985,810.293,902.1612,-0.48004150390625,-0.04071044921875,0.877685546875,7.753448486328125,-5.60760498046875,3.69354248046875,1,1.0,1.0,1.0,1.0,40.00
2021-04-09 22:38:19.355,0.311784,0.5327102,0.7524569,0.3928328,0.1262954,0.14891616,0.0764413,0.17752223,0.82286423,0.51496387,0.27038702,0.8588048,0.19691303,0.01871309,0.15694606,0.36573005,-0.015210516,-0.4349966,-0.15445125,-0.06563107,781.28204,808.2784,792.5641,790.14655,785.31134,-0.29571533203125,-0.01751708984375,0.9547119140625,0.3887939453125,-14.47509765625,0.321502685546875,1,1.0,1.0,1.0,1.0,40.00
2021-04-09 22:38:19.871,0.56359434,0.7158171,0.8537707,0.5882696,-0.014823523,0.17584665,-0.055932984,-0.0035483486,0.5612132,0.5223312,0.16689707,0.3408667,0.2278632,0.1506512,0.15933174,0.43330944,0.11720382,-0.41308677,-0.21453659,-0.07741827,798.20514,798.60803,813.1135,791.75824,708.3516,-0.21099853515625,0.03753662109375,0.9613037109375,18.131256103515625,-9.88433837890625,11.49932861328125,1,1.0,1.0,1.0,1.0,40.00
2021-04-09 22:38:20.387,0.57470286,0.7342926,0.62056875,0.5830254,0.01954678,0.08750588,0.028946972,0.11162868,0.5856676,0.5344809,0.1772475,0.44292387,0.20120756,0.124530785,0.16826057,0.4391062,0.13496187,-0.42623687,-0.31574914,-0.10734792,817.1429,803.44324,803.44324,805.05493,763.5531,-0.27801513671875,0.04681396484375,0.964111328125,4.089813232421875,-8.007659912109375,-7.379608154296875,1,1.0,1.0,1.0,1.0,40.00
2021-04-09 22:38:20.917,0.7293212,0.8776449,0.6609229,0.59689766,0.12759584,0.31382656,0.055566262,0.13980675,0.5399609,0.4284811,0.23930037,0.41094944,0.17489685,0.10239757,0.2006756,0.3522842,0.15158926,-0.45566225,-0.21616934,-0.19286251,740.18317,802.23444,830.84247,756.7033,724.4689,-0.22015380859375,0.01300048828125,0.9754638671875,4.673004150390625,-2.19818115234375,0.58319091796875,1,1.0,1.0,1.0,1.0,40.00
2021-04-09 22:38:21.421,0.7125443,0.7701137,0.68892056,0.5021766,0.16169287,0.3330095,0.31583777,0.1385884,0.46042538,0.41259402,0.4515989,0.37993658,0.16171713,-8.9935825E-4,0.17195131,0.26221305,0.12453149,-0.35428005,-0.1408986,-0.21073337,811.50183,809.4872,801.8315,816.337,694.65204,-0.2620849609375,-0.01092529296875,0.9627685546875,1.248626708984375,-2.444915771484375,3.820648193359375,1,1.0,1.0,1.0,1.0,40.00
2021-04-09 22:38:21.932,0.8982164,0.760493,0.84642017,0.60796636,0.24090847,0.40643966,0.5424986,0.0752175,0.35960054,0.45984676,0.40540642,0.2567016,0.20427427,0.06702498,0.20112525,0.18118364,0.16927333,-0.2287331,-0.054103214,-0.11505745,685.38464,807.47253,850.18317,688.20514,662.4176,-0.2681884765625,-0.02301025390625,0.96466064453125,4.314117431640625,-7.424468994140625,1.891632080078125,1,1.0,1.0,1.0,1.0,40.00
2021-04-09 22:38:22.440,0.8982164,0.5601991,0.8972689,0.60796636,0.24090847,0.26831803,0.6691235,0.0752175,0.35960054,0.40627697,0.37255877,0.2567016,0.20427427,0.07817731,0.16787852,0.18118364,0.16927333,-0.23014852,-0.06706931,-0.11505745,803.8461,805.4579,799.41394,800.2198,568.5348,-0.25799560546875,-0.01629638671875,0.96337890625,5.54779052734375,-5.5926513671875,-2.459869384765625,1,1.0,1.0,1.0,1.0,40.00
2021-04-09 22:38:22.948,0.8982164,0.79041904,0.79298663,0.60796636,0.24090847,0.31196505,0.5521855,0.0752175,0.35960054,0.449221,0.30090946,0.2567016,0.20427427,0.13841158,0.27897233,0.18118364,0.16927333,-0.283352,-0.0438211,-0.11505745,792.5641,807.0696,807.8755,810.696,755.89746,-0.2352294921875,-0.03948974609375,0.97064208984375,4.90478515625,-7.07305908203125,-4.42626953125,1,1.0,1.0,1.0,1.0,40.00
2021-04-09 22:38:23.457,0.8982164,1.0375059,0.5870172,0.60796636,0.24090847,0.5115217,0.360124,0.0752175,0.35960054,0.4631168,0.17652962,0.2567016,0.20427427,0.11257921,0.31730583,0.18118364,0.16927333,-0.37529975,-0.03636848,-0.11505745,797.3993,808.2784,806.6667,802.6374,761.53845,-0.22711181640625,-0.00677490234375,0.9908447265625,6.407623291015625,-1.854248046875,1.30096435546875,1,1.0,1.0,1.0,1.0,40.00
2021-04-09 22:38:23.974,0.6644446,0.97395134,0.6904617,0.27333587,0.43414196,0.5002597,0.23256314,0.46297568,0.76911646,0.50525695,0.4803387,0.6392062,0.3110071,0.024465922,0.29341206,0.49434066,-0.26551792,-0.39234483,-0.26081198,-0.39225343,808.2784,808.2784,800.6227,795.78754,624.94507,-0.26702880859375,0.0074462890625,0.969970703125,6.542205810546875,-9.517974853515625,-9.630126953125,1,1.0,1.0,1.0,1.0,40.00
2021-04-09 22:38:24.476,0.5412078,0.8095548,0.6013856,0.24067259,0.39855513,0.4221036,0.15367557,0.41928875,0.76911646,0.5030858,0.4892795,0.6392062,0.27386948,-0.09875257,0.23486575,0.414489,-0.20641723,-0.3386767,-0.24710205,-0.31858692,805.05493,793.36993,807.0696,790.14655,745.82416,-0.08868408203125,-0.05633544921875,0.9908447265625,3.03558349609375,-11.118011474609375,-3.050537109375,1,1.0,1.0,1.0,1.0,40.00
2021-04-09 22:38:24.981,0.2977118,0.16281047,0.4820513,0.33834526,0.3713647,0.06482484,0.047092933,0.33549294,0.7561798,0.48326373,0.42164403,0.61493737,0.19573162,-0.13020205,0.1523654,0.26525894,-0.19942527,-0.3162578,-0.25764713,-0.3693349,801.02563,801.8315,803.8461,818.3516,1071.7949,-0.0787353515625,-0.0360107421875,0.999755859375,5.420684814453125,-4.762725830078125,0.889739990234375,1,1.0,1.0,1.0,1.0,40.00
2021-04-09 22:38:25.491,0.14903623,0.37417263,0.44590956,0.47578454,0.21804906,-0.1810214,-0.10125909,0.25551626,0.36034578,0.063806534,0.34466442,0.4050061,0.07725407,-0.18781741,0.004952763,0.1843666,-0.20466842,-0.30287984,-0.21401939,-0.33696488,847.76556,794.57874,802.6374,867.50916,695.8608,-0.1917724609375,0.0010986328125,0.9852294921875,12.987213134765625,8.553466796875,0.381317138671875,1,1.0,1.0,1.0,1.0,40.00
2021-04-09 22:38:26.012,0.14843124,0.59526366,0.38412818,0.5644207,0.13682324,-0.1396823,-0.07332851,0.18843952,0.32157892,0.029830828,0.324127,0.22907543,-0.011543097,-0.15815544,-0.004975402,0.14620073,-0.22190864,-0.38809794,-0.2143284,-0.41640443,807.0696,816.337,784.5055,801.4286,744.21246,-0.3104248046875,0.1983642578125,0.964111328125,18.43780517578125,4.59075927734375,29.249267578125,1,1.0,1.0,1.0,1.0,40.00
2021-04-09 22:38:26.521,-0.17830883,0.742793,0.30395952,0.66201603,0.1510137,0.16501229,0.03747141,0.253327,0.30483577,0.26128635,0.38386458,-0.11539359,-0.1403534,-0.06868446,0.080007374,0.14129008,-0.4090544,-0.4351548,-0.28497714,-0.36621088,806.26373,809.4872,808.2784,807.47253,630.58606,-0.30126953125,0.21673583984375,0.9315185546875,3.93280029296875,-4.000091552734375,-1.801910400390625,1,1.0,1.0,1.0,1.0,40.00
2021-04-09 22:38:27.024,-0.17830883,0.71296835,0.4509522,0.66201603,0.1510137,0.2839514,0.24784137,0.253327,0.30483577,0.3279347,0.3659057,-0.11539359,-0.1403534,-0.03807708,0.10301047,0.14129008,-0.4090544,-0.45553237,-0.142033,-0.36621088,782.49084,785.31134,789.7436,789.7436,750.65936,-0.31439208984375,0.21514892578125,0.93096923828125,3.536529541015625,-5.884246826171875,0.418701171875,1,1.0,1.0,1.0,1.0,40.00
2021-04-09 22:38:27.561,0.7192036,0.9026515,0.5889262,0.81060237,0.27582863,0.3350905,0.21563241,0.33278373,0.527482,0.36003518,0.3379659,0.57558835,0.21752302,-0.0340495,0.16717169,0.20315285,-0.29952624,-0.48621687,-0.12576018,-0.13274223,801.4286,795.78754,807.0696,805.8608,770.0,-0.30718994140625,0.20697021484375,0.931640625,4.194488525390625,-4.927215576171875,0.635528564453125,1,1.0,1.0,1.0,1.0,40.00
2021-04-09 22:38:28.083,0.6435017,0.9256543,0.6313598,0.80512047,0.34005392,0.25118643,0.17594394,0.23815234,0.6454728,0.3423588,0.27475518,0.5854491,0.18584916,-0.030174803,0.16593502,0.20830384,-0.31115985,-0.39419144,-0.11672605,-0.18199281,807.0696,816.337,798.20514,814.7253,643.0769,-0.3253173828125,0.1925048828125,0.920166015625,-3.102874755859375,3.895416259765625,6.77398681640625,1,1.0,1.0,1.0,1.0,40.00
2021-04-09 22:38:28.585,0.6002889,0.9123725,0.5758533,0.7941512,0.2845329,0.21975055,-0.0128776645,-0.031656086,0.6042654,0.08512079,0.1910491,0.39623877,0.20317966,-0.01760677,0.19878836,0.26706722,-0.29616806,-0.37641993,-0.117619626,-0.22703247,780.07324,777.6557,777.6557,768.7912,653.1502,-0.35491943359375,0.2086181640625,0.913330078125,6.9384765625,-5.06927490234375,7.117919921875,1,1.0,1.0,1.0,1.0,40.00
2021-04-09 22:38:29.093,0.69039583,0.8253069,0.77781415,0.97685754,0.3322565,0.15245621,0.05051964,-0.24351928,0.5276183,0.024693873,0.33763993,0.18921265,0.21563339,-0.049380112,0.16393624,0.31121296,-0.28027007,-0.3325462,-0.043259624,-0.24238217,806.6667,806.6667,794.9817,795.78754,712.7839,-0.32171630859375,0.1597900390625,0.93707275390625,-13.5479736328125,-2.4822998046875,3.431854248046875,1,1.0,1.0,1.0,1.0,30.00
2021-04-09 22:38:29.604,0.91192687,0.8536622,0.8283861,1.0312585,0.24208285,0.12884836,0.21428598,-0.36722714,0.32148758,0.12167341,0.37782067,0.30195683,0.2546441,-0.039559033,0.14810105,0.358176,-0.24913204,-0.37978822,0.033441663,-0.23763008,791.3553,769.19415,764.7619,800.2198,877.1795,-0.37115478515625,0.15289306640625,0.91595458984375,3.51409912109375,-5.0543212890625,5.99639892578125,1,1.0,1.0,1.0,1.0,30.00
2021-04-09 22:38:30.114,1.0927212,1.0730127,0.96088946,1.1960043,0.19141293,0.01967219,0.2825977,-0.15501526,0.101560734,0.08844961,0.375122,0.30195683,0.24592036,0.006737666,0.15329364,0.37445194,-0.28951657,-0.3522645,0.016155392,-0.22122172,770.0,826.0073,774.83514,779.2674,866.30035,-0.265625,0.14202880859375,0.958251953125,0.411224365234375,-17.66021728515625,0.94207763671875,1,1.0,1.0,1.0,1.0,30.00
2021-04-09 22:38:30.630,1.0927212,0.97461253,0.8701332,1.205004,0.19141293,0.037829395,0.4257483,-0.078633055,0.101560734,0.027822528,0.23148084,0.30195683,0.24592036,0.09701847,0.066590786,0.35864213,-0.28951657,-0.32166776,-0.0069884714,-0.19905128,816.7399,797.8022,803.0403,811.9048,746.63007,-0.2735595703125,0.0736083984375,0.95849609375,1.74957275390625,-0.76263427734375,-1.742095947265625,1,1.0,1.0,1.0,1.0,30.00
2021-04-09 22:38:31.159,1.0927212,0.97461253,0.82872576,1.205004,0.19141293,0.037829395,0.43580478,-0.078633055,0.101560734,0.027822528,0.23148084,0.30195683,0.24592036,0.09701847,0.079382166,0.35864213,-0.28951657,-0.32166776,0.024535153,-0.19905128,850.989,804.2491,803.44324,873.95605,783.2967,-0.3082275390625,0.04974365234375,0.953857421875,3.24493408203125,-5.390777587890625,2.27294921875,1,1.0,1.0,1.0,1.0,30.00
2021-04-09 22:38:31.682,1.0927212,1.109332,0.82872576,1.205004,0.19141293,0.65281963,0.43580478,-0.078633055,0.101560734,0.07361903,0.23148084,0.30195683,0.24592036,0.06309344,0.079382166,0.35864213,-0.28951657,-0.2913818,0.024535153,-0.19905128,804.2491,804.65204,802.23444,821.1722,815.9341,-0.31158447265625,0.04669189453125,0.9534912109375,5.15899658203125,-6.86370849609375,1.248626708984375,1,1.0,1.0,1.0,1.0,30.00
2021-04-09 22:38:32.200,1.0927212,0.89585674,0.6927024,1.205004,0.19141293,0.43997025,0.4694332,-0.078633055,0.101560734,0.17886047,0.08270859,0.30195683,0.24592036,0.06347233,0.30597198,0.35864213,-0.28951657,-0.32087252,-0.35335654,-0.19905128,797.8022,804.65204,797.3993,817.1429,801.8315,-0.271484375,0.047607421875,0.95611572265625,3.22998046875,-0.112152099609375,1.742095947265625,1,2.0,1.0,1.0,2.0,30.00
2021-04-09 22:38:32.715,-0.23452324,0.71567976,0.52685064,0.12851663,0.020279068,0.23077612,0.35189474,0.3720591,0.21982546,0.14670676,0.15720779,0.17954145,0.24550167,0.060723156,0.24780118,0.25745955,-0.30647713,-0.4480906,-0.36256263,-0.13594216,808.2784,808.2784,812.3077,810.696,740.989,-0.28497314453125,0.05865478515625,0.96710205078125,5.54779052734375,-7.37213134765625,3.57391357421875,1,1.0,1.0,1.0,1.0,30.00
2021-04-09 22:38:33.220,-0.248674,0.21359989,0.072566345,0.12143623,-0.087926194,-0.30757722,-0.020413816,0.27941287,0.22176498,0.11355805,0.15197001,0.23332827,0.22884849,-0.0017939144,0.19667378,0.16676216,-0.31723994,-0.5446565,-0.33759612,-0.20690967,822.7839,794.17584,809.89014,820.3663,799.011,-0.289306640625,0.05218505859375,0.96551513671875,4.8748779296875,-5.495452880859375,-1.016845703125,1,1.0,1.0,1.0,1.0,30.00
2021-04-09 22:38:33.727,-0.07415457,0.33223277,0.23134016,0.18298462,-0.10746183,-0.120655105,0.016405199,0.3660388,0.3022788,0.54179144,0.28034693,0.2793166,0.30359024,-0.045993738,0.15873645,0.23892498,-0.36817884,-0.5383055,-0.2728007,-0.21008861,811.9048,804.65204,808.2784,801.4286,662.4176,-0.2930908203125,0.0294189453125,0.95526123046875,3.39447021484375,-3.3795166015625,-7.633819580078125,1,1.0,1.0,1.0,1.0,30.00
2021-04-09 22:38:34.243,0.1687614,0.5940891,0.5250784,0.35305393,-0.026136035,0.16899294,0.132121,0.44617268,0.48436952,0.6007302,0.2456808,0.36422512,0.34460267,-0.076421835,0.1840082,0.3041412,-0.34988567,-0.40997186,-0.17735478,-0.3015406,808.68134,806.26373,805.05493,814.3223,947.28937,-0.2943115234375,0.02581787109375,0.95550537109375,4.643096923828125,-4.725341796875,0.5084228515625,1,1.0,1.0,1.0,1.0,30.00
2021-04-09 22:38:34.749,0.24721839,0.5861693,0.5281855,0.3397583,0.07478083,0.243435,0.16434495,0.46618938,0.49763948,0.60558075,0.2760739,0.5736502,0.4295457,-0.02984332,0.2018915,0.34652492,-0.31251863,-0.37230927,-0.15514538,-0.27462873,817.5458,802.6374,800.6227,803.8461,626.55676,-0.2816162109375,0.02471923828125,0.96099853515625,4.366455078125,-5.644989013671875,0.471038818359375,1,1.0,1.0,1.0,1.0,30.00
2021-04-09 22:38:35.269,0.39585826,0.5128737,0.41366017,0.23934482,0.27200523,0.14217514,0.16481206,0.4391211,0.5904052,0.5997302,0.42166442,0.6377833,0.42331338,-0.08037306,0.11570943,0.27117038,-0.24978514,-0.38714957,-0.17039265,-0.34644315,804.65204,819.5604,787.326,790.54944,764.7619,-0.2779541015625,0.02069091796875,0.9671630859375,3.7982177734375,-5.375823974609375,0.46356201171875,1,1.0,1.0,1.0,1.0,30.00
2021-04-09 22:38:35.777,0.34004664,0.3975867,0.3133122,-0.16655675,0.2835062,0.0295928,0.019732287,0.30217692,0.49040094,0.2982598,0.35685223,0.6465755,0.41685084,0.007554121,0.12834689,0.16687903,-0.28159973,-0.38287988,-0.24392226,-0.20887654,707.1429,784.5055,820.7692,700.293,849.7802,-0.28082275390625,0.0225830078125,0.965087890625,4.44122314453125,-4.029998779296875,0.94207763671875,1,1.0,1.0,1.0,1.0,30.00
2021-04-09 22:38:36.298,0.41014603,0.5462404,0.610353,-0.324481,0.34617245,0.21163562,0.31634083,0.31912103,0.37637332,0.30971813,0.42116374,0.5412427,0.3777892,0.03292104,0.17382678,0.12367117,-0.3104239,-0.34648865,-0.14112274,-0.20480204,801.4286,810.696,794.17584,817.1429,776.4469,-0.27825927734375,0.02423095703125,0.96771240234375,4.71038818359375,-3.461761474609375,0.605621337890625,1,1.0,1.0,1.0,1.0,30.00
2021-04-09 22:38:36.806,0.19815688,0.5689474,0.7462768,-0.4262298,0.22551593,0.23842691,0.40869373,0.18678272,0.25305504,0.31394425,0.32282376,0.45204267,0.35029632,0.090795524,0.20731345,0.16313948,-0.36670312,-0.26335108,0.1214844,-0.05375813,804.65204,802.6374,801.8315,811.50183,543.5531,-0.281005859375,0.02606201171875,0.9605712890625,4.553375244140625,-4.882354736328125,0.635528564453125,1,1.0,1.0,1.0,1.0,30.00
2021-04-09 22:38:37.325,0.16948237,0.40238935,0.64652574,-0.4461998,0.20384397,0.13990796,0.38285136,0.20362903,0.10768129,0.23485525,0.16972248,0.4418741,0.3266712,0.0089780325,0.16122513,0.1883815,-0.32711786,-0.27309167,0.24534206,-0.010808141,803.8461,812.3077,807.0696,801.8315,691.8315,-0.282958984375,0.02197265625,0.96337890625,4.403839111328125,-4.62066650390625,0.411224365234375,1,1.0,1.0,1.0,1.0,30.00
2021-04-09 22:38:37.830,0.6413508,0.09451326,0.32760566,-0.0025322149,0.108446054,-0.16872242,0.04808851,0.076483354,0.34225935,0.119792394,-0.09660788,0.2635586,0.4236937,0.045087405,0.11668698,0.27214158,-0.30016345,-0.3447144,0.2662335,-0.28391373,801.02563,796.5934,803.44324,805.4579,778.0586,-0.28155517578125,0.0179443359375,0.962890625,4.59075927734375,-4.388885498046875,0.95703125,1,1.0,1.0,1.0,1.0,30.00
2021-04-09 22:38:38.344,0.51114804,-0.17326304,-0.28695893,0.014679771,0.0068543027,-0.20381199,-0.5268647,0.083943084,0.35428625,0.17754227,-6.182961E-4,0.33883065,0.38578984,0.082725465,0.1304683,0.20737201,-0.30274412,-0.44479993,0.13926342,-0.28577575,809.0842,811.50183,812.71063,815.12823,802.6374,-0.28289794921875,-0.04473876953125,0.94342041015625,-15.828399658203125,3.237457275390625,-13.420867919921875,1,1.0,1.0,1.0,1.0,30.00
2021-04-09 22:38:38.866,0.24553747,0.12929438,-0.16068238,-0.09078878,0.022736646,0.09225199,-0.2053682,-0.018835941,0.34418046,0.19522835,0.14020987,0.4881093,0.2909282,0.13796048,0.14536916,0.20018852,-0.3251519,-0.45032305,0.05360083,-0.24495983,796.5934,803.8461,801.8315,786.1172,651.13556,-0.32391357421875,-0.05938720703125,0.9210205078125,6.3104248046875,-0.844879150390625,-8.8226318359375,1,1.0,1.0,1.0,1.0,30.00
2021-04-09 22:38:39.368,0.037589874,0.25856835,0.008054117,-0.12506142,0.39493394,0.13511494,-0.13497727,0.11709527,0.9793766,0.2240202,0.13738932,0.68619347,0.1969903,0.13867097,0.17132223,0.22198549,-0.26584238,-0.21369281,0.034851238,-0.17867827,802.23444,795.38464,804.2491,801.02563,626.1539,-0.34423828125,0.05828857421875,0.95062255859375,2.459869384765625,-7.31231689453125,-0.2691650390625,1,1.0,1.0,1.0,1.0,35.00
2021-04-09 22:38:39.878,0.077011846,0.33900112,0.17815721,-0.27846238,0.62926316,0.06699446,-0.08068144,0.15974136,0.9768867,0.19708692,0.29914612,0.7023982,0.15939444,0.13500245,0.18069524,0.2722506,-0.23524311,-0.12630783,0.14664023,-0.15224305,813.5165,796.5934,796.1905,808.68134,668.0586,-0.3199462890625,0.03094482421875,0.948974609375,4.687957763671875,-6.759033203125,-1.487884521484375,1,1.0,1.0,1.0,1.0,35.00
2021-04-09 22:38:40.398,0.2343715,0.2633546,0.8699404,-0.23688442,0.83822256,-0.21050797,0.5170679,0.36186206,0.9683527,0.36001366,0.72822094,0.5947749,0.2787436,0.10788221,0.24369709,0.29707047,-0.17666368,-0.0961225,0.25772837,-0.21160623,803.8461,787.72894,796.1905,806.6667,790.9524,-0.31707763671875,0.019287109375,0.95196533203125,4.508514404296875,-5.921630859375,0.3289794921875,1,1.0,1.0,1.0,1.0,35.00
2021-04-09 22:38:40.909,0.31216484,0.30066285,0.8652176,-0.34668893,0.9061033,-0.19869712,0.5088643,0.40376782,0.9683527,0.33875573,0.7267021,0.5947749,0.31950486,0.048806537,0.27099264,0.28487805,-0.1587078,-0.13135773,0.247745,-0.2472305,810.696,808.2784,803.0403,823.1868,742.6007,-0.32696533203125,0.012939453125,0.9459228515625,4.3963623046875,-2.624359130859375,-1.68975830078125,1,1.0,1.0,1.0,1.0,35.00
2021-04-09 22:38:41.420,0.20055166,0.28735474,0.8436595,0.6634528,0.50764775,-0.22693452,0.47356132,0.64186394,0.095745906,0.35527837,0.7258934,0.09823823,0.107485145,0.08063242,0.24826673,0.36944112,-0.02674388,-0.18443236,0.17627403,0.063917674,798.20514,792.1612,801.4286,801.02563,887.25275,-0.32568359375,0.0184326171875,0.9482421875,4.35150146484375,-5.3533935546875,-2.519683837890625,1,1.0,1.0,1.0,1.0,35.00
2021-04-09 22:38:41.945,0.27142638,0.2954821,0.22065438,0.56997555,0.41485044,-0.23335953,-0.1804902,0.51645404,0.532431,0.29371935,-0.040944666,0.46302938,0.16874625,0.058366276,0.15866244,0.331123,-0.023660535,-0.1894612,0.136116,0.11483585,801.4286,800.2198,804.65204,792.5641,670.07324,-0.31781005859375,6.7138671875E-4,0.95281982421875,6.452484130859375,-9.76470947265625,-6.92352294921875,1,1.0,1.0,1.0,1.0,35.00
2021-04-09 22:38:42.454,0.2555219,0.31595522,0.25758693,0.5546547,0.4095921,-0.24518389,-0.07440315,0.492344,0.532431,0.2828674,-0.07637349,0.51473457,0.1878183,0.06516916,0.11428706,0.33949792,-0.018362936,-0.27436513,0.18607943,0.1309135,43.516483,1625.4213,491.17215,36.666668,773.22345,-0.2783203125,0.0047607421875,0.96246337890625,5.016937255859375,-8.456268310546875,0.61309814453125,1,1.0,1.0,1.0,1.0,35.00
2021-04-09 22:38:42.967,0.3336937,0.29253078,0.22012433,0.45496872,0.27569905,-0.17865774,-0.09230242,0.33816013,0.523717,0.28200293,-0.081939265,0.50701326,0.21441716,-0.009683906,0.08220847,0.31515598,-0.018115126,-0.25392064,0.23838359,0.16642895,875.9707,605.2015,785.31134,863.47986,676.1172,-0.2720947265625,-2.44140625E-4,0.96307373046875,-0.216827392578125,-1.95892333984375,8.605804443359375,1,1.0,1.0,1.0,1.0,35.00
2021-04-09 22:38:43.478,0.3173516,0.36953646,0.01862476,0.255732,0.31126463,-0.118892066,-0.058375727,0.3033276,0.5140224,0.0670818,-0.3480228,0.49654862,0.26311943,-0.036989342,0.11107313,0.31634405,-0.023628471,-0.21461517,0.32412884,0.16907796,816.7399,770.40295,811.0989,821.1722,700.293,-0.31414794921875,0.00482177734375,0.94970703125,2.355194091796875,-4.448699951171875,1.203765869140625,1,1.0,1.0,1.0,1.0,35.00
2021-04-09 22:38:43.990,0.3173516,0.36953646,0.01862476,0.255732,0.31126463,-0.118892066,-0.058375727,0.3033276,0.5140224,0.0670818,-0.3480228,0.49654862,0.26311943,-0.036989342,0.11107313,0.31634405,-0.023628471,-0.21461517,0.32412884,0.16907796,817.1429,769.19415,810.293,819.9634,709.15753,-0.28302001953125,0.00714111328125,0.9688720703125,2.878570556640625,-3.566436767578125,3.24493408203125,1,1.0,1.0,1.0,1.0,35.00
2021-04-09 22:38:44.501,0.71982884,0.36953646,0.09057853,0.255732,-0.08991664,-0.118892066,0.2675571,0.3033276,0.23697005,0.0670818,-0.10889901,0.49654862,0.15495786,-0.036989342,0.45175025,0.31634405,-0.09229174,-0.21461517,-0.19844942,0.16907796,805.05493,767.5824,794.17584,820.3663,929.9634,-0.31231689453125,-0.048095703125,0.95245361328125,6.77398681640625,-9.5703125,16.090087890625,1,1.0,1.0,1.0,1.0,35.00
2021-04-09 22:38:45.006,0.496628,0.54846686,0.10742177,0.34132618,-0.018642733,0.03512059,0.3008917,0.30406636,0.620035,0.4342214,0.12849283,0.54891276,0.21590643,0.40338525,0.40089118,0.35012147,-0.21045898,-0.28377995,-0.16667724,-0.11512638,802.23444,776.8498,805.05493,815.9341,788.93774,-0.3179931640625,0.043701171875,0.96246337890625,5.66741943359375,-5.181427001953125,6.77398681640625,1,1.0,1.0,1.0,1.0,35.00
2021-04-09 22:38:45.523,0.39461166,0.4575639,0.32834268,0.4004464,0.09620877,0.10259172,0.39995295,0.15987226,0.62782264,0.45353648,0.23433116,0.54891276,0.16436267,0.2899915,0.3563873,0.23430686,-0.21586582,-0.18269329,-0.116565146,-0.12468855,803.8461,775.2381,794.9817,802.6374,627.3626,-0.2880859375,0.03912353515625,0.9615478515625,3.170166015625,-6.62445068359375,-0.01495361328125,1,1.0,1.0,1.0,1.0,35.00
2021-04-09 22:38:46.032,0.085337035,0.46913797,0.33612284,0.3778507,0.058675814,0.04669012,0.31827188,0.17783129,0.63794094,0.45019284,0.216084,0.54891276,0.18351674,0.16338329,0.2675194,0.16940185,-0.30791467,-0.2553606,-0.061679486,-0.20227432,810.696,797.3993,812.71063,816.337,672.0879,-0.28106689453125,0.01556396484375,0.959228515625,3.730926513671875,-3.768310546875,0.67291259765625,1,1.0,1.0,1.0,1.0,35.00
2021-04-09 22:38:46.536,0.1002177,0.5402293,0.2840668,0.26136902,5.3998054E-4,0.13744093,0.23669235,0.2537893,0.4579939,0.4284553,0.2226813,0.44545665,0.14595704,0.037237026,0.2569213,0.0051979413,-0.28331202,-0.25198922,-0.004193168,-0.21328732,829.6337,798.60803,806.6667,844.94507,763.1502,-0.28619384765625,0.012451171875,0.9581298828125,4.687957763671875,-3.267364501953125,-0.216827392578125,1,1.0,1.0,1.0,1.0,35.00
2021-04-09 22:38:47.052,0.09174703,0.6095294,0.5744508,0.0471936,-0.2833453,0.17392842,0.6363926,0.39963627,0.078709245,0.13325568,0.82420784,0.3270462,0.19550288,0.011904777,0.28044978,0.013360521,-0.32357645,-0.23745464,-0.033199172,-0.26759905,824.3956,800.2198,803.44324,815.12823,679.7436,-0.29150390625,0.0068359375,0.9610595703125,4.20196533203125,-5.1739501953125,0.814971923828125,1,1.0,1.0,1.0,1.0,35.00
2021-04-09 22:38:47.562,0.18015233,0.5938434,0.63624036,-0.3766512,-0.3623697,0.2390398,0.68453133,0.5603431,-0.11205571,0.24335487,0.82420784,0.2762234,0.20527142,0.07855816,0.2876221,0.06906777,-0.25055113,-0.20204547,0.048566524,-0.14394501,803.8461,792.1612,816.337,813.5165,763.5531,-0.2872314453125,0.0096435546875,0.96026611328125,4.747772216796875,-4.209442138671875,0.8673095703125,1,1.0,1.0,1.0,1.0,35.00
2021-04-09 22:38:48.086,-0.10172574,0.4515074,0.6920297,-0.0314844,-0.025161117,0.0802954,0.6734227,0.21953334,0.007918107,0.24819563,0.82420784,0.1905407,0.23503728,0.00887024,0.21742438,-0.014995542,-0.23825984,-0.19062226,0.04203234,-0.45686346,804.65204,808.2784,800.6227,809.4872,759.12085,-0.28619384765625,0.00341796875,0.95758056640625,4.553375244140625,-4.6954345703125,-0.171966552734375,1,1.0,1.0,1.0,1.0,35.00
2021-04-09 22:38:48.612,0.02254769,0.2991635,0.46380502,-0.021252386,0.18344378,0.056521885,0.0997637,0.15018968,0.13476843,0.24323219,0.38339502,0.2661416,0.18162763,0.015200024,0.1481628,0.056969814,-0.17992698,-0.27446142,0.041778028,-0.33185053,817.1429,793.7729,802.6374,814.3223,758.315,-0.2835693359375,0.00250244140625,0.963134765625,4.53094482421875,-5.196380615234375,1.233673095703125,1,1.0,1.0,1.0,1.0,35.00
2021-04-09 22:38:49.115,-0.08003737,0.091920525,0.37021804,-0.07279052,0.12667428,4.228867E-5,-0.06401529,0.1732609,0.21333764,0.12725697,0.027141629,0.2678514,0.13092302,0.026891682,0.21580938,0.008747198,-0.2295922,-0.33131382,-0.11738366,-0.3066074,807.47253,796.1905,810.293,813.1135,853.00366,-0.27435302734375,0.00323486328125,0.9632568359375,4.74029541015625,-4.0972900390625,1.158905029296875,1,1.0,1.0,1.0,1.0,35.00
2021-04-09 22:38:49.629,-0.04814951,0.053826123,0.2949061,0.100855835,0.20793548,0.11505225,-0.024845913,0.12107523,0.30429265,0.16805717,0.059304714,0.25941393,0.03492517,0.072040364,0.22815868,0.0012220907,-0.31231177,-0.40842697,-0.1717194,-0.25746834,814.3223,796.99634,802.6374,799.41394,640.65936,-0.2684326171875,0.0042724609375,0.96234130859375,4.403839111328125,-5.465545654296875,0.49346923828125,1,1.0,1.0,1.0,1.0,40.00
2021-04-09 22:38:50.155,-0.09627363,0.10785555,0.3543873,0.19973303,0.13309625,-0.008322336,0.22105363,0.13037916,0.32679632,0.1150896,0.47485968,0.15498519,-0.012713151,0.067564525,0.2951813,-0.06354387,-0.5224602,-0.44672295,-0.14603145,-0.27741095,827.2161,813.5165,809.89014,817.5458,946.8865,-0.283203125,6.103515625E-5,0.96405029296875,4.26177978515625,-3.9776611328125,0.919647216796875,1,1.0,1.0,1.0,1.0,40.00
2021-04-09 22:38:50.683,0.03405958,0.1514072,0.6231834,0.33261392,0.25551704,0.068969496,0.458111,0.04272723,0.30433232,0.20240979,0.5364388,0.088384226,-0.03184436,0.049878497,0.22154674,-0.051909667,-0.5711618,-0.42943072,0.010850057,-0.27856004,811.9048,796.5934,809.4872,827.619,776.4469,-0.27947998046875,-0.0054931640625,0.967041015625,4.2169189453125,-3.5888671875,-0.022430419921875,1,1.0,1.0,1.0,1.0,40.00
2021-04-09 22:38:51.211,0.1282101,0.2486475,0.6575235,0.32606673,0.35059687,0.08630815,0.4473225,-0.025839143,0.30433232,0.36885795,0.5374845,0.088384226,-0.017734965,0.10816283,0.22147125,-0.11287899,-0.55292785,-0.40440795,0.030335924,-0.3141891,814.7253,800.2198,814.7253,819.15753,739.7802,-0.28466796875,0.00146484375,0.9654541015625,4.912261962890625,-4.5758056640625,0.186920166015625,1,1.0,1.0,1.0,1.0,40.00
2021-04-09 22:38:51.735,0.48142555,0.22920752,0.53007483,0.5789851,-0.3404361,0.13326102,0.28429016,0.2984156,0.33644432,0.38247892,0.52332485,0.43244043,0.18420334,0.097231954,0.16970746,0.15284868,-0.47143292,-0.46735105,0.011165538,-0.16020946,799.011,792.1612,803.0403,821.978,1106.044,-0.2913818359375,-0.001708984375,0.9617919921875,4.38140869140625,-4.78515625,0.61309814453125,1,1.0,1.0,1.0,1.0,40.00
2021-04-09 22:38:52.262,0.40521377,0.18945378,0.09324379,0.4577973,-0.1889381,0.11344761,-0.27690828,0.14844662,0.45502302,0.39905578,0.09388958,0.4472074,0.15012945,0.026016487,0.17709865,0.17522906,-0.46067476,-0.41813123,-0.1790849,-0.1440842,794.57874,799.81683,803.0403,812.71063,771.2088,-0.27789306640625,-0.0029296875,0.958251953125,4.493560791015625,-4.85992431640625,0.55328369140625,1,1.0,1.0,1.0,1.0,40.00
2021-04-09 22:38:52.788,0.28237224,0.0044400436,-0.009618194,0.32548684,0.0070441887,0.06533462,-0.057223152,0.084575295,0.5216157,0.18153131,-0.15228361,0.50875145,0.1959866,-0.022008233,0.18701872,0.25445727,-0.46953306,-0.48013148,-0.16686535,-0.20991336,808.2784,802.6374,807.47253,819.9634,787.72894,-0.27935791015625,-0.0081787109375,0.96343994140625,4.373931884765625,-5.06927490234375,0.6280517578125,1,1.0,1.0,1.0,1.0,40.00
2021-04-09 22:38:53.298,0.09789024,0.18347956,-0.024041394,0.1648436,-0.010554508,0.014868008,-0.032637373,-0.051570695,0.50719464,0.16402529,-0.040802363,0.36860856,0.2023804,-0.04509313,0.23071271,0.24400738,-0.44239846,-0.4439397,-0.22700056,-0.26940942,804.2491,804.65204,800.6227,810.696,593.5165,-0.27752685546875,-0.00982666015625,0.96484375,4.85992431640625,-4.844970703125,1.024322509765625,1,1.0,1.0,1.0,1.0,40.00
2021-04-09 22:38:53.812,0.005055288,0.3890533,0.112829365,0.18338959,-0.043622274,0.13125841,0.077296525,0.050104834,0.47629848,0.28040797,-0.034151543,0.36185843,0.25341228,-0.003314234,0.2104033,0.22371124,-0.44661987,-0.45815578,-0.089490615,-0.37548783,820.7692,809.89014,806.6667,811.9048,617.28937,-0.28045654296875,-0.00927734375,0.9656982421875,4.91973876953125,-4.17205810546875,1.039276123046875,1,1.0,1.0,1.0,1.0,40.00
2021-04-09 22:38:54.327,0.15805292,0.62590206,0.3535106,0.34087816,-0.39284858,0.31356397,0.16365418,0.020714203,-0.078292295,0.4099003,0.23752253,0.19653563,0.2209344,-0.03433689,0.146212,0.07404493,-0.49610385,-0.36489838,-0.043723233,-0.34738702,805.05493,809.0842,793.36993,807.8755,870.7326,-0.28948974609375,-0.0096435546875,0.9583740234375,4.26177978515625,-1.338348388671875,-0.1495361328125,1,1.0,1.0,1.0,1.0,40.00
2021-04-09 22:38:54.842,0.1706289,0.679479,0.4184287,0.37465292,-0.36774468,0.4001512,0.17421274,-0.003464099,-0.14340475,0.45396787,0.2759827,0.1505397,0.24043782,0.06686756,0.0826271,0.07302307,-0.5348999,-0.37683532,-0.019677663,-0.33783707,804.2491,799.81683,812.71063,814.3223,801.02563,-0.33087158203125,0.00909423828125,0.94818115234375,2.6318359375,-2.03369140625,1.517791748046875,1,1.0,1.0,1.0,1.0,40.00
2021-04-09 22:38:55.349,0.044192806,0.6573787,0.34503514,0.38605025,0.18438102,0.33075717,0.12260262,0.22475319,0.28160056,0.41998404,0.29233566,0.5743118,0.0077158487,0.07896208,0.055423144,0.2486415,-0.2537974,-0.34050032,-0.13524899,-0.35456476,810.696,799.41394,809.0842,815.12823,959.3773,-0.3507080078125,-0.0120849609375,0.94390869140625,0.022430419921875,-2.07855224609375,13.1292724609375,1,1.0,1.0,1.0,1.0,40.00
2021-04-09 22:38:55.868,0.12190607,0.5800331,0.24849473,0.32913408,0.14523421,0.22578816,0.1246129,0.22770064,0.2827499,0.41896302,0.30163708,0.6301762,0.16039135,0.08325949,0.07803747,0.25161597,-0.3269263,-0.36950493,-0.25509492,-0.26466456,799.41394,797.8022,808.2784,801.4286,621.7216,-0.30718994140625,-0.090087890625,0.892333984375,-11.342315673828125,3.461761474609375,-15.372314453125,1,1.0,1.0,1.0,1.0,40.00
2021-04-09 22:38:56.377,0.016555876,0.47119027,0.27473274,0.23026036,0.03941271,0.10365509,0.18067782,0.17858444,0.3516075,0.22899136,0.2295847,0.64773357,0.31192094,0.026365686,0.024012178,0.24076036,-0.31075388,-0.32667103,-0.22565264,-0.24599262,807.8755,799.41394,806.26373,806.26373,852.1978,-0.3067626953125,-0.00396728515625,0.96759033203125,14.84893798828125,-8.5833740234375,17.069549560546875,1,1.0,1.0,1.0,1.0,40.00
2021-04-09 22:38:56.902,0.06906236,0.45960563,0.3409873,0.354341,-0.07193302,0.008938878,0.12324452,0.044134293,0.5876959,0.21018504,0.21455431,0.62586796,0.3895598,0.060681306,0.021170825,0.23698086,-0.2761239,-0.34881476,-0.20911118,-0.265917,805.8608,796.99634,811.9048,825.2015,1009.7436,-0.3218994140625,0.046875,0.9544677734375,5.4730224609375,-7.693634033203125,-1.861724853515625,1,1.0,1.0,1.0,1.0,40.00
2021-04-09 22:38:57.404,0.18867666,0.27752715,0.25338137,0.40831992,0.066982076,-0.1269438,-0.06212227,0.04867784,0.6399409,0.20914523,0.046027377,0.5522703,0.39534456,0.06852076,0.08188752,0.2209933,-0.28542536,-0.32895812,-0.114327945,-0.25013724,727.28937,789.7436,808.2784,743.00366,862.27106,-0.28228759765625,0.055908203125,0.9427490234375,2.22808837890625,-5.72723388671875,0.76263427734375,1,1.0,1.0,1.0,1.0,40.00
2021-04-09 22:38:57.913,0.30971384,0.45719546,0.32269257,0.50513256,0.17947271,0.11178162,-0.010185642,0.043640796,0.6399409,0.2616048,-0.15287676,0.44456977,0.3311396,0.09462949,0.19697781,0.18780196,-0.29895052,-0.24009782,-0.0637138,-0.23172186,823.1868,807.47253,805.4579,826.4103,703.91943,-0.3665771484375,0.00701904296875,0.931640625,10.759124755859375,2.19818115234375,-2.930908203125,1,1.0,1.0,1.0,1.0,40.00
2021-04-09 22:38:58.422,0.43130025,0.78953165,0.44357398,0.40712476,0.3418675,0.3368646,0.18956012,0.24116853,0.5016344,0.28425685,0.015388948,0.44301122,0.31386077,0.08852884,0.23795684,0.20878436,-0.47660407,-0.19154888,-0.011393981,-0.11548861,810.696,798.60803,811.0989,811.0989,874.7619,-0.29498291015625,0.060791015625,0.9532470703125,5.615081787109375,-6.280517578125,-5.211334228515625,1,1.0,1.0,1.0,1.0,40.00
2021-04-09 22:38:58.931,0.4452199,0.82118106,0.44145796,0.41411936,0.35911205,0.3364326,0.16042653,0.2731825,0.47953892,0.279272,0.03903568,0.44301122,0.33255026,0.110351905,0.22182734,0.23322698,-0.50770223,-0.1902055,-0.07417247,-0.0780139,801.02563,799.011,801.4286,794.57874,688.20514,-0.24700927734375,0.06011962890625,0.98046875,11.073150634765625,-16.0003662109375,-2.684173583984375,1,1.0,1.0,1.0,1.0,40.00
2021-04-09 22:38:59.440,0.4452199,0.73844665,0.3461209,0.41411936,0.35911205,0.20670038,0.08169835,0.2731825,0.47953892,0.26877505,0.056425713,0.44301122,0.33255026,0.12500043,0.20649664,0.23322698,-0.50770223,-0.24473055,-0.16089584,-0.0780139,846.1539,798.60803,804.65204,856.2271,823.5897,-0.2930908203125,0.07012939453125,0.95684814453125,6.990814208984375,-2.16827392578125,-2.3028564453125,1,1.0,1.0,1.0,1.0,40.00
2021-04-09 22:38:59.942,0.4452199,0.25984576,0.03394052,0.41411936,0.35911205,-0.12446748,-0.24325709,0.2731825,0.47953892,0.20280734,-0.040022936,0.44301122,0.33255026,0.1245355,0.2290147,0.23322698,-0.50770223,-0.28030175,-0.26426288,-0.0780139,814.7253,804.2491,812.3077,804.65204,609.6337,-0.251708984375,0.0645751953125,0.96856689453125,4.11224365234375,-7.559051513671875,-2.788848876953125,1,1.0,1.0,1.0,1.0,30.00
2021-04-09 22:39:00.444,0.4452199,0.26465467,-0.23674399,0.41411936,0.35911205,0.13854757,-0.31150544,0.2731825,0.47953892,0.2303887,-0.21736076,0.44301122,0.33255026,0.17561398,0.26976433,0.23322698,-0.50770223,-0.30302018,-0.24104461,-0.0780139,808.68134,807.47253,802.6374,802.23444,664.83514,-0.22174072265625,0.0640869140625,0.9549560546875,15.663909912109375,-4.62066650390625,-11.656341552734375,1,2.0,1.0,1.0,2.0,30.00
2021-04-09 22:39:00.966,0.50734967,0.31700414,0.3477027,0.38748544,0.4140723,0.18759589,-0.11635223,0.08189416,0.09974206,0.09691574,0.21851203,0.2209285,0.41282368,0.138047,0.3801649,0.22955383,-0.15434182,-0.39829966,0.041995563,-0.4479579,812.3077,795.38464,802.23444,813.1135,854.21246,-0.2586669921875,0.0621337890625,0.96734619140625,2.310333251953125,-6.033782958984375,0.5682373046875,1,1.0,1.0,1.0,1.0,30.00
2021-04-09 22:39:01.486,0.44937977,0.35906124,0.33254752,0.34621164,0.40331063,0.22150137,-0.09947821,0.15158318,0.20031625,0.22309321,0.24913478,0.30343398,0.3905915,0.1105392,0.36824885,0.20052417,-0.19020319,-0.33441424,0.009783807,-0.42959875,827.619,798.60803,801.8315,813.1135,666.04395,-0.271484375,0.04046630859375,0.96575927734375,1.009368896484375,-4.927215576171875,0.620574951171875,1,1.0,1.0,1.0,1.0,30.00
2021-04-09 22:39:01.996,0.44937977,0.31730583,0.34687626,0.34621164,0.40331063,0.053347424,0.0675944,0.15158318,0.20031625,0.28760183,0.25547004,0.30343398,0.3905915,0.09283319,0.2711509,0.20052417,-0.19020319,-0.3517145,0.021454524,-0.42959875,806.26373,799.41394,802.6374,802.23444,679.7436,-0.2757568359375,0.0191650390625,0.96881103515625,4.777679443359375,-2.923431396484375,0.49346923828125,1,1.0,1.0,1.0,1.0,30.00
2021-04-09 22:39:02.519,0.3589258,0.22939731,0.24659915,0.20096244,0.3262034,-0.031555325,0.07249354,0.20103583,0.1604182,0.28760183,0.21244818,0.25686058,0.40464738,0.08977051,0.18036444,0.13318208,-0.21732473,-0.371578,0.04167357,-0.38746294,834.4689,800.2198,808.68134,839.707,828.8278,-0.27886962890625,0.01580810546875,0.96356201171875,2.25799560546875,-4.732818603515625,1.973876953125,1,1.0,1.0,1.0,1.0,30.00
2021-04-09 22:39:03.050,0.3589258,0.054127645,0.21488874,0.20096244,0.3262034,-0.26605394,0.11103571,0.20103583,0.1604182,0.4076541,0.034944057,0.25686058,0.40464738,0.024467058,0.0660337,0.13318208,-0.21732473,-0.451525,0.10394786,-0.38746294,805.4579,803.44324,801.8315,807.47253,686.5934,-0.3214111328125,-0.03887939453125,0.94708251953125,4.77020263671875,-2.58697509765625,1.278533935546875,1,1.0,1.0,1.0,1.0,30.00
2021-04-09 22:39:03.569,0.3589258,-0.18781328,0.017441206,0.20096244,0.3262034,-0.3154075,-0.0027104805,0.20103583,0.1604182,0.37374157,0.07124383,0.25686058,0.40464738,-0.11776139,0.16660349,0.13318208,-0.21732473,-0.48021492,0.011425862,-0.38746294,816.337,794.17584,812.71063,826.0073,942.0513,-0.29913330078125,-0.01361083984375,0.96209716796875,4.897308349609375,-4.007568359375,1.92901611328125,1,1.0,1.0,1.0,1.0,30.00
2021-04-09 22:39:04.073,-0.19521861,-0.04711543,-0.08739742,0.016556207,-0.2138573,-0.4122951,-0.051131934,0.011883844,0.44201303,0.37656432,0.028416848,0.16996975,0.1634295,-0.18231435,0.17319414,0.44948035,-0.32825553,-0.46123627,-0.08614788,-0.08719764,709.5604,798.60803,799.41394,724.87177,1127.8022,-0.29119873046875,-0.0101318359375,0.96466064453125,4.844970703125,-2.97576904296875,0.25421142578125,1,1.0,1.0,1.0,1.0,30.00
2021-04-09 22:39:04.586,-0.19521861,0.05375983,-0.23814017,0.016556207,-0.2138573,-0.37320122,-0.0738741,0.011883844,0.44201303,0.007820457,0.08768882,0.16996975,0.1634295,-0.19192548,0.18420896,0.44948035,-0.32825553,-0.456559,-0.1081529,-0.08719764,810.293,799.81683,803.44324,804.2491,647.1062,-0.3096923828125,-0.09771728515625,0.9393310546875,0.515899658203125,-5.016937255859375,0.7476806640625,1,1.0,1.0,1.0,1.0,30.00
2021-04-09 22:39:05.119,-0.2232881,0.31861824,-0.18391377,0.02216385,-0.18064213,-0.10511854,-0.012096791,-0.020922907,0.4347784,-0.0072870255,0.30589125,0.11119678,0.1392189,-0.12628043,0.12959445,0.42963478,-0.36284548,-0.39122736,0.019801212,-0.08447475,817.5458,804.65204,805.4579,802.6374,737.3626,-0.30743408203125,-0.0758056640625,0.95428466796875,5.3533935546875,-7.29736328125,0.10467529296875,1,1.0,1.0,1.0,1.0,30.00
2021-04-09 22:39:05.632,-0.2232881,0.2961616,-0.07719567,0.02216385,-0.18064213,-0.03820998,-0.005863582,-0.020922907,0.4347784,-0.003218114,0.2984386,0.11119678,0.1392189,-0.0063631674,0.19460915,0.42963478,-0.36284548,-0.36735478,0.0601054,-0.08447475,805.4579,795.78754,796.99634,807.0696,748.6447,-0.30340576171875,-0.060302734375,0.95416259765625,8.486175537109375,-7.245025634765625,0.94207763671875,1,1.0,1.0,1.0,1.0,30.00
2021-04-09 22:39:06.153,-0.2232881,0.41539282,-0.011704894,0.02216385,-0.18064213,0.011603989,0.050392512,-0.020922907,0.4347784,0.18606927,0.2971644,0.11119678,0.1392189,0.08476976,0.20417017,0.42963478,-0.36284548,-0.33687106,0.024888733,-0.08447475,809.89014,813.91943,788.1319,814.7253,785.7143,-0.2952880859375,-0.03863525390625,0.9580078125,5.21881103515625,-2.79632568359375,-0.082244873046875,1,1.0,1.0,1.0,1.0,30.00
2021-04-09 22:39:06.658,-0.2232881,0.61513317,0.28567827,0.02216385,-0.18064213,0.07929838,0.13805005,-0.020922907,0.4347784,0.43179303,0.23882094,0.11119678,0.1392189,0.12013756,0.21796711,0.42963478,-0.36284548,-0.22490361,-0.024898581,-0.08447475,819.5604,793.7729,811.50183,821.1722,764.7619,-0.28839111328125,-0.02996826171875,0.9588623046875,6.02630615234375,-3.985137939453125,-0.755157470703125,1,1.0,1.0,1.0,1.0,30.00
2021-04-09 22:39:07.178,-0.2232881,0.6507492,0.36484402,0.02216385,-0.18064213,0.12832832,0.22043169,-0.020922907,0.4347784,0.43179303,0.19432329,0.11119678,0.1392189,0.08201169,0.20975633,0.42963478,-0.36284548,-0.22025317,-0.048652045,-0.08447475,800.6227,801.4286,805.8608,796.99634,543.5531,-0.28448486328125,-0.01837158203125,0.96661376953125,5.091705322265625,-5.323486328125,0.22430419921875,1,2.0,1.0,1.0,2.0,30.00
2021-04-09 22:39:07.699,-0.11920822,0.5435053,0.3050951,0.30066994,0.2131631,0.05857045,0.17868824,0.35316136,0.58339113,0.42935207,0.083465256,0.5244642,0.031747855,0.03855158,0.19993551,0.12241005,-0.46108136,-0.23844434,-0.101987876,-0.3300454,808.2784,791.3553,810.696,801.02563,679.34064,-0.30047607421875,-0.0179443359375,0.96099853515625,4.366455078125,-3.282318115234375,0.770111083984375,1,1.0,1.0,1.0,1.0,30.00
2021-04-09 22:39:08.203,-0.3134913,-0.00404765,-0.031746514,0.11007014,0.29212096,-0.09376515,0.08514971,0.22036949,0.58807856,0.3055127,0.1869554,0.5244642,0.09757202,-0.048950132,0.24514665,0.09183757,-0.44457734,-0.40716597,-0.13918748,-0.37139368,805.4579,803.44324,805.4579,817.5458,897.326,-0.2938232421875,-0.01580810546875,0.95751953125,5.031890869140625,-5.450592041015625,0.441131591796875,1,1.0,1.0,1.0,1.0,30.00
2021-04-09 22:39:08.723,-0.41948405,-0.098227285,-0.48057204,-0.16134393,0.25724757,-0.20373029,-0.03856199,0.16394418,0.5957566,-0.0071039977,0.18804455,0.57305217,0.09360856,-0.048652615,0.22197635,0.065741576,-0.47710112,-0.3857721,-0.20755255,-0.35079882,806.26373,798.60803,804.65204,819.15753,830.0366,-0.29083251953125,-0.01837158203125,0.96380615234375,4.56085205078125,-4.837493896484375,0.276641845703125,1,1.0,1.0,1.0,1.0,30.00
2021-04-09 22:39:09.224,-0.34589612,0.077282295,-0.25586775,-0.065221615,0.17120525,-0.23994854,0.010784792,0.20023748,0.5439819,0.017197529,0.181868,0.5034963,0.17049119,-0.039800096,0.19354345,0.16101675,-0.44480598,-0.3837077,-0.18654522,-0.38223052,806.6667,800.2198,801.02563,806.6667,730.10986,-0.29339599609375,-0.01861572265625,0.9541015625,4.17205810546875,-4.284210205078125,0.635528564453125,1,1.0,1.0,1.0,1.0,30.00
2021-04-09 22:39:09.756,-0.16241029,0.15163283,-0.15643093,0.18859789,0.009336136,-0.26290503,-0.028044965,0.29141924,0.57998073,0.07092991,0.08275009,0.48556578,0.20659472,0.11444931,0.14257722,0.1716434,-0.4395946,-0.3609529,-0.25788203,-0.3566801,808.2784,799.41394,804.65204,800.6227,880.0,-0.29632568359375,-0.02337646484375,0.9580078125,5.196380615234375,-4.822540283203125,0.934600830078125,1,1.0,1.0,1.0,1.0,30.00
2021-04-09 22:39:10.279,-0.09206644,0.073406376,-0.09438725,0.25695553,0.033670932,-0.21036536,-0.05539183,0.2930718,0.5283024,0.12107957,0.03393002,0.31915677,0.25943607,0.093586266,0.07834655,0.1911215,-0.43473935,-0.4585925,-0.1233725,-0.36332083,828.4249,798.20514,803.44324,838.49817,720.4396,-0.28631591796875,-0.0213623046875,0.9635009765625,4.463653564453125,-5.106658935546875,0.560760498046875,1,1.0,1.0,1.0,1.0,35.00
2021-04-09 22:39:10.806,-0.09396144,0.653094,0.13101971,0.133872,0.20891179,0.14058955,0.09757702,0.1509689,0.5261269,0.10311313,0.021784706,0.03610842,0.2719742,0.06300163,0.10825521,0.079321526,-0.48034155,-0.49898303,-0.0797964,-0.4082295,811.50183,789.7436,807.47253,828.022,1170.5128,-0.2874755859375,-0.0152587890625,0.96380615234375,4.628143310546875,-4.3365478515625,-0.31402587890625,1,1.0,1.0,1.0,1.0,35.00
2021-04-09 22:39:11.317,-0.12425774,0.69523215,0.24592157,-0.22359782,0.3379935,0.10381623,0.13335937,0.07976858,0.32433227,0.005923276,-0.14293976,-0.08193076,0.2723325,-0.03098337,0.11719228,0.09093452,-0.5551313,-0.41430983,0.015003596,-0.4411298,807.47253,808.68134,802.6374,804.2491,803.44324,-0.29058837890625,-0.01947021484375,0.9580078125,5.09918212890625,-5.869293212890625,1.6748046875,1,1.0,1.0,1.0,1.0,35.00
2021-04-09 22:39:11.826,-0.12425774,0.81071275,0.24557884,-0.22359782,0.3379935,0.13925174,0.16978835,0.07976858,0.32433227,-0.009721328,0.078497,-0.08193076,0.2723325,0.04648429,0.12542525,0.09093452,-0.5551313,-0.39108142,-0.054441255,-0.4411298,804.2491,801.02563,800.6227,820.3663,792.5641,-0.281982421875,0.02484130859375,0.95880126953125,7.67120361328125,-6.4898681640625,7.716064453125,1,1.0,1.0,1.0,1.0,35.00
2021-04-09 22:39:12.354,-0.12425774,0.7980751,0.19213279,-0.22359782,0.3379935,0.0049094628,0.21852794,0.07976858,0.32433227,0.1528075,0.13249399,-0.08193076,0.2723325,0.1090647,0.23140931,0.09093452,-0.5551313,-0.36751804,-0.04837431,-0.4411298,818.3516,796.99634,798.60803,809.4872,896.9231,-0.26031494140625,0.05712890625,0.96966552734375,6.57958984375,-7.58148193359375,-0.1495361328125,1,1.0,1.0,1.0,1.0,35.00
2021-04-09 22:39:12.859,-0.12425774,0.7712906,0.095099375,-0.22359782,0.3379935,0.06446389,0.17275438,0.07976858,0.32433227,0.25158834,0.13249399,-0.08193076,0.2723325,0.16853116,0.27904922,0.09093452,-0.5551313,-0.48917386,-0.035314694,-0.4411298,689.81683,762.74725,855.0183,712.381,805.4579,-0.23590087890625,0.037841796875,0.97601318359375,4.53094482421875,-6.4898681640625,-6.7889404296875,1,2.0,1.0,1.0,2.0,35.00
2021-04-09 22:39:13.375,-0.12425774,0.8881506,0.18157451,-0.22359782,0.3379935,0.23670688,0.25729164,0.07976858,0.32433227,0.4678228,0.12832372,-0.08193076,0.2723325,0.19804744,0.34857216,0.09093452,-0.5551313,-0.34921354,0.017232513,-0.4411298,813.91943,805.05493,842.9304,824.3956,786.9231,-0.22509765625,0.019287109375,0.97784423828125,3.760833740234375,-5.3533935546875,-0.07476806640625,1,2.0,1.0,1.0,2.0,35.00
2021-04-09 22:39:13.884,-0.12425774,0.70504075,-0.0805626,-0.22359782,0.3379935,0.20877728,-0.18199031,0.07976858,0.32433227,0.4465797,-0.21907917,-0.08193076,0.2723325,0.2175869,0.33405977,0.09093452,-0.5551313,-0.30376026,0.1048861,-0.4411298,867.1062,795.38464,798.60803,864.68866,753.0769,-0.2314453125,0.00146484375,0.9730224609375,4.0972900390625,-4.4561767578125,1.891632080078125,1,2.0,1.0,1.0,2.0,35.00
2021-04-09 22:39:14.407,-0.12425774,0.9329343,-0.0805626,-0.22359782,0.3379935,0.42930377,-0.18199031,0.07976858,0.32433227,0.46071693,-0.21907917,-0.08193076,0.2723325,0.15469494,0.33405977,0.09093452,-0.5551313,-0.18023226,0.1048861,-0.4411298,818.7546,816.337,804.2491,808.2784,575.78754,-0.2559814453125,0.0242919921875,0.9718017578125,5.90667724609375,-4.358978271484375,4.17205810546875,1,2.0,1.0,1.0,2.0,35.00
2021-04-09 22:39:14.911,-0.12425774,0.96553826,0.79212093,-0.22359782,0.3379935,0.6513084,0.28362292,0.07976858,0.32433227,0.33721483,0.45885915,-0.08193076,0.2723325,0.24325237,0.59156114,0.09093452,-0.5551313,-0.12187302,-0.34346828,-0.4411298,809.0842,774.0293,830.4396,801.02563,950.10986,-0.2581787109375,0.0518798828125,0.97589111328125,5.480499267578125,-6.6094970703125,1.009368896484375,1,2.0,1.0,1.0,2.0,35.00
2021-04-09 22:39:15.418,-0.12425774,0.96602863,0.807698,-0.22359782,0.3379935,0.61605996,0.23716223,0.07976858,0.32433227,0.3514464,0.48272896,-0.08193076,0.2723325,0.25568733,0.5706019,0.09093452,-0.5551313,-0.10434949,-0.27600092,-0.4411298,803.8461,796.1905,787.72894,823.5897,1230.9524,-0.2469482421875,0.04583740234375,0.9727783203125,4.44122314453125,-3.506622314453125,2.03369140625,1,2.0,1.0,1.0,2.0,35.00
2021-04-09 22:39:15.924,0.5517175,1.0242425,0.807698,0.42728245,-0.2064509,0.6836629,0.23716223,-0.04280822,0.750412,0.306663,0.48272896,1.0836086,0.4401232,0.31509238,0.5706019,0.5091689,-0.3364224,-0.060448486,-0.27600092,-0.11965074,798.20514,807.8755,784.5055,790.54944,758.315,-0.2540283203125,0.04766845703125,0.96954345703125,4.702911376953125,-4.747772216796875,0.426177978515625,1,1.0,1.0,1.0,1.0,35.00
2021-04-09 22:39:16.425,0.42752022,0.8587903,0.73462147,0.60002416,-0.03670121,-0.022110432,0.2990359,0.034743544,0.7703587,0.3256646,0.30118376,1.0900983,0.36030206,0.14023854,0.30805904,0.47009742,-0.34190938,-0.16708924,-0.17845827,-0.10765526,814.7253,790.54944,804.2491,817.1429,1039.1575,-0.24517822265625,0.04833984375,0.97491455078125,4.50103759765625,-4.867401123046875,0.07476806640625,1,1.0,1.0,1.0,1.0,35.00
2021-04-09 22:39:16.956,0.18586454,0.65156204,0.6025425,0.61744434,-0.05027334,-0.18403322,0.22792315,0.026471848,0.44935086,0.2171786,0.17407061,0.6969461,0.27529618,0.047027055,0.16394265,0.43870303,-0.39585292,-0.46908835,-0.25682962,-0.18029419,803.44324,806.6667,801.02563,814.3223,866.30035,-0.25299072265625,0.0435791015625,0.968017578125,4.26177978515625,-3.63372802734375,1.256103515625,1,1.0,1.0,1.0,1.0,35.00
2021-04-09 22:39:17.457,-0.12391319,0.68894875,0.43715185,0.6003678,-0.010388519,-0.21717885,0.113283895,0.13391495,0.3873415,0.46212277,0.35687348,0.36576253,0.19964156,0.18145716,0.10480948,0.37491658,-0.3511393,-0.52788264,-0.1792069,-0.14730783,807.47253,792.5641,803.0403,809.89014,892.49084,-0.2623291015625,0.01922607421875,0.951904296875,10.699310302734375,1.039276123046875,0.082244873046875,1,1.0,1.0,1.0,1.0,35.00
2021-04-09 22:39:17.979,-0.044502653,0.58972996,0.22929764,0.34825143,-0.12535751,-0.07750358,-0.015750252,0.1372505,0.26695484,0.44407618,0.37634674,0.35552934,0.1924506,0.16843985,0.11754392,0.31612068,-0.3190598,-0.5210523,-0.17090333,-0.2177508,737.76556,786.1172,819.15753,730.10986,669.2674,-0.30316162109375,0.1468505859375,0.95001220703125,1.5850830078125,-5.8917236328125,7.080535888671875,1,1.0,1.0,1.0,1.0,35.00
2021-04-09 22:39:18.499,-0.029126594,0.5882258,0.15355243,0.17633206,-0.12347353,0.027005147,0.05331588,0.1662769,0.23156646,0.49595556,0.37232882,0.34141538,0.18393302,0.16147776,0.08279131,0.28894475,-0.26527098,-0.45897588,-0.11090312,-0.23625588,814.3223,803.0403,804.65204,800.6227,561.685,-0.28515625,0.11865234375,0.95819091796875,3.7384033203125,-5.659942626953125,-0.321502685546875,1,1.0,1.0,1.0,1.0,35.00
2021-04-09 22:39:19.004,0.24562332,0.81122214,0.67798346,0.17382295,-0.16213796,0.40022436,0.38085935,0.15616103,0.024917932,0.4929714,0.41278848,0.15543436,0.17929807,0.039938465,0.18859456,0.18895474,-0.20635241,-0.2697031,-0.024566067,-0.22840352,811.50183,800.2198,809.4872,803.8461,631.79486,-0.28125,0.097900390625,0.96038818359375,3.69354248046875,-6.32537841796875,0.2093505859375,1,1.0,1.0,1.0,1.0,35.00
2021-04-09 22:39:19.521,0.24562332,0.7901415,0.70796883,0.17382295,-0.16213796,0.3517705,0.3787532,0.15616103,0.024917932,0.45923513,0.29909873,0.15543436,0.17929807,0.021884326,0.14576533,0.18895474,-0.20635241,-0.26957157,-0.02141705,-0.22840352,807.0696,801.4286,799.41394,797.3993,759.92676,-0.26580810546875,0.09454345703125,0.96502685546875,4.3365478515625,-5.03936767578125,-0.4486083984375,1,1.0,1.0,1.0,1.0,35.00
2021-04-09 22:39:20.047,0.23514262,0.7076323,0.5860957,0.18981647,0.28753105,0.31244016,0.26700196,0.18228072,0.5509896,0.3790956,0.30123696,0.3016437,0.19857296,-0.057854943,0.17639998,0.02846271,-0.44252917,-0.32416084,-0.052168336,-0.32754835,804.2491,805.8608,809.0842,815.5311,803.44324,-0.2591552734375,0.093994140625,0.96722412109375,4.119720458984375,-5.196380615234375,-0.127105712890625,1,1.0,1.0,1.0,1.0,35.00
2021-04-09 22:39:20.550,0.24382494,0.41934982,0.016070142,0.15627097,0.28147307,0.03303132,-0.12349008,0.14574903,0.553861,0.2544721,0.0811658,0.3016437,0.22759856,-0.05656599,0.09463282,0.07271875,-0.43985686,-0.38517502,-0.20743273,-0.3349821,813.5165,803.0403,802.23444,819.5604,788.5348,-0.25628662109375,0.07794189453125,0.96588134765625,4.18701171875,-3.940277099609375,-0.1495361328125,1,1.0,1.0,1.0,1.0,35.00
2021-04-09 22:39:21.060,0.20915902,0.8165881,-0.1575718,0.11289781,0.27413806,0.1451081,-0.1647372,0.053542662,0.10709401,0.24627483,0.1650011,0.14344148,0.32302192,-0.041025423,0.15029007,0.11672566,-0.51305187,-0.35098693,-0.20574503,-0.34744412,799.011,791.75824,814.7253,798.20514,613.2601,-0.24786376953125,0.06829833984375,0.97039794921875,4.41131591796875,-6.422576904296875,0.605621337890625,1,1.0,1.0,1.0,1.0,35.00
2021-04-09 22:39:21.571,0.18684056,0.8765768,0.33153945,-0.017927345,0.23614705,0.31171432,0.0070219645,-0.11256306,0.08710231,0.27151528,0.19470146,-0.1478431,0.41666433,0.0065896884,0.17113812,0.19030291,-0.49801296,-0.3497091,-0.1528188,-0.3216375,804.65204,794.57874,798.20514,817.9487,816.7399,-0.23126220703125,0.07373046875,0.97412109375,4.0972900390625,-6.11602783203125,0.7177734375,1,1.0,1.0,1.0,1.0,35.00
2021-04-09 22:39:22.101,0.18684056,0.8370464,0.3571427,-0.017927345,0.23614705,0.3891569,0.06784762,-0.11256306,0.08710231,0.5836072,0.20823875,-0.1478431,0.41666433,-0.025494963,0.25293443,0.19030291,-0.49801296,-0.4211377,-0.15629095,-0.3216375,819.15753,793.7729,813.91943,836.08057,1152.7839,-0.24365234375,0.059814453125,0.9727783203125,4.194488525390625,-3.5589599609375,0.426177978515625,1,1.0,1.0,1.0,1.0,35.00
2021-04-09 22:39:22.609,0.18684056,0.49241388,0.533256,-0.017927345,0.23614705,0.57466567,0.27453336,-0.11256306,0.08710231,0.57822496,0.44832498,-0.1478431,0.41666433,0.0040748194,0.24144073,0.19030291,-0.49801296,-0.47205803,-0.17916095,-0.3216375,809.4872,794.9817,811.9048,818.3516,914.65204,-0.23907470703125,0.0557861328125,0.97119140625,4.448699951171875,-5.704803466796875,1.30096435546875,1,1.0,1.0,1.0,1.0,35.00
2021-04-09 22:39:23.139,0.18684056,0.45676956,0.39975056,-0.017927345,0.23614705,0.47726852,0.25629553,-0.11256306,0.08710231,0.65292525,0.43472636,-0.1478431,0.41666433,0.10673082,0.19328052,0.19030291,-0.49801296,-0.43526527,-0.25999779,-0.3216375,802.6374,787.72894,796.5934,818.7546,767.98535,-0.2325439453125,0.05670166015625,0.97564697265625,4.2767333984375,-4.26177978515625,0.306549072265625,1,2.0,1.0,1.0,2.0,35.00
2021-04-09 22:39:23.664,0.18684056,0.42615646,0.46984333,-0.017927345,0.23614705,0.38010022,0.46116096,-0.11256306,0.08710231,0.7633193,0.43619165,-0.1478431,0.41666433,0.07760884,0.058662135,0.19030291,-0.49801296,-0.3641321,-0.1869343,-0.3216375,817.9487,786.9231,819.15753,816.7399,1105.641,-0.23809814453125,0.0589599609375,0.97607421875,4.605712890625,-4.463653564453125,1.069183349609375,1,2.0,1.0,1.0,2.0,35.00
2021-04-09 22:39:24.168,0.18684056,0.62803704,0.60582,-0.017927345,0.23614705,0.006935821,0.40513152,-0.11256306,0.08710231,0.5874214,0.40003073,-0.1478431,0.41666433,-0.050878074,0.058957983,0.19030291,-0.49801296,-0.32794902,-0.16342486,-0.3216375,799.81683,793.36993,810.293,791.75824,585.05493,-0.23291015625,0.061279296875,0.9736328125,4.4561767578125,-5.0244140625,1.375732421875,1,2.0,1.0,1.0,2.0,35.00
2021-04-09 22:39:24.675,0.33870202,0.6389936,0.6229474,0.37357146,0.43860045,0.1067606,0.3468692,0.09611379,0.9653091,0.5866243,0.30550423,0.11722392,0.1447964,-0.19080216,0.15362522,0.3317187,-0.16842145,-0.30343276,-0.13372791,-0.25181055,796.1905,794.9817,807.0696,819.9634,795.38464,-0.22491455078125,0.0587158203125,0.97479248046875,4.18701171875,-4.388885498046875,0.179443359375,1,1.0,1.0,1.0,1.0,35.00
2021-04-09 22:39:25.181,0.2807419,0.62879467,0.5655418,0.37477472,0.52229416,0.21939,0.20393033,0.55293787,1.178534,0.402659,0.30194974,0.5111386,0.24898137,-0.15475336,0.15492888,0.28612912,-0.24520032,-0.33001766,-0.22034022,-0.2551559,813.1135,807.0696,790.14655,808.68134,811.50183,-0.2366943359375,0.061279296875,0.98016357421875,4.822540283203125,-5.36834716796875,1.517791748046875,1,1.0,1.0,1.0,1.0,35.00
2021-04-09 22:39:25.702,0.30086064,0.59790885,0.5131998,0.40189072,0.8217843,0.46860084,0.54088646,0.9678493,1.219476,0.56855315,0.6951394,0.8618276,0.29299143,-0.10350541,0.098463036,0.32311508,-0.2912954,-0.39566344,-0.30324706,-0.1787626,811.50183,799.41394,800.2198,806.6667,596.337,-0.230224609375,0.0611572265625,0.974609375,4.83001708984375,-4.4561767578125,1.016845703125,1,1.0,1.0,1.0,1.0,35.00
2021-04-09 22:39:26.211,0.33549458,0.57336754,0.46203434,0.3988183,0.97027886,0.6085459,0.6404246,1.1900015,1.2192392,0.6493008,0.70503926,0.8614519,0.33505756,0.024039462,0.07226465,0.4026466,-0.38089135,-0.5426267,-0.46756074,-0.13697223,827.619,796.1905,803.44324,841.7216,1050.0366,-0.23565673828125,0.0611572265625,0.96783447265625,4.42626953125,-4.433746337890625,0.49346923828125,1,1.0,1.0,1.0,1.0,35.00
2021-04-09 22:39:26.740,0.4400367,0.7988977,0.53067935,0.42646527,1.1394503,0.6139185,0.6499614,1.372176,0.802659,0.9281424,0.70503926,0.8091435,0.33643055,0.046613935,0.1638843,0.51648057,-0.384906,-0.5074534,-0.27980527,-0.045275494,795.78754,800.2198,806.6667,811.0989,795.38464,-0.23907470703125,0.0576171875,0.97412109375,4.508514404296875,-4.358978271484375,1.278533935546875,1,1.0,1.0,1.0,1.0,35.00
2021-04-09 22:39:27.265,0.53623015,0.6803187,0.26712158,0.4548944,1.1244507,0.33811098,0.20493618,1.3944175,0.69885373,0.9239089,0.49810827,0.8070251,0.28052655,0.041393097,0.20371228,0.6202446,-0.34037262,-0.48639488,-0.0869942,-0.06264319,812.71063,803.44324,801.4286,809.4872,682.5641,-0.23760986328125,0.060302734375,0.97320556640625,4.822540283203125,-4.53094482421875,1.33087158203125,1,1.0,1.0,1.0,1.0,35.00
2021-04-09 22:39:27.768,-0.2693956,0.5991537,0.14135127,0.21077476,0.485397,0.12842013,0.06188391,-0.2764794,0.79417324,0.8338651,0.25159046,0.2515761,0.15346104,0.036021557,0.2122574,0.027729826,-0.4525927,-0.45252374,-0.013444544,-0.1856739,809.0842,804.2491,807.47253,811.0989,793.36993,-0.2459716796875,0.0765380859375,0.97381591796875,6.57958984375,-1.74957275390625,3.132781982421875,1,1.0,1.0,1.0,1.0,35.00
2021-04-09 22:39:28.278,0.07596546,-0.043618757,0.036163107,0.3114485,0.3198462,-0.097978234,-0.073811784,-0.014933532,0.7989145,0.21629417,0.17739862,0.36454293,0.25482965,0.1148464,0.1990771,0.18908809,-0.25673345,-0.42901647,-0.08404623,-0.23591612,822.7839,800.6227,803.44324,807.47253,628.97437,-0.3231201171875,0.119384765625,0.9429931640625,9.846954345703125,1.697235107421875,4.80010986328125,1,1.0,1.0,1.0,1.0,35.00
2021-04-09 22:39:28.813,0.21540454,0.040046394,0.1369042,0.46758893,0.24059343,-0.12439998,-0.047929216,-0.013018493,0.7570025,0.212696,0.1713108,0.36139247,0.2549165,0.167236,0.15058143,0.25251353,-0.2307034,-0.3648999,-0.18822911,-0.22899975,809.0842,786.52014,807.47253,797.8022,693.0403,-0.36468505859375,0.239990234375,0.920166015625,7.177734375,-4.38140869140625,1.457977294921875,1,1.0,1.0,1.0,1.0,35.00
2021-04-09 22:39:29.314,0.49907035,0.39334545,0.47152779,0.6235427,0.030889004,0.048313748,0.07221486,0.16161412,0.48013878,0.32074636,0.16185749,0.46203563,0.28277615,0.15303905,0.127412,0.3292002,-0.17087933,-0.36699522,-0.1650743,-0.2457091,806.6667,811.0989,806.6667,812.71063,846.1539,-0.31219482421875,0.21124267578125,0.93115234375,3.865509033203125,-6.878662109375,0.157012939453125,1,1.0,1.0,1.0,1.0,35.00
2021-04-09 22:39:29.824,0.6195793,0.6902506,0.5152335,0.60053396,0.12920617,0.10911307,-0.011831825,0.12305436,0.45925763,0.32539147,0.11457333,0.37732238,0.1830525,0.111597545,0.18198217,0.25815555,-0.2283021,-0.3631359,-0.11421251,-0.21746524,810.696,807.0696,796.1905,809.0842,599.9634,-0.2706298828125,0.20172119140625,0.9459228515625,2.056121826171875,-6.56463623046875,0.919647216796875,1,1.0,1.0,1.0,1.0,35.00
2021-04-09 22:39:30.328,0.5991311,0.76538473,0.62538725,0.53377384,0.12809779,0.2052781,0.26883203,0.18592271,0.43603185,0.39664164,0.46461725,0.38073564,0.15269029,0.09478975,0.18659018,0.21283983,-0.24668543,-0.32387066,0.001289339,-0.21095139,817.5458,808.68134,791.75824,802.23444,635.0183,-0.28436279296875,0.17303466796875,0.94500732421875,4.20196533203125,-4.88983154296875,-2.115936279296875,1,1.0,1.0,1.0,1.0,35.00
2021-04-09 22:39:30.849,0.5863501,0.80007,0.7924388,0.2218017,0.16985565,0.2305712,0.6832421,0.055085763,0.2026749,0.43290573,0.7181781,0.37691876,0.1111458,0.09476162,0.16218388,0.082123145,-0.24056715,-0.22007258,0.13530852,-0.20795722,800.6227,803.0403,799.81683,802.23444,774.43225,-0.27606201171875,0.1649169921875,0.95135498046875,3.8580322265625,-6.35528564453125,1.487884521484375,1,1.0,1.0,1.0,1.0,30.00
2021-04-09 22:39:31.351,0.308152,0.62316984,0.7954286,-0.19401823,0.15680104,0.1852114,0.7000905,0.10536547,0.1727622,0.4336426,0.71944845,0.33105946,0.11439067,0.04663047,0.05223715,0.030511742,-0.2848797,-0.2092377,0.18439813,-0.20260437,813.91943,794.57874,813.1135,823.5897,936.0073,-0.25860595703125,0.15887451171875,0.95623779296875,3.87298583984375,-6.4300537109375,1.7645263671875,1,1.0,1.0,1.0,1.0,30.00
2021-04-09 22:39:31.865,0.459052,0.51863086,0.7413698,0.081959724,-0.07637273,0.13595735,0.62361926,0.07896212,0.076342106,0.4746787,0.7227637,0.5438934,0.18824549,-0.0045652688,0.09669683,0.36182094,-0.2343194,-0.22315337,0.1619064,-0.17255338,806.26373,805.05493,804.65204,821.1722,933.5897,-0.22186279296875,0.14111328125,0.96661376953125,1.487884521484375,-6.9085693359375,1.682281494140625,1,1.0,1.0,1.0,1.0,30.00
2021-04-09 22:39:32.394,0.4187941,0.1572081,0.37774953,0.04320707,-0.08684693,-0.11314704,-0.04102886,0.13914731,0.21078295,0.19484666,0.15252095,0.6653258,0.12306521,-0.098470286,0.13872145,0.32174787,-0.19005063,-0.23674028,-0.022006577,-0.17185718,837.28937,802.23444,812.3077,832.0513,567.72894,-0.2322998046875,0.119873046875,0.96380615234375,4.568328857421875,-4.23187255859375,0.605621337890625,1,1.0,1.0,1.0,1.0,30.00
2021-04-09 22:39:32.920,0.43681166,0.6508015,0.5752835,0.05056297,-0.10117366,0.13971382,0.29542762,0.14493208,0.21078295,0.6047431,0.49049327,0.6653258,0.1382316,0.033125527,0.16953348,0.34546524,-0.17160778,-0.19243209,-0.041712712,-0.16696797,819.5604,806.26373,803.44324,809.89014,702.3077,-0.2327880859375,0.11846923828125,0.96783447265625,4.50103759765625,-4.7552490234375,0.07476806640625,1,1.0,1.0,1.0,1.0,30.00
2021-04-09 22:39:33.447,0.41124934,0.8278674,0.6664687,0.02624576,-0.09528097,0.10599004,0.3984246,0.23670384,0.16974707,0.5612283,0.49049327,0.61842775,0.029388657,0.1437307,0.17005584,0.30111262,-0.109927215,-0.17899859,0.037217267,-0.16563869,797.3993,800.6227,801.4286,810.293,780.07324,-0.2431640625,0.1146240234375,0.96875,4.329071044921875,-5.51788330078125,1.0467529296875,1,1.0,1.0,1.0,1.0,30.00
2021-04-09 22:39:33.965,0.3792639,0.80570847,0.71268004,0.49257243,0.45724243,0.1677499,0.39645484,0.17049754,0.2782936,0.56074077,0.48656985,0.19361053,0.08494686,0.14306189,0.15095957,-0.06996457,-0.28864798,-0.2685546,0.123255886,-0.36698255,803.0403,798.20514,800.6227,815.5311,822.381,-0.23846435546875,0.11529541015625,0.968017578125,3.96270751953125,-3.54400634765625,1.233673095703125,1,1.0,1.0,1.0,1.0,30.00
2021-04-09 22:39:34.474,0.4775374,0.34381157,0.50594366,0.40524733,0.2906914,-0.13837752,0.020118468,0.043210365,0.31112942,0.26550627,0.2601593,0.23709626,0.18624958,0.099218704,0.113071404,-0.0021084808,-0.34789187,-0.37070704,0.016389327,-0.41092628,799.011,796.1905,803.0403,807.8755,855.0183,-0.23077392578125,0.15966796875,0.9571533203125,14.407806396484375,-3.312225341796875,4.822540283203125,1,1.0,1.0,1.0,1.0,30.00
2021-04-09 22:39:34.988,0.45581752,-0.07185527,0.25947845,0.3325006,0.27345192,-0.1611397,-0.17659882,0.013910886,0.45626915,0.12794116,0.20600976,0.2536829,0.20663114,0.0012118347,0.12527858,0.038744874,-0.3356155,-0.4328464,-0.14039153,-0.41158876,809.4872,815.5311,796.1905,810.696,728.49817,-0.22955322265625,0.16168212890625,0.96044921875,1.712188720703125,-6.302947998046875,-5.72723388671875,1,1.0,1.0,1.0,1.0,30.00
2021-04-09 22:39:35.494,0.4485228,0.4512026,0.41179487,0.22041444,0.11873979,0.016362883,0.051170032,0.076479204,0.68181217,0.13994506,0.28074566,0.4200562,0.2403388,-0.008384943,0.1362449,0.20455788,-0.37462547,-0.408086,-0.1784545,-0.33487254,801.8315,792.5641,807.0696,799.011,701.0989,-0.23980712890625,0.1575927734375,0.96441650390625,3.529052734375,-4.194488525390625,0.246734619140625,1,1.0,1.0,1.0,1.0,30.00
2021-04-09 22:39:36.002,0.3474052,0.6681207,0.5138687,0.09454249,0.29955426,0.1924564,0.21379974,0.28402743,0.92443174,0.15732847,0.506762,0.69240975,0.2548794,-0.08078003,0.20447901,0.36477304,-0.39533362,-0.42291215,-0.13664438,-0.19359627,814.3223,804.65204,816.7399,825.6044,1087.5092,-0.2371826171875,0.17791748046875,0.98162841796875,-1.36077880859375,-1.502838134765625,-4.20196533203125,1,1.0,1.0,1.0,1.0,30.00
2021-04-09 22:39:36.507,0.23487157,0.656306,0.51839525,0.12932841,0.28221592,0.20355052,0.3073004,0.33905047,0.94815993,0.15690365,0.49246773,0.70070034,0.24973367,-0.061425142,0.14286709,0.37294364,-0.46423206,-0.47551948,-0.07946349,-0.20035633,809.89014,795.78754,816.7399,813.91943,745.82416,-0.3626708984375,-0.14251708984375,0.90350341796875,-8.246917724609375,7.723541259765625,0.396270751953125,1,1.0,1.0,1.0,1.0,30.00
2021-04-09 22:39:37.015,0.118232064,0.7115313,0.2062213,0.17399518,0.32326126,0.17746118,0.26895782,0.34610748,0.96808267,0.14817663,0.4959899,0.73565096,0.2367338,-0.04180545,0.11660378,0.32937852,-0.41439873,-0.5856102,-0.2093618,-0.1617355,802.6374,803.44324,801.02563,807.47253,653.1502,-0.385986328125,-0.039794921875,0.93408203125,10.4974365234375,-13.4881591796875,13.8470458984375,1,1.0,1.0,1.0,1.0,30.00
2021-04-09 22:39:37.539,0.20664315,0.6736211,-0.0020178973,0.43477717,0.16363096,0.046435464,0.19004555,0.3836914,0.71928287,0.117935106,0.30803266,0.51946455,0.1942308,-0.027719703,0.1415951,0.1758516,-0.26479724,-0.538408,-0.28633568,-0.09295257,805.4579,803.0403,803.44324,804.2491,748.6447,-0.314208984375,0.0301513671875,0.9556884765625,6.407623291015625,-8.68804931640625,-0.575714111328125,1,1.0,1.0,1.0,1.0,30.00
2021-04-09 22:39:38.042,0.2042724,0.65802115,0.1342054,0.46969318,0.10897303,0.048583798,0.12064483,0.36997655,0.53572756,0.072178036,0.24369565,0.5131346,0.13616928,-0.017488169,0.19134358,0.14931625,-0.14672206,-0.41930062,-0.3306995,-0.07358638,805.4579,797.3993,803.8461,801.4286,739.7802,-0.241943359375,0.02313232421875,0.966064453125,6.721649169921875,-7.379608154296875,-4.852447509765625,1,1.0,1.0,1.0,1.0,30.00
2021-04-09 22:39:38.564,0.2704177,0.59077144,0.7364521,0.64432263,-0.040922306,0.20849064,0.29348618,0.3387346,0.46359104,0.013638937,0.43164605,0.6171521,0.1721075,-0.008468765,0.15648474,0.14709938,-0.12736367,-0.33712956,-0.28645986,-0.10198865,801.02563,786.9231,803.8461,807.8755,902.96704,-0.2344970703125,0.127685546875,0.977783203125,13.876953125,-3.910369873046875,12.69561767578125,1,1.0,1.0,1.0,1.0,30.00
2021-04-09 22:39:39.087,0.19009602,0.5370641,0.7607696,0.6133175,-0.057161327,0.24185596,0.24438408,0.12336851,0.36745068,0.20011337,0.40528843,0.6091033,0.19666407,0.007760408,0.083821364,0.21542531,-0.15823439,-0.38096383,-0.27154958,-0.24034655,822.381,812.71063,802.6374,822.381,568.93774,-0.2427978515625,0.11981201171875,0.9649658203125,1.55517578125,-3.887939453125,-3.671112060546875,1,1.0,1.0,1.0,1.0,30.00
2021-04-09 22:39:39.609,0.2860073,0.9793543,0.7410617,0.7156138,-0.09296859,0.49593735,0.26703823,0.09951745,0.22805275,0.6213513,0.43634236,0.5861477,0.28013876,0.12524325,0.10212762,0.28929502,-0.21805081,-0.3943754,-0.016670438,-0.19223934,815.12823,799.011,815.9341,804.65204,719.2308,-0.25537109375,0.1080322265625,0.96527099609375,2.833709716796875,-3.207550048828125,-2.938385009765625,1,1.0,1.0,1.0,1.0,30.00
2021-04-09 22:39:40.117,0.32820526,0.94914514,0.04632787,0.543029,-0.020125423,0.37114525,-0.058680117,-0.09333568,0.20134558,0.6213513,0.35456136,0.3769428,0.303373,0.12424561,0.21123067,0.36007968,-0.22489782,-0.42529213,0.22962365,-0.23633006,824.3956,803.8461,805.8608,799.011,610.4396,-0.269287109375,0.0968017578125,0.96392822265625,4.3963623046875,-5.69732666015625,-0.31402587890625,1,1.0,1.0,1.0,1.0,30.00
2021-04-09 22:39:40.632,0.32820526,0.9248556,0.00301672,0.543029,-0.020125423,0.3580837,-0.025896246,-0.09333568,0.20134558,0.6213513,0.35456136,0.3769428,0.303373,0.12207077,0.23790848,0.36007968,-0.22489782,-0.37910762,0.29615375,-0.23633006,815.9341,794.57874,809.0842,819.5604,782.8938,-0.2425537109375,0.09136962890625,0.96783447265625,4.3365478515625,-5.27862548828125,-1.39068603515625,1,1.0,1.0,1.0,1.0,30.00
2021-04-09 22:39:41.137,0.32820526,1.0908061,0.047558613,0.543029,-0.020125423,0.30834997,-0.14581978,-0.09333568,0.20134558,0.63336736,0.14850849,0.3769428,0.303373,0.011913638,0.19719368,0.36007968,-0.22489782,-0.32751277,0.23499945,-0.23633006,811.0989,803.0403,809.0842,819.5604,1053.2601,-0.23651123046875,0.08251953125,0.97052001953125,4.059906005859375,-5.973968505859375,0.11962890625,1,1.0,1.0,1.0,1.0,35.00
2021-04-09 22:39:41.653,0.32820526,1.166415,0.59278584,0.543029,-0.020125423,0.38682854,0.020494476,-0.09333568,0.20134558,0.6345878,0.2076317,0.3769428,0.303373,0.037335504,0.16185017,0.36007968,-0.22489782,-0.31783184,0.11016156,-0.23633006,795.38464,797.8022,806.6667,795.38464,797.8022,-0.23150634765625,0.08087158203125,0.97406005859375,3.9776611328125,-5.136566162109375,-0.426177978515625,1,2.0,1.0,1.0,2.0,35.00
2021-04-09 22:39:42.155,0.40391168,1.1688395,0.8389398,0.5427203,0.17052843,0.56040233,0.27096343,0.27416357,0.49571714,0.6714084,0.2562641,-0.03633118,0.035088103,0.040095516,0.14217226,0.13328037,-0.23461846,-0.35776752,-8.403811E-4,0.020727715,805.05493,804.65204,799.81683,801.8315,736.55676,-0.240234375,0.072998046875,0.97259521484375,4.897308349609375,-3.207550048828125,0.336456298828125,1,2.0,1.0,1.0,2.0,35.00
2021-04-09 22:39:42.664,0.45117596,0.6293369,0.90705574,0.53854454,0.12891889,0.43677834,0.3373613,0.2597128,0.5104194,0.52779776,0.2127799,-0.033495735,0.022490796,-0.07890446,0.10357162,0.12369324,-0.26481014,-0.45021296,-0.028286217,0.0019327269,809.4872,804.2491,801.8315,811.50183,937.2161,-0.23431396484375,0.07696533203125,0.974609375,4.254302978515625,-5.301055908203125,-0.2093505859375,1,1.0,1.0,1.0,1.0,35.00
2021-04-09 22:39:43.177,0.45117596,0.7452997,0.915874,0.53854454,0.12891889,0.47943002,0.52179337,0.2597128,0.5104194,0.57301337,0.39941275,-0.033495735,0.022490796,-0.16542763,0.12553154,0.12369324,-0.26481014,-0.3612009,-0.031621665,0.0019327269,803.44324,802.23444,796.99634,794.9817,793.36993,-0.23138427734375,0.06329345703125,0.976318359375,4.05242919921875,-4.26177978515625,0.157012939453125,1,1.0,1.0,1.0,1.0,35.00
2021-04-09 22:39:43.708,0.526224,0.7563191,0.6171284,0.57335895,0.14373866,0.3035979,0.33096933,0.28904057,0.50769776,0.5209359,0.39049268,-0.067421846,0.025279222,-0.08545141,0.19246896,0.11754781,-0.2816874,-0.31866178,0.07511528,-0.013090556,798.20514,798.20514,811.0989,782.8938,561.28204,-0.2333984375,0.05694580078125,0.97198486328125,4.538421630859375,-4.762725830078125,1.323394775390625,1,1.0,1.0,1.0,1.0,35.00
2021-04-09 22:39:44.226,0.31349474,0.6323887,0.54145914,0.36083806,0.3115247,0.11216032,0.23308669,0.41774815,0.7382085,0.51192605,0.4145661,0.88243896,0.5792477,0.021404441,0.23846972,0.48575544,-0.3525506,-0.28724134,0.044677395,-0.24976817,805.8608,790.9524,797.3993,801.02563,831.2454,-0.242919921875,0.05816650390625,0.97174072265625,4.91973876953125,-3.611297607421875,0.6878662109375,1,1.0,1.0,1.0,1.0,35.00
2021-04-09 22:39:44.746,0.23823825,0.16140756,0.15170622,0.37856275,0.31828865,-0.116362326,-0.02281785,0.34902275,0.7571179,0.14371562,0.24604389,0.88243896,0.5197034,0.041691713,0.22107993,0.4030075,-0.3355546,-0.28263718,0.0036630554,-0.26366216,799.011,793.36993,792.5641,791.75824,800.2198,-0.2496337890625,0.0601806640625,0.97210693359375,4.5159912109375,-4.942169189453125,0.814971923828125,1,1.0,1.0,1.0,1.0,35.00
2021-04-09 22:39:45.255,0.16369617,0.16706085,0.49985805,0.38946056,0.3022158,0.06710683,0.022606574,0.32512984,0.74963725,0.26325068,0.3129207,0.88243896,0.37668854,-0.06689475,0.2221033,0.30958927,-0.31136292,-0.3191646,0.041201092,-0.3348937,807.47253,800.6227,804.65204,793.7729,877.1795,-0.2369384765625,0.0577392578125,0.96923828125,4.358978271484375,-5.15899658203125,0.37384033203125,1,1.0,1.0,1.0,1.0,35.00
2021-04-09 22:39:45.780,-0.06640194,0.27644962,0.6816253,0.29751092,0.28592688,0.16087276,0.14994477,0.25708586,0.7161765,0.123223245,0.28298756,0.57987595,0.1926516,-0.11932124,0.2463929,0.13659768,-0.27535632,-0.38289505,0.016018571,-0.28898996,803.44324,805.8608,812.3077,807.47253,890.4762,-0.24566650390625,0.0594482421875,0.96929931640625,4.71038818359375,-3.955230712890625,0.40374755859375,1,1.0,1.0,1.0,1.0,35.00
2021-04-09 22:39:46.303,-0.20531939,0.31281632,0.6771289,0.16949673,0.21667032,0.083701245,0.12074392,0.17147885,0.436582,0.2536146,0.32197714,0.5977105,0.075184815,-0.043694172,0.20745367,0.07921918,-0.32484192,-0.47855937,0.011326369,-0.29812402,798.20514,801.02563,799.41394,798.20514,560.07324,-0.2547607421875,0.0595703125,0.9735107421875,4.254302978515625,-3.48419189453125,0.321502685546875,1,1.0,1.0,1.0,1.0,35.00
2021-04-09 22:39:46.826,-0.31314757,0.19615914,0.19055937,0.24053618,0.12705265,-0.2799417,-0.105713665,0.01625065,0.41186345,0.23975787,0.33018452,0.5451626,0.23356338,0.10131258,0.10042992,0.047904562,-0.38489953,-0.42204747,-0.060954694,-0.32097,812.71063,804.65204,790.14655,819.5604,597.1429,-0.255615234375,0.0526123046875,0.96990966796875,4.089813232421875,-3.835601806640625,2.130889892578125,1,1.0,1.0,1.0,1.0,35.00
2021-04-09 22:39:47.332,-0.31183806,0.08786781,-0.14465673,0.31964222,-0.093433626,-0.36796597,-0.14606892,-0.22053456,0.25983506,0.21216494,0.42833528,0.4583102,0.288576,0.13639213,0.0037444935,0.024817238,-0.43679336,-0.41834643,-0.028890561,-0.41586724,807.47253,802.6374,805.4579,805.8608,636.2271,-0.250732421875,0.0404052734375,0.96429443359375,4.88983154296875,0.097198486328125,-0.538330078125,1,1.0,1.0,1.0,1.0,35.00
2021-04-09 22:39:47.842,-0.41204146,0.0041409656,-0.10101734,0.4879359,-0.32436806,-0.33502075,-0.21777336,-0.29533964,0.25818345,0.20633109,0.26032603,0.43008047,0.3728092,0.20804898,-0.031701036,-0.050698593,-0.37876853,-0.35716447,-0.08834181,-0.5104858,789.7436,791.75824,809.4872,812.71063,721.6484,-0.32794189453125,0.066650390625,0.947998046875,7.095489501953125,-0.3289794921875,3.78326416015625,1,1.0,1.0,1.0,1.0,35.00
2021-04-09 22:39:48.375,0.4189053,0.5710362,-0.07071627,-0.14111067,-0.09234844,0.038703706,-0.19030963,0.06462389,0.44241887,0.1521794,0.31134427,0.57018924,0.11207957,-0.113741204,0.040161774,0.08605873,-0.7426241,-0.40829244,-0.089770645,-0.24926645,809.0842,805.4579,806.26373,834.0659,834.0659,-0.29638671875,0.081787109375,0.952880859375,6.92352294921875,-12.075042724609375,11.67877197265625,1,1.0,1.0,1.0,1.0,35.00
2021-04-09 22:39:48.907,0.30086702,0.5866933,-0.028429953,0.26324975,0.07087688,0.01558204,-0.30298933,0.10258923,0.62561595,0.2326419,0.28325012,0.6493216,0.09762427,-0.07586078,0.021127641,0.12780191,-0.542376,-0.46884516,-0.13592905,-0.1852791,810.293,806.6667,804.2491,809.4872,612.0513,-0.241943359375,0.11065673828125,0.965087890625,3.1402587890625,-5.66741943359375,-2.61688232421875,1,1.0,1.0,1.0,1.0,35.00
2021-04-09 22:39:49.409,0.29208744,0.5223708,0.15055466,0.4115535,0.05689796,-0.041347463,-0.14134811,0.16628033,0.62561595,0.20510265,0.2874762,0.6493216,0.08393602,-0.02062449,0.049888704,0.19260174,-0.49143824,-0.43982843,-0.10429978,-0.17029804,817.9487,788.5348,801.02563,834.4689,813.5165,-0.24969482421875,0.10235595703125,0.96710205078125,5.271148681640625,-4.583282470703125,-1.443023681640625,1,1.0,1.0,1.0,1.0,35.00
2021-04-09 22:39:49.938,0.15932637,0.6360999,0.28254738,0.44555315,0.15597157,-0.13631918,-0.05171236,0.17252026,0.613253,0.18804125,0.25745177,0.64209986,0.10127926,0.024249602,0.04015166,0.29292274,-0.35085976,-0.36528936,-0.09553424,-0.146536,824.7985,795.38464,776.04395,808.68134,909.81683,-0.2618408203125,0.08892822265625,0.96478271484375,-1.188812255859375,-7.005767822265625,-1.375732421875,1,1.0,1.0,1.0,1.0,35.00
2021-04-09 22:39:50.439,0.4382459,0.75964314,0.5193735,0.41519952,0.25560656,-0.1457127,0.07638288,0.18603547,0.29332936,-0.082049474,0.18557847,0.4612459,0.33310094,0.05951573,0.11706663,0.34235188,0.18222691,-0.2558111,-0.047888145,-0.16088933,808.2784,796.5934,838.0952,811.9048,833.2601,-0.19781494140625,0.06170654296875,0.9771728515625,2.5421142578125,3.69354248046875,0.3289794921875,1,1.0,1.0,1.0,1.0,35.00
2021-04-09 22:39:50.956,0.667675,0.9567409,0.8087028,0.11745942,0.39679858,0.060511205,0.22175294,0.10903124,0.20429629,-0.052247997,0.5313808,0.38472152,0.51578647,0.0618994,0.18923968,0.38642147,0.2896223,-0.16288897,0.015730157,-0.15360995,791.3553,816.7399,802.23444,809.0842,763.5531,-0.2850341796875,0.0689697265625,0.9659423828125,4.777679443359375,-5.959014892578125,1.592559814453125,1,1.0,1.0,1.0,1.0,35.00
2021-04-09 22:39:51.484,0.8269387,0.9382205,1.0809456,0.1544693,0.46327367,0.38376093,0.38675562,0.15055041,0.18540165,0.43870085,0.560588,0.37431368,0.63434714,0.18914028,0.26236075,0.40737614,0.43277213,-0.25632262,0.062088706,-0.1334088,800.2198,783.2967,788.93774,804.2491,726.8865,-0.2669677734375,0.0570068359375,0.96185302734375,4.373931884765625,-5.30853271484375,2.03369140625,1,1.0,1.0,1.0,1.0,40.00
2021-04-09 22:39:51.986,0.92197883,0.8475598,1.1896302,0.1544693,0.52021,0.40339717,0.54134774,0.15055041,-0.08980458,0.43870085,0.56026983,0.37431368,0.68412584,0.19712196,0.31501558,0.40737614,0.20329328,-0.323201,0.015947603,-0.1334088,802.6374,819.9634,803.0403,825.2015,854.21246,-0.26202392578125,0.065185546875,0.96600341796875,4.792633056640625,-4.88983154296875,2.0635986328125,1,1.0,1.0,1.0,1.0,40.00
2021-04-09 22:39:52.501,0.92197883,0.8166913,1.0809245,0.1544693,0.52021,0.389649,0.6841842,0.15055041,-0.08980458,0.437827,0.5934544,0.37431368,0.68412584,0.19126272,0.30856735,0.40737614,0.20329328,-0.3770795,0.07235966,-0.1334088,801.02563,796.5934,807.47253,814.7253,975.4945,-0.263671875,0.05987548828125,0.96429443359375,4.50103759765625,-2.94586181640625,-1.016845703125,1,1.0,1.0,1.0,1.0,40.00
2021-04-09 22:39:53.008,0.92197883,1.6539682,0.9738122,0.1544693,0.52021,1.4124639,0.72835594,0.15055041,-0.08980458,0.8301781,0.55845344,0.37431368,0.68412584,0.09783176,0.2978029,0.40737614,0.20329328,-0.26359698,0.07964644,-0.1334088,802.23444,805.4579,809.0842,819.9634,747.03296,-0.28668212890625,0.05908203125,0.95916748046875,4.673004150390625,-4.38140869140625,-0.231781005859375,1,1.0,1.0,1.0,1.0,40.00
2021-04-09 22:39:53.512,-0.2944052,1.2796748,0.83871245,-0.20932505,0.011737337,1.0298715,0.6047641,-0.19286236,0.3653649,0.8553657,0.5616169,0.2576863,0.03285992,0.10069119,0.26281518,0.19677599,-0.33422634,-0.29204476,0.0072728163,-0.26617074,812.71063,803.44324,795.78754,814.3223,886.8498,-0.27978515625,0.056884765625,0.96392822265625,4.35150146484375,-5.181427001953125,1.158905029296875,1,1.0,1.0,1.0,1.0,40.00
2021-04-09 22:39:54.022,-0.06785866,0.97242695,0.5093418,-0.11169412,-0.029490853,0.65869737,0.2757154,-0.07137762,0.40019011,0.7586238,0.41378036,0.37335047,-8.022748E-4,0.042480703,0.2187024,0.19329372,-0.33818752,-0.3026065,-0.07203164,-0.2564526,805.8608,799.011,806.26373,798.60803,711.1722,-0.26580810546875,0.0582275390625,0.96435546875,5.1739501953125,-3.701019287109375,1.413116455078125,1,1.0,1.0,1.0,1.0,40.00
2021-04-09 22:39:54.528,-0.0033182672,0.14563377,0.10862104,-0.041698676,-0.07469377,-0.41597307,-0.066843644,-0.077104315,0.3992414,0.24978954,0.07361737,0.39111426,-0.018179897,0.037194807,0.24054937,0.17304125,-0.36822417,-0.3517596,-0.13607119,-0.25448078,803.44324,803.8461,801.4286,809.0842,825.2015,-0.26922607421875,0.05548095703125,0.96063232421875,4.179534912109375,-4.964599609375,0.95703125,1,1.0,1.0,1.0,1.0,40.00
2021-04-09 22:39:55.050,0.011740791,0.36269188,0.11546784,0.06578801,-0.10664899,-0.37895578,-0.023852717,0.019383142,0.44266704,0.17177291,0.28230962,0.41193104,0.058131993,0.022448614,0.1806039,0.11022767,-0.35147536,-0.40983993,-0.17037082,-0.168589,811.0989,802.6374,804.65204,819.15753,825.2015,-0.25408935546875,0.0596923828125,0.97125244140625,4.029998779296875,-5.45806884765625,-0.112152099609375,1,1.0,1.0,1.0,1.0,40.00
2021-04-09 22:39:55.577,0.048714038,0.39848757,0.33561277,0.38329127,-0.16920242,-0.14769863,0.113864146,0.16200238,0.36761037,0.2229591,0.36898893,0.25918925,0.09214548,-0.0023131552,0.16118443,0.16396528,-0.24523708,-0.4986667,-0.13279802,-0.11608752,810.696,802.23444,800.6227,802.23444,665.2381,-0.27032470703125,0.05419921875,0.9639892578125,4.329071044921875,-4.85992431640625,0.306549072265625,1,1.0,1.0,1.0,1.0,40.00
2021-04-09 22:39:56.107,-0.04434531,0.36913145,0.30977142,0.3656625,-0.10080994,-0.06671831,0.12139032,0.21806028,0.4300501,0.2586049,0.38805073,0.2531319,0.17534383,-0.029290395,0.07506535,0.16291744,-0.18035887,-0.49657333,-0.10862065,-0.08816251,803.44324,801.8315,799.81683,796.99634,683.36993,-0.26287841796875,0.05255126953125,0.96539306640625,4.3963623046875,-4.553375244140625,1.18133544921875,1,1.0,1.0,1.0,1.0,40.00
2021-04-09 22:39:56.630,-0.0901127,0.08851464,0.28849086,0.27101934,0.3349284,-0.12966223,0.0888726,0.25453678,0.4889535,0.19984731,0.38486084,0.23115177,0.21070836,0.012456709,0.14292158,0.19736783,-0.19551107,-0.51818967,-0.12851956,-0.12846705,802.23444,791.3553,807.0696,801.8315,790.54944,-0.2662353515625,0.05364990234375,0.96600341796875,4.6356201171875,-4.41131591796875,0.76263427734375,1,1.0,1.0,1.0,1.0,40.00
2021-04-09 22:39:57.154,0.021173462,0.14274964,0.1477906,0.13718988,0.44071817,-0.053411473,-0.036000796,0.2542013,0.42078087,0.209271,0.31333962,0.29063818,0.19400054,0.06369167,0.17337227,0.1330268,-0.33725762,-0.49481174,-0.27185467,-0.19270495,810.293,794.17584,793.36993,819.15753,792.1612,-0.269287109375,0.05322265625,0.9705810546875,4.074859619140625,-4.837493896484375,0.79254150390625,1,1.0,1.0,1.0,1.0,40.00
2021-04-09 22:39:57.655,0.11179762,0.74778783,0.314181,0.1927238,0.5790091,0.52455276,0.25366944,0.31948382,0.3792202,0.277319,0.5255787,0.22578119,0.15680711,0.056429386,0.18967193,0.18908596,-0.39469206,-0.5477223,-0.22042114,-0.26048312,814.7253,808.68134,811.0989,829.2308,879.19415,-0.259765625,0.05364990234375,0.9649658203125,4.673004150390625,-3.925323486328125,0.575714111328125,1,1.0,1.0,1.0,1.0,40.00
2021-04-09 22:39:58.162,0.3376539,0.8751852,0.4293413,0.36629504,0.36772865,0.6158017,0.3652904,0.2929895,0.023522865,0.32403395,0.5298978,0.06919554,-0.14601594,-0.0012872863,0.18773827,0.07356234,-0.4904593,-0.53268164,-0.12660797,-0.40346536,809.89014,806.26373,808.2784,809.0842,635.42126,-0.2669677734375,0.0570068359375,0.9615478515625,5.06927490234375,-5.301055908203125,1.472930908203125,1,1.0,1.0,1.0,1.0,40.00
2021-04-09 22:39:58.682,-0.36405653,0.86558586,0.55355805,0.12605008,0.0033979835,0.5937834,0.4703071,0.3428805,-0.01070318,0.3176187,0.48892742,0.44719294,0.11822812,0.06056729,0.14890231,0.4554333,-0.5333346,-0.4939017,-0.15655641,-0.3759302,806.6667,809.0842,795.38464,793.36993,521.39197,-0.2662353515625,0.05841064453125,0.962890625,4.209442138671875,-5.03936767578125,0.52337646484375,1,1.0,1.0,1.0,1.0,40.00
2021-04-09 22:39:59.208,-0.4283331,0.65543544,0.5903573,0.12462034,-0.14498498,0.33739215,0.326197,0.1251151,0.23373954,0.45798126,0.38173482,0.4499166,0.16151316,0.13377953,0.22396213,0.41614234,-0.4113417,-0.43017778,-0.26479492,-0.27761522,725.2747,779.2674,807.0696,741.39197,882.01465,-0.26300048828125,0.05279541015625,0.96148681640625,4.493560791015625,-3.566436767578125,-0.07476806640625,1,1.0,1.0,1.0,1.0,40.00
2021-04-09 22:39:59.712,-0.4283331,0.9554892,0.53510976,0.12462034,-0.14498498,0.6670763,0.20231801,0.1251151,0.23373954,1.0652032,0.19554234,0.4499166,0.16151316,0.18285242,0.17173265,0.41614234,-0.4113417,-0.37817514,-0.26756588,-0.27761522,805.05493,799.41394,796.1905,807.8755,819.5604,-0.272705078125,0.0513916015625,0.96490478515625,4.388885498046875,-4.9346923828125,1.861724853515625,1,1.0,1.0,1.0,1.0,40.00
2021-04-09 22:40:00.228,-0.50380343,1.2211571,0.34881184,0.12318588,-0.37214118,0.9169764,0.040483605,-0.33214614,0.18016605,1.0652032,0.21047373,0.13295673,0.2008724,0.1909319,0.10440057,0.37293985,-0.3162088,-0.32120106,-0.15722673,-0.19749986,811.50183,799.41394,795.78754,815.12823,738.97437,-0.258544921875,0.05682373046875,0.96826171875,4.598236083984375,-4.74029541015625,0.530853271484375,1,1.0,1.0,1.0,1.0,40.00
2021-04-09 22:40:00.731,-0.4021169,1.0492172,-0.014479283,-0.40152365,-0.96959186,0.7634783,-0.010750684,-0.45278758,-0.09672305,1.0652032,0.24290474,-0.0317673,0.18595499,-0.09409236,-0.0822545,0.16720979,-0.45761168,-0.5115642,-0.20153727,-0.36288282,793.7729,783.69965,800.2198,797.3993,663.6264,-0.2569580078125,0.055908203125,0.96356201171875,4.344024658203125,-6.168365478515625,0.5084228515625,1,1.0,1.0,1.0,1.0,40.00
2021-04-09 22:40:01.248,-0.3025103,0.026710143,-0.36097795,-0.25127614,-0.41531327,-0.044057157,-0.105984606,-0.38452598,0.024420077,0.03479313,0.30236968,0.028569456,0.25128767,-0.15900674,-0.071543306,0.08763215,-0.45708868,-0.5714731,-0.253819,-0.38564685,799.011,788.93774,799.011,818.7546,982.74725,-0.24664306640625,0.06170654296875,0.971923828125,4.05242919921875,-5.106658935546875,-0.059814453125,1,1.0,1.0,1.0,1.0,40.00
2021-04-09 22:40:01.765,-0.17319557,0.15455642,-0.33475426,-0.10752675,-0.049226295,0.02138649,-0.14567119,-0.12803991,0.26153088,0.10336937,0.12640005,0.14519823,0.22529414,-0.15744261,-0.013081839,0.021373164,-0.44463912,-0.5982106,-0.30915803,-0.315748,799.011,801.8315,795.78754,809.4872,923.91943,-0.249755859375,0.05084228515625,0.9715576171875,4.553375244140625,-3.12530517578125,-0.0299072265625,1,1.0,1.0,1.0,1.0,35.00
2021-04-09 22:40:02.277,-0.13123855,0.32951236,-0.035492405,0.007236756,0.12665538,0.008875626,-0.004470515,0.07444143,0.30142254,0.11570313,0.24108857,0.14182447,0.24335128,-0.05079012,0.05390291,0.04818564,-0.40553406,-0.5170676,-0.2659251,-0.27083135,808.68134,811.9048,788.93774,792.96704,664.43225,-0.26153564453125,0.05474853515625,0.9669189453125,4.246826171875,-5.241241455078125,1.024322509765625,1,1.0,1.0,1.0,1.0,35.00
2021-04-09 22:40:02.793,-0.1101909,0.41773158,0.3147834,0.12565571,0.20116563,0.024327766,0.19846915,0.24502897,0.28811792,0.1548591,0.56479985,0.23078372,0.19808197,0.0049512316,0.11820282,0.11031423,-0.3225231,-0.44702843,-0.21328907,-0.14852734,804.2491,794.57874,803.0403,791.75824,641.06226,-0.25640869140625,0.0540771484375,0.97113037109375,4.44122314453125,-4.358978271484375,0.874786376953125,1,1.0,1.0,1.0,1.0,35.00
2021-04-09 22:40:03.323,-0.0023746255,0.45610198,0.44730628,0.29572126,0.14849953,-0.049911503,0.24812524,0.34993666,0.2827815,0.173143,0.57706934,0.3655488,0.15298574,0.02275356,0.21608762,0.17557818,-0.29105353,-0.36118597,-0.23842253,-0.0583734,820.7692,808.2784,803.44324,807.0696,673.2967,-0.2593994140625,0.05108642578125,0.9698486328125,4.3365478515625,-3.8580322265625,0.545806884765625,1,1.0,1.0,1.0,1.0,35.00
2021-04-09 22:40:03.826,0.07099949,0.36779407,0.40401456,0.40947616,-0.019453783,0.05980436,0.21534684,0.36351755,-0.009229495,0.3035093,0.5666445,0.3655488,0.09543206,-0.073965065,0.19280119,0.14821374,-0.26950797,-0.32323015,-0.15855761,0.023536878,809.89014,797.8022,798.20514,803.44324,816.337,-0.263671875,0.0535888671875,0.9730224609375,4.284210205078125,-4.897308349609375,0.82244873046875,1,1.0,1.0,1.0,1.0,35.00
2021-04-09 22:40:04.330,0.17497014,0.18631656,0.23804986,0.5411374,-0.15114427,-0.05512942,0.024312815,0.38263723,-0.009229495,0.30322507,0.40926704,0.3460361,-0.011432751,-0.122898735,0.106418975,0.08284424,-0.33921158,-0.35694537,-0.13327657,0.0652078,806.6667,796.1905,807.8755,805.05493,652.74725,-0.2374267578125,0.04571533203125,0.9752197265625,4.02252197265625,-6.998291015625,0.814971923828125,1,1.0,1.0,1.0,1.0,35.00
