TimeStamp,Delta_TP9,Delta_AF7,Delta_AF8,Delta_TP10,Theta_TP9,Theta_AF7,Theta_AF8,Theta_TP10,Alpha_TP9,Alpha_AF7,Alpha_AF8,Alpha_TP10,Beta_TP9,Beta_AF7,Beta_AF8,Beta_TP10,Gamma_TP9,Gamma_AF7,Gamma_AF8,Gamma_TP10,RAW_TP9,RAW_AF7,RAW_AF8,RAW_TP10,AUX_RIGHT,Accelerometer_X,Accelerometer_Y,Accelerometer_Z,Gyro_X,Gyro_Y,Gyro_Z,HeadBandOn,HSI_TP9,HSI_AF7,HSI_AF8,HSI_TP10,Battery,Elements
2021-04-10 09:47:05.777,0.92039853,0.58206296,0.52342373,0.3681627,0.62528765,0.36048526,0.16585582,0.35143465,-0.11453535,0.28152952,0.63420886,0.44439995,0.75484633,0.5635991,0.31899887,0.94889617,0.2670691,-0.19922175,-0.12860604,0.04387423,903.36993,848.5714,833.663,871.9414,668.86444,0.137451171875,0.05450439453125,0.995849609375,5.12908935546875,-5.016937255859375,0.979461669921875,1,2.0,1.0,1.0,2.0,30.00
2021-04-10 09:47:05.986,,,,,,,,,,,,,,,,,,,,,,,,,,,,,,,,,,,,,,/muse/elements/blink
2021-04-10 09:47:06.280,0.92039853,0.68890685,0.7217903,0.3681627,0.62528765,0.3645116,0.23386848,0.35143465,-0.11453535,0.28152952,0.63420886,0.44439995,0.75484633,0.5630982,0.35773057,0.94889617,0.2670691,-0.14356934,-0.093809545,0.04387423,812.71063,843.3333,840.10986,809.89014,732.52747,0.1324462890625,0.0555419921875,0.995361328125,4.88983154296875,-5.211334228515625,-0.58319091796875,1,2.0,1.0,1.0,2.0,30.00
2021-04-10 09:47:06.800,0.92039853,0.6881119,0.7347256,0.3681627,0.62528765,0.6108535,0.26054302,0.35143465,-0.11453535,0.666931,0.63653946,0.44439995,0.75484633,0.5616161,0.50777483,0.94889617,0.2670691,-0.14155494,-0.10954193,0.04387423,776.8498,848.1685,822.7839,766.77655,635.82416,0.1612548828125,0.05938720703125,0.9981689453125,3.5888671875,-5.555267333984375,-1.443023681640625,1,2.0,1.0,1.0,2.0,30.00
2021-04-10 09:47:07.199,,,,,,,,,,,,,,,,,,,,,,,,,,,,,,,,,,,,,,/muse/elements/blink
2021-04-10 09:47:07.303,0.92039853,0.5004397,0.5053743,0.3681627,0.62528765,0.49087843,0.010731977,0.35143465,-0.11453535,0.68434083,0.36716908,0.44439995,0.75484633,0.5769924,0.53906333,0.94889617,0.2670691,-0.18592918,-0.07117231,0.04387423,833.663,832.8571,846.55676,817.5458,743.8095,0.1441650390625,0.05804443359375,0.9869384765625,7.2674560546875,-5.42816162109375,-0.1495361328125,1,2.0,1.0,1.0,2.0,30.00
2021-04-10 09:47:07.814,0.92039853,0.82041097,0.33566505,0.3681627,0.62528765,0.59229624,0.057094235,0.35143465,-0.11453535,0.7028182,0.24629407,0.44439995,0.75484633,0.5531658,0.50973445,0.94889617,0.2670691,-0.1010564,0.0059388964,0.04387423,810.293,844.5421,830.0366,794.17584,668.86444,0.19073486328125,0.1114501953125,0.98785400390625,8.5235595703125,-16.0302734375,-11.7535400390625,1,2.0,1.0,1.0,2.0,30.00
2021-04-10 09:47:08.332,0.92039853,0.8162549,0.42630604,0.3681627,0.62528765,0.5007087,0.21605417,0.35143465,-0.11453535,0.5669308,0.23772949,0.44439995,0.75484633,0.5403882,0.47184274,0.94889617,0.2670691,-0.062948406,0.031107787,0.04387423,765.56775,809.89014,822.7839,784.5055,619.707,0.26129150390625,0.1138916015625,0.95806884765625,1.203765869140625,-7.04315185546875,-7.3272705078125,1,2.0,1.0,1.0,2.0,30.00
2021-04-10 09:47:08.719,,,,,,,,,,,,,,,,,,,,,,,,,,,,,,,,,,,,,,/muse/elements/blink
2021-04-10 09:47:08.839,0.92039853,0.89186925,0.49144965,0.3681627,0.62528765,0.5311236,0.2286218,0.35143465,-0.11453535,0.5776972,0.35157228,0.44439995,0.75484633,0.52884346,0.48436344,0.94889617,0.2670691,-0.007588281,-0.027570069,0.04387423,880.0,825.6044,850.18317,874.7619,807.47253,0.18231201171875,0.09466552734375,0.973876953125,5.899200439453125,-4.80010986328125,7.1478271484375,1,2.0,1.0,1.0,2.0,30.00
2021-04-10 09:47:09.015,,,,,,,,,,,,,,,,,,,,,,,,,,,,,,,,,,,,,,/muse/elements/blink
2021-04-10 09:47:09.345,0.92039853,0.31875217,0.44386706,0.3681627,0.62528765,0.09840662,0.13688393,0.35143465,-0.11453535,0.121297605,0.23866083,0.44439995,0.75484633,0.5548396,0.48185056,0.94889617,0.2670691,-0.04981424,-0.13295606,0.04387423,821.978,846.1539,822.7839,789.7436,591.50183,0.22528076171875,0.0999755859375,0.9588623046875,3.043060302734375,-6.960906982421875,2.691650390625,1,2.0,1.0,1.0,2.0,30.00
2021-04-10 09:47:09.859,0.92039853,0.24963108,0.18984571,0.3681627,0.62528765,0.057546742,-0.41211948,0.35143465,-0.11453535,-0.023582658,0.103784904,0.44439995,0.75484633,0.56252223,0.45650548,0.94889617,0.2670691,-0.11216281,-0.3421086,0.04387423,797.3993,853.4066,825.6044,786.9231,658.7912,0.24200439453125,0.093017578125,0.97747802734375,4.844970703125,-7.334747314453125,-4.792633056640625,1,2.0,1.0,1.0,2.0,30.00
2021-04-10 09:47:10.378,0.92039853,0.24963108,1.1070676,0.3681627,0.62528765,0.057546742,0.8571493,0.35143465,-0.11453535,-0.023582658,0.77433527,0.44439995,0.75484633,0.56252223,0.32939252,0.94889617,0.2670691,-0.11216281,0.055560224,0.04387423,883.6264,817.9487,850.58606,843.3333,759.92676,0.24462890625,0.11236572265625,0.9647216796875,9.510498046875,-4.747772216796875,11.132965087890625,1,2.0,1.0,1.0,2.0,30.00
2021-04-10 09:47:10.887,0.92039853,0.24963108,1.0483841,0.3681627,0.62528765,0.057546742,0.7598765,0.35143465,-0.11453535,-0.023582658,0.8010329,0.44439995,0.75484633,0.56252223,0.3572868,0.94889617,0.2670691,-0.11216281,0.040670972,0.04387423,778.0586,844.94507,821.1722,797.3993,667.25275,0.24530029296875,0.0775146484375,0.9775390625,5.51788330078125,-5.301055908203125,17.039642333984375,1,2.0,1.0,1.0,2.0,30.00
2021-04-10 09:47:11.404,0.92039853,1.0334722,1.0031412,0.3681627,0.62528765,0.6745987,0.7105813,0.35143465,-0.11453535,0.8493009,0.80383,0.44439995,0.75484633,0.43359342,0.37496257,0.94889617,0.2670691,-0.043195534,0.016688908,0.04387423,507.69232,840.5128,805.4579,517.76556,664.43225,0.244140625,0.098388671875,0.98388671875,10.669403076171875,4.673004150390625,-3.551483154296875,1,2.0,1.0,1.0,2.0,30.00
2021-04-10 09:47:11.539,,,,,,,,,,,,,,,,,,,,,,,,,,,,,,,,,,,,,,/muse/elements/blink
2021-04-10 09:47:11.906,0.92039853,0.9400991,0.9109485,0.3681627,0.62528765,0.6114277,0.5760867,0.35143465,-0.11453535,0.6634729,0.49889418,0.44439995,0.75484633,0.43703023,0.4644516,0.94889617,0.2670691,-0.08130647,0.011516488,0.04387423,807.8755,1021.4286,856.2271,829.2308,812.71063,0.089599609375,0.0938720703125,0.990966796875,1.5252685546875,10.00396728515625,3.715972900390625,1,2.0,1.0,1.0,2.0,30.00
2021-04-10 09:47:12.276,,,,,,,,,,,,,,,,,,,,,,,,,,,,,,,,,,,,,,/muse/elements/blink
2021-04-10 09:47:12.412,0.92039853,0.81208175,0.8561356,0.3681627,0.62528765,0.53752595,0.5194202,0.35143465,-0.11453535,0.5691675,0.495856,0.44439995,0.75484633,0.39517117,0.50579685,0.94889617,0.2670691,-0.080447495,0.0018565247,0.04387423,826.8132,919.89014,802.6374,849.7802,728.0952,0.0545654296875,0.10260009765625,0.9862060546875,4.164581298828125,-13.390960693359375,-1.338348388671875,1,2.0,1.0,1.0,2.0,30.00
2021-04-10 09:47:12.923,0.92039853,0.62402385,0.7819712,0.3681627,0.62528765,0.44933158,0.382024,0.35143465,-0.11453535,0.37318304,0.3878515,0.44439995,0.75484633,0.3582054,0.6057348,0.94889617,0.2670691,-0.06751454,0.038785033,0.04387423,794.57874,808.2784,828.8278,786.1172,652.3443,0.15924072265625,0.0711669921875,0.99560546875,0.67291259765625,-6.781463623046875,9.68994140625,1,2.0,1.0,1.0,2.0,30.00
2021-04-10 09:47:13.432,0.92039853,0.62402385,0.7819712,0.3681627,0.62528765,0.44933158,0.382024,0.35143465,-0.11453535,0.37318304,0.3878515,0.44439995,0.75484633,0.3582054,0.6057348,0.94889617,0.2670691,-0.06751454,0.038785033,0.04387423,781.28204,814.7253,823.1868,806.6667,799.81683,0.12066650390625,0.01971435546875,0.9981689453125,-2.205657958984375,0.695343017578125,2.938385009765625,1,2.0,1.0,1.0,2.0,30.00
2021-04-10 09:47:13.948,0.92039853,0.62402385,0.7698686,0.3681627,0.62528765,0.44933158,0.22074844,0.35143465,-0.11453535,0.37318304,0.18679085,0.44439995,0.75484633,0.3582054,0.46486765,0.94889617,0.2670691,-0.06751454,0.027412666,0.04387423,849.3773,826.8132,819.15753,774.43225,610.0366,0.00335693359375,-0.01495361328125,1.016357421875,5.12908935546875,5.630035400390625,-3.043060302734375,1,2.0,1.0,1.0,2.0,30.00
2021-04-10 09:47:14.475,0.92039853,0.62402385,0.8301434,0.3681627,0.62528765,0.44933158,0.29135638,0.35143465,-0.11453535,0.37318304,0.24304949,0.44439995,0.75484633,0.3582054,0.4190089,0.94889617,0.2670691,-0.06751454,-0.007768977,0.04387423,820.7692,816.337,827.619,829.2308,788.93774,0.0770263671875,0.0433349609375,1.0101318359375,7.932891845703125,-11.5142822265625,3.312225341796875,1,2.0,1.0,1.0,2.0,30.00
2021-04-10 09:47:14.999,0.92039853,0.13340889,0.84449697,0.3681627,0.62528765,0.124114506,0.21246372,0.35143465,-0.11453535,0.09405022,0.24304949,0.44439995,0.75484633,0.49391967,0.33949226,0.94889617,0.2670691,-0.16467646,-0.052176524,0.04387423,776.8498,811.0989,821.978,767.1795,583.44324,0.11334228515625,0.05743408203125,0.9923095703125,3.39447021484375,-5.839385986328125,0.441131591796875,1,2.0,1.0,1.0,2.0,30.00
2021-04-10 09:47:15.502,0.92039853,0.20580596,0.7410912,1.5271543,0.62528765,0.05180283,0.092396304,0.8621617,-0.11453535,0.13991554,0.12861623,0.9791423,0.75484633,0.42145625,0.2292837,0.7166179,0.2670691,-0.31377062,-0.13467708,0.12220903,817.5458,804.65204,819.5604,828.8278,781.685,0.119140625,0.02288818359375,0.98321533203125,4.194488525390625,-4.957122802734375,0.276641845703125,1,2.0,1.0,1.0,2.0,30.00
2021-04-10 09:47:16.021,1.5491291,0.24251029,0.5117523,1.5271543,1.1598895,0.01958943,-0.22934525,0.8621617,0.87931854,0.23947483,-0.05763663,0.9791423,0.56017125,0.43465725,0.20271185,0.7166179,0.16470209,-0.3187621,-0.21026164,0.12220903,840.5128,796.99634,824.3956,799.41394,724.4689,0.11004638671875,0.05242919921875,0.99444580078125,9.10675048828125,-1.54022216796875,0.35888671875,1,1.0,1.0,1.0,1.0,30.00
2021-04-10 09:47:16.531,1.5491291,0.48465663,0.05775991,1.5271543,1.1598895,0.054256115,-0.08398957,0.8621617,0.87931854,0.34004495,0.14448242,0.9791423,0.56017125,0.39299676,0.30609277,0.7166179,0.16470209,-0.16803698,-0.22607158,0.12220903,468.60806,777.6557,843.73627,498.02197,698.2784,0.12762451171875,0.0240478515625,0.99176025390625,4.613189697265625,-7.633819580078125,0.695343017578125,1,1.0,1.0,1.0,1.0,30.00
2021-04-10 09:47:16.760,,,,,,,,,,,,,,,,,,,,,,,,,,,,,,,,,,,,,,/muse/elements/blink
2021-04-10 09:47:17.025,,,,,,,,,,,,,,,,,,,,,,,,,,,,,,,,,,,,,,/muse/elements/blink
2021-04-10 09:47:17.051,1.5491291,0.5689682,0.2421523,1.5271543,1.1598895,0.09234574,0.06472024,0.8621617,0.87931854,0.34004495,0.19763672,0.9791423,0.56017125,0.41130853,0.3392936,0.7166179,0.16470209,-0.07259186,-0.20594765,0.12220903,709.15753,1038.7546,861.4652,765.9707,733.73627,-0.0509033203125,0.03839111328125,0.9805908203125,0.037384033203125,22.004241943359375,6.32537841796875,1,1.0,1.0,1.0,1.0,30.00
2021-04-10 09:47:17.252,,,,,,,,,,,,,,,,,,,,,,,,,,,,,,,,,,,,,,/muse/elements/blink
2021-04-10 09:47:17.451,,,,,,,,,,,,,,,,,,,,,,,,,,,,,,,,,,,,,,/muse/elements/blink
2021-04-10 09:47:17.578,1.5491291,0.7058313,0.361883,1.5271543,1.1598895,0.17993827,0.22828394,0.8621617,0.87931854,0.26670736,0.19763672,0.9791423,0.56017125,0.3673687,0.3318942,0.7166179,0.16470209,0.09603344,-0.12214141,0.12220903,784.90845,1002.0879,855.42126,732.9304,736.9597,-0.12548828125,0.0631103515625,1.01336669921875,13.151702880859375,-6.759033203125,9.45068359375,1,1.0,1.0,1.0,1.0,30.00
2021-04-10 09:47:18.104,1.5491291,0.7569773,0.5335546,1.5271543,1.1598895,0.19841819,0.27963057,0.8621617,0.87931854,0.20390283,0.15834087,0.9791423,0.56017125,0.36886775,0.29827893,0.7166179,0.16470209,0.14027184,-0.039245278,0.12220903,766.3736,861.8681,821.1722,808.68134,791.75824,-0.126953125,0.06683349609375,1.15521240234375,0.336456298828125,-11.185302734375,-24.26971435546875,1,1.0,1.0,1.0,1.0,30.00
2021-04-10 09:47:18.632,1.5491291,0.7569773,0.5335546,1.5271543,1.1598895,0.19841819,0.27963057,0.8621617,0.87931854,0.20390283,0.15834087,0.9791423,0.56017125,0.36886775,0.29827893,0.7166179,0.16470209,0.14027184,-0.039245278,0.12220903,858.24176,788.5348,810.293,799.41394,836.08057,-0.04205322265625,0.134765625,1.010986328125,12.27691650390625,-0.4486083984375,2.175750732421875,1,2.0,1.0,1.0,2.0,30.00
2021-04-10 09:47:19.136,1.5491291,0.7569773,0.4826351,1.5271543,1.1598895,0.19841819,0.2538226,0.8621617,0.87931854,0.20390283,0.5436557,0.9791423,0.56017125,0.36886775,0.72028583,0.7166179,0.16470209,0.14027184,0.56925464,0.12220903,796.99634,788.5348,811.9048,798.20514,741.39197,-0.22998046875,0.0811767578125,0.998779296875,0.28411865234375,13.1591796875,1.77947998046875,1,2.0,1.0,1.0,2.0,30.00
2021-04-10 09:47:19.652,1.5491291,0.7569773,0.36917663,1.5271543,1.1598895,0.19841819,0.076861,0.8621617,0.87931854,0.20390283,0.6316752,0.9791423,0.56017125,0.36886775,0.64693904,0.7166179,0.16470209,0.14027184,0.48876455,0.12220903,879.59705,776.04395,828.022,859.85345,811.50183,-0.199462890625,0.09796142578125,0.98773193359375,9.31610107421875,-2.46734619140625,-1.8243408203125,1,2.0,1.0,1.0,2.0,30.00
2021-04-10 09:47:20.176,1.5491291,0.46439177,0.4542113,1.5271543,1.1598895,-0.0048567667,0.05401285,0.8621617,0.87931854,0.33813348,0.60736567,0.9791423,0.56017125,0.58307654,0.5781934,0.7166179,0.16470209,0.17258753,0.3828952,0.12220903,805.8608,797.3993,834.0659,765.9707,655.56775,-0.29986572265625,0.10064697265625,0.9166259765625,2.27294921875,22.796783447265625,13.27880859375,1,2.0,1.0,1.0,2.0,30.00
2021-04-10 09:47:20.702,1.5491291,0.8699539,0.5568804,1.5271543,1.1598895,0.10675295,0.265941,0.8621617,0.87931854,0.49579346,0.59736496,0.9791423,0.56017125,0.5530283,0.4674631,0.7166179,0.16470209,0.109013036,0.25598985,0.12220903,904.17584,776.4469,819.9634,912.23444,756.30035,-0.0965576171875,0.082763671875,0.98486328125,14.5648193359375,-34.46807861328125,-8.127288818359375,1,2.0,1.0,1.0,2.0,30.00
2021-04-10 09:47:20.764,,,,,,,,,,,,,,,,,,,,,,,,,,,,,,,,,,,,,,/muse/elements/blink
2021-04-10 09:47:21.026,,,,,,,,,,,,,,,,,,,,,,,,,,,,,,,,,,,,,,/muse/elements/blink
2021-04-10 09:47:21.211,1.5491291,0.96738803,0.56861174,1.5271543,1.1598895,0.19784822,0.35949582,0.8621617,0.87931854,0.45910683,0.50913584,0.9791423,0.56017125,0.5429505,0.42108566,0.7166179,0.16470209,0.11793408,0.28938177,0.12220903,863.0769,777.6557,819.9634,790.54944,676.52014,-0.35955810546875,0.00311279296875,0.92742919921875,6.153411865234375,12.96478271484375,6.243133544921875,1,2.0,1.0,1.0,2.0,30.00
2021-04-10 09:47:21.717,1.5491291,1.18428,0.47299355,1.5271543,1.1598895,0.2518229,0.2794982,0.8621617,0.87931854,0.4545886,0.46574444,0.9791423,0.56017125,0.49485415,0.50744927,0.7166179,0.16470209,-0.031173134,0.30442712,0.12220903,819.15753,796.99634,804.65204,805.05493,770.0,-0.416259765625,-0.02783203125,0.91107177734375,4.71038818359375,-11.731109619140625,-3.686065673828125,1,2.0,1.0,1.0,2.0,30.00
2021-04-10 09:47:22.222,1.5491291,1.18428,0.33764255,1.5271543,1.1598895,0.2518229,0.094159745,0.8621617,0.87931854,0.4545886,0.2858135,0.9791423,0.56017125,0.49485415,0.5461781,0.7166179,0.16470209,-0.031173134,0.2835647,0.12220903,827.619,794.9817,803.8461,815.5311,720.0366,-0.362548828125,-0.0059814453125,0.92816162109375,6.706695556640625,-6.1907958984375,-4.284210205078125,1,2.0,1.0,1.0,2.0,25.00
2021-04-10 09:47:22.740,1.5491291,0.2911026,0.29587469,1.2414751,1.1598895,-0.085554615,-0.0027937135,0.5159222,0.87931854,0.30688417,0.27840203,0.75986445,0.56017125,0.29220578,0.4938339,0.737614,0.16470209,0.061179053,0.12657376,0.2903814,812.3077,780.07324,816.7399,801.4286,775.2381,-0.33856201171875,0.0064697265625,0.937744140625,2.758941650390625,-4.9945068359375,-3.611297607421875,1,1.0,1.0,1.0,1.0,25.00
2021-04-10 09:47:23.256,1.5491291,0.44481817,-0.04089543,1.1516135,1.1598895,-0.1577985,0.007145062,0.9535048,0.87931854,0.37210718,0.29493085,0.7887698,0.56017125,0.34490407,0.31358564,0.70256454,0.16470209,0.08055344,-0.014739373,0.27977666,814.7253,799.41394,813.1135,808.68134,751.4652,-0.33734130859375,-0.0179443359375,0.93975830078125,5.1141357421875,-3.835601806640625,1.622467041015625,1,1.0,1.0,1.0,1.0,25.00
2021-04-10 09:47:23.773,1.5491291,0.38897526,-0.2245927,1.1498061,1.1598895,-0.23435271,0.056708332,0.9259571,0.87931854,0.37210718,0.25724548,0.83823687,0.56017125,0.366911,0.20937453,0.6587282,0.16470209,0.060414296,0.021445319,0.18535411,788.5348,796.5934,812.71063,789.34064,668.86444,-0.34051513671875,-0.00946044921875,0.939697265625,4.1571044921875,-6.160888671875,-0.949554443359375,1,1.0,1.0,1.0,1.0,25.00
2021-04-10 09:47:24.275,1.5491291,0.3489827,-0.05754014,1.0383904,1.1598895,-0.19474536,0.0886334,0.9470017,0.87931854,0.29887128,0.2875335,0.7986287,0.56017125,0.35532507,0.2922155,0.6607281,0.16470209,-0.017114697,0.09725829,0.22404215,838.0952,794.57874,818.3516,815.9341,773.6264,-0.35455322265625,-0.00982666015625,0.9345703125,4.844970703125,-5.5328369140625,2.03369140625,1,1.0,1.0,1.0,1.0,25.00
2021-04-10 09:47:24.784,1.0970154,0.17851661,0.07102042,1.0658137,0.82049644,-0.16833913,0.0134864645,0.7415842,0.7831899,0.11390937,0.14912523,0.79404604,0.51549345,0.32968473,0.25096685,0.6713507,0.41268575,-0.046486616,0.11315983,0.17989755,799.81683,815.5311,825.2015,798.20514,793.36993,-0.33416748046875,4.8828125E-4,0.94378662109375,4.26177978515625,-6.3702392578125,1.009368896484375,1,1.0,1.0,1.0,1.0,25.00
2021-04-10 09:47:25.302,1.0483885,0.054822505,0.24687403,1.0743468,0.8375063,0.09713397,0.008396666,0.8252393,0.7617245,0.18559094,0.2856457,0.7220117,0.53440934,0.25539395,0.27709723,0.75931793,0.4380522,-0.047187846,0.048782118,0.21565853,794.9817,800.2198,823.1868,792.96704,726.8865,-0.318603515625,-0.00396728515625,0.9541015625,4.486083984375,-6.71417236328125,1.24114990234375,1,1.0,1.0,1.0,1.0,25.00
2021-04-10 09:47:25.824,0.98578525,0.1223142,0.2931693,0.99895006,0.82153213,0.13752761,0.05727976,0.7810197,0.70436543,0.21634664,0.35021162,0.6795768,0.5509019,0.28481463,0.2363899,0.7575894,0.46675822,-0.039155077,-0.054052677,0.14263134,799.41394,801.4286,815.5311,778.86444,807.0696,-0.295654296875,0.00299072265625,0.96038818359375,4.4561767578125,-6.347808837890625,1.375732421875,1,1.0,1.0,1.0,1.0,25.00
2021-04-10 09:47:26.339,0.98578525,0.05755421,0.3269589,0.99895006,0.82153213,0.19604608,0.16621296,0.7810197,0.70436543,0.11462216,0.3799372,0.6795768,0.5509019,0.23694818,0.2537034,0.7575894,0.46675822,-0.14346153,-0.22054328,0.14263134,806.6667,808.68134,809.0842,790.14655,670.4762,-0.28961181640625,-0.00860595703125,0.95623779296875,4.8150634765625,-4.127197265625,1.1663818359375,1,1.0,1.0,1.0,1.0,25.00
2021-04-10 09:47:26.842,0.89846146,0.60911757,0.51961374,0.89590436,0.4990782,0.29413667,0.3305894,0.6671513,0.9379026,0.45308626,0.41528776,0.7373905,0.42939663,0.3222141,0.22301961,0.5861748,0.2057213,-0.21195088,-0.25213072,0.15740386,821.1722,796.5934,834.87177,822.7839,954.5421,-0.295654296875,-0.005126953125,0.95166015625,4.7552490234375,-5.323486328125,1.03179931640625,1,1.0,1.0,1.0,1.0,25.00
2021-04-10 09:47:27.358,0.8187162,0.71830606,0.5296407,0.92308825,0.6699955,0.2604074,0.35035986,0.8166465,1.194918,0.42958352,0.4144104,0.76094,0.5199936,0.3499731,0.19066131,0.54477423,0.21695952,-0.11378057,-0.18933992,0.18892361,804.2491,826.8132,788.93774,781.685,870.32965,-0.258056640625,-0.00531005859375,0.9720458984375,5.8917236328125,-7.873077392578125,2.43743896484375,1,1.0,1.0,1.0,1.0,25.00
2021-04-10 09:47:27.882,0.756279,0.7193461,0.53336316,0.86792845,0.81856924,0.35528976,0.294372,0.7512925,1.2041097,0.79506576,0.41515276,0.7122795,0.58060557,0.37374732,0.18507823,0.45689204,0.23924032,-0.0017164635,-0.09544831,0.2088445,824.3956,821.5751,817.1429,801.4286,691.02563,-0.26690673828125,-0.0040283203125,0.9677734375,2.743988037109375,-1.308441162109375,-0.949554443359375,1,1.0,1.0,1.0,1.0,25.00
2021-04-10 09:47:28.408,0.95504856,0.6546379,0.575109,0.8436481,0.93729395,0.45686284,0.22245473,0.70519114,1.1769118,0.8537558,0.41918632,0.67580247,0.5564767,0.32899144,0.2370886,0.42670032,0.193158,0.011804103,-0.09420729,0.16001588,822.7839,809.0842,821.1722,809.0842,784.90845,-0.2799072265625,-0.00531005859375,0.96539306640625,5.38330078125,-3.63372802734375,1.74957275390625,1,1.0,1.0,1.0,1.0,25.00
2021-04-10 09:47:28.911,1.1573462,0.62308043,0.53193486,0.76061815,0.93952024,0.44764328,0.07331896,0.3866477,1.097363,0.8529559,0.18018343,0.5635574,0.52509767,0.22847354,0.30378735,0.41491407,0.25553018,-0.04174392,-0.1030572,0.2603011,802.6374,822.381,815.9341,803.0403,752.27106,-0.27490234375,-0.00531005859375,0.9619140625,4.643096923828125,-6.422576904296875,1.136474609375,1,1.0,1.0,1.0,1.0,25.00
2021-04-10 09:47:29.421,1.19425,0.68704706,0.56306165,0.775859,0.7889424,0.34725276,-0.008001545,0.35246685,0.84614694,0.8394707,0.14593212,0.5843261,0.47802678,0.19126034,0.40090147,0.44740114,0.29979274,-0.11282627,-0.18783027,0.3412906,822.7839,819.9634,863.47986,803.0403,759.92676,-0.2794189453125,-0.00640869140625,0.963134765625,4.83001708984375,-4.20196533203125,0.85235595703125,1,1.0,1.0,1.0,1.0,25.00
2021-04-10 09:47:29.938,0.78115314,0.39740324,0.27294847,0.54864174,0.20904222,-0.07851997,-0.62725794,0.09347538,0.4169371,0.14866912,-0.48252323,0.5613742,0.49755022,0.19332384,0.41295204,0.50332236,0.3698084,-0.13752313,-0.24080627,0.3596704,804.65204,821.5751,805.4579,790.9524,729.707,-0.271484375,-0.00543212890625,0.96417236328125,5.86181640625,-6.220703125,0.755157470703125,1,1.0,1.0,1.0,1.0,25.00
2021-04-10 09:47:30.252,,,,,,,,,,,,,,,,,,,,,,,,,,,,,,,,,,,,,,/muse/elements/blink
2021-04-10 09:47:30.460,0.45360515,0.32608408,0.39559647,0.5558597,-0.117863454,-0.052795246,-0.609247,0.059270192,0.4145966,0.14192699,-0.5487974,0.60478616,0.46316555,0.25445285,0.47326836,0.52924186,0.33822706,-0.1204099,-0.48263386,0.23537718,885.64105,836.8865,788.93774,875.16486,669.2674,-0.2418212890625,-0.00592041015625,0.96319580078125,7.357177734375,-19.850921630859375,2.983245849609375,1,1.0,1.0,1.0,1.0,25.00
2021-04-10 09:47:30.532,,,,,,,,,,,,,,,,,,,,,,,,,,,,,,,,,,,,,,/muse/elements/blink
2021-04-10 09:47:30.971,0.5307229,0.6615249,0.800144,0.5899328,-0.26496696,0.21673146,0.6895151,-0.03696659,0.3072815,0.46954954,0.30026615,0.5480465,0.390024,0.2535896,0.26370385,0.56797045,0.24718405,-0.19110225,-0.37782753,0.16333842,814.7253,817.5458,822.381,800.6227,855.42126,-0.061767578125,0.0245361328125,1.00244140625,4.1571044921875,-6.98333740234375,0.657958984375,1,1.0,1.0,1.0,1.0,25.00
2021-04-10 09:47:31.471,0.5974301,0.9021964,0.9901414,0.7375185,-0.3327126,0.53330374,0.6745031,-0.19331965,0.2377269,0.7432076,0.5381788,0.52506304,0.3660398,0.3174429,0.27089855,0.58726114,0.21748944,-0.20291758,-0.24879898,0.16277364,810.293,821.5751,803.44324,790.9524,782.49084,-0.07220458984375,0.0123291015625,0.9998779296875,4.02252197265625,-2.863616943359375,0.59814453125,1,1.0,1.0,1.0,1.0,25.00
2021-04-10 09:47:31.745,,,,,,,,,,,,,,,,,,,,,,,,,,,,,,,,,,,,,,/muse/elements/blink
2021-04-10 09:47:31.978,0.5974301,1.1209017,0.9901414,0.7375185,-0.3327126,0.7382243,0.6745031,-0.19331965,0.2377269,0.7683386,0.5381788,0.52506304,0.3660398,0.3613393,0.27089855,0.58726114,0.21748944,-0.29555917,-0.24879898,0.16277364,636.2271,817.1429,810.696,625.7509,614.0659,-0.10748291015625,0.0101318359375,1.00103759765625,3.3197021484375,5.78704833984375,1.009368896484375,1,1.0,1.0,1.0,1.0,25.00
2021-04-10 09:47:32.083,,,,,,,,,,,,,,,,,,,,,,,,,,,,,,,,,,,,,,/muse/elements/blink
2021-04-10 09:47:32.485,0.5974301,1.1705651,1.0897485,0.7375185,-0.3327126,0.81902623,0.54279274,-0.19331965,0.2377269,0.7683386,0.5380855,0.52506304,0.3660398,0.40363586,0.27817768,0.58726114,0.21748944,-0.19117829,-0.21220875,0.16277364,756.7033,807.47253,810.696,763.1502,781.685,-0.26776123046875,-0.002197265625,0.95916748046875,6.392669677734375,5.39825439453125,4.2169189453125,1,1.0,1.0,1.0,1.0,30.00
2021-04-10 09:47:33.004,0.5974301,0.93112975,0.7224655,0.7375185,-0.3327126,0.50940216,0.023455085,-0.19331965,0.2377269,0.76070094,0.23691481,0.52506304,0.3660398,0.3012414,0.30643782,0.58726114,0.21748944,-0.04020465,-0.16506134,0.16277364,791.75824,822.7839,804.65204,791.75824,652.3443,-0.31304931640625,6.103515625E-5,0.95111083984375,3.46923828125,-1.996307373046875,0.426177978515625,1,2.0,1.0,1.0,2.0,30.00
2021-04-10 09:47:33.520,0.5974301,0.364766,0.56748533,0.7375185,-0.3327126,0.11373306,0.011726324,-0.19331965,0.2377269,0.28965965,0.4002655,0.52506304,0.3660398,0.24835853,0.32864797,0.58726114,0.21748944,-0.03474837,-0.1325481,0.16277364,805.4579,821.978,811.9048,807.8755,661.2088,-0.31304931640625,-0.0191650390625,0.9522705078125,4.56085205078125,-5.016937255859375,0.441131591796875,1,2.0,1.0,1.0,2.0,30.00
2021-04-10 09:47:34.035,0.75468224,0.2403215,0.18393223,0.6767702,0.31129998,0.1523416,-0.07825499,0.25206745,0.82163435,0.36352015,0.3419051,0.8906425,0.53870434,0.21642917,0.30146265,0.67462254,0.2687563,-0.051672254,-0.12324114,0.20759644,800.2198,815.9341,811.50183,801.02563,798.60803,-0.30419921875,-0.01519775390625,0.9532470703125,4.83001708984375,-5.7720947265625,0.418701171875,1,1.0,1.0,1.0,1.0,30.00
2021-04-10 09:47:34.549,0.67030007,0.5076587,0.25267598,0.51129,0.2914037,0.19478254,-0.14707775,0.22551107,0.82963735,0.42125756,0.23702535,0.92626435,0.63271517,0.22037853,0.2771599,0.59583586,0.33476582,-0.06617244,-0.06759822,0.276016,807.0696,826.8132,805.4579,793.7729,732.52747,-0.2984619140625,-0.01226806640625,0.95770263671875,4.80010986328125,-6.018829345703125,0.740203857421875,1,1.0,1.0,1.0,1.0,30.00
2021-04-10 09:47:35.056,0.77400607,0.5942399,0.5557093,0.42681408,0.2882075,0.09776809,0.07955217,0.33647487,0.8970591,0.39342943,0.1541395,0.80549556,0.6391795,0.23676427,0.18408252,0.5655873,0.3613716,-0.071535416,-0.0859039,0.20995052,798.20514,794.17584,837.6923,801.4286,751.8681,-0.280029296875,-0.007568359375,0.9547119140625,5.12908935546875,-5.72723388671875,-0.0299072265625,1,1.0,1.0,1.0,1.0,30.00
2021-04-10 09:47:35.567,1.0180793,0.6956735,0.6113768,0.4640741,0.51497805,0.23435284,0.26864198,0.44861034,0.9819481,0.39630312,0.43927372,0.8589662,0.7782034,0.31303748,0.19322892,0.5640351,0.4001837,-0.06787505,-0.113948345,0.2449595,810.293,807.47253,828.4249,813.91943,958.5714,-0.277099609375,-0.002685546875,0.96624755859375,4.687957763671875,-3.828125,-0.381317138671875,1,1.0,1.0,1.0,1.0,30.00
2021-04-10 09:47:36.075,1.2250518,0.6368191,0.6041871,0.68998086,0.6705322,0.2275764,0.40343344,0.6113114,0.98673517,0.41399142,0.5023599,0.86118513,0.8086241,0.3734077,0.15368502,0.6300961,0.45242923,-0.02870896,-0.2442409,0.3869368,826.0073,812.3077,809.89014,819.9634,683.36993,-0.27691650390625,-0.00830078125,0.967529296875,4.209442138671875,-4.4561767578125,0.478515625,1,1.0,1.0,1.0,1.0,30.00
2021-04-10 09:47:36.578,1.3388356,0.5145238,0.32800922,0.83152294,0.8106586,0.17854466,0.283611,0.68211204,0.97051936,0.36947295,0.49650356,0.83585894,0.8918506,0.34609488,0.15762998,0.67632526,0.47491494,-0.05905991,-0.21051669,0.57195723,823.1868,814.3223,815.5311,819.5604,713.5897,-0.2879638671875,-0.0152587890625,0.95361328125,4.20196533203125,-6.4300537109375,0.418701171875,1,1.0,1.0,1.0,1.0,30.00
2021-04-10 09:47:37.088,1.2828859,0.31040645,0.15923432,1.082877,0.8329333,-0.097285874,0.10343339,0.80143505,0.83419776,0.36781418,0.47996145,0.7773618,0.6814018,0.31439888,0.12209988,0.6591761,0.56586397,-0.09357932,-0.13912192,0.6665012,801.4286,818.3516,811.9048,799.81683,705.9341,-0.2769775390625,-0.010986328125,0.96185302734375,4.702911376953125,-5.091705322265625,0.9869384765625,1,1.0,1.0,1.0,1.0,30.00
2021-04-10 09:47:37.608,0.97813654,0.30139607,0.23027593,1.082877,0.7292959,0.23373373,-0.18424502,0.80143505,0.67733955,0.34886768,0.16419122,0.7773618,0.47394457,0.21256618,0.11638697,0.6591761,0.4866976,-0.18724868,-0.11895577,0.6665012,810.293,821.978,797.3993,804.2491,593.91943,-0.2698974609375,-0.005859375,0.9615478515625,4.643096923828125,-5.6524658203125,1.951446533203125,1,1.0,1.0,1.0,1.0,30.00
2021-04-10 09:47:38.138,0.775862,0.35023633,0.28856924,0.96219575,0.51277137,0.2717454,-0.15037985,0.44399846,0.78285444,0.4437424,0.1365592,0.63592815,0.5665409,0.16201074,0.17465591,0.5475377,0.4152498,-0.22058398,-0.19104183,0.29518488,798.20514,820.3663,813.1135,801.02563,784.10254,-0.272705078125,-0.00555419921875,0.968505859375,4.433746337890625,-5.0244140625,1.27105712890625,1,1.0,1.0,1.0,1.0,30.00
2021-04-10 09:47:38.662,0.5758033,0.3497385,0.32502863,0.8470411,0.3686707,0.2365983,-0.12910591,0.56833583,0.99127656,0.48398224,0.13676193,1.0044607,0.63014543,0.13396955,0.23581602,0.48889232,0.3686981,-0.31549188,-0.104064725,0.34582505,788.93774,819.5604,817.5458,783.69965,696.26373,-0.27618408203125,-0.0084228515625,0.95751953125,4.673004150390625,-4.29168701171875,1.256103515625,1,1.0,1.0,1.0,1.0,30.00
2021-04-10 09:47:39.188,0.88675696,0.44910756,0.33456638,0.93429047,0.42610967,0.044322617,-0.1315423,0.5697153,1.167679,0.5900925,0.29320288,1.0241892,0.6919518,0.17419302,0.2736406,0.5612536,0.34151962,-0.33715165,0.050211858,0.3521124,815.5311,805.8608,806.26373,795.38464,729.707,-0.27813720703125,-0.00201416015625,0.9569091796875,4.837493896484375,-4.2169189453125,1.308441162109375,1,1.0,1.0,1.0,1.0,30.00
2021-04-10 09:47:39.704,1.0743439,0.49732035,0.30544516,0.98737454,0.64513874,0.17241517,-0.10634671,0.70279026,1.1509187,0.61809635,0.32765356,1.0488957,0.73785585,0.16599646,0.23270227,0.644709,0.35783318,-0.30653587,0.15441394,0.3993621,821.1722,816.7399,807.47253,803.8461,751.8681,-0.28704833984375,-0.00732421875,0.9605712890625,4.673004150390625,-5.495452880859375,1.308441162109375,1,1.0,1.0,1.0,1.0,30.00
2021-04-10 09:47:40.215,1.1535851,0.6899335,0.3786636,0.9490905,0.6562852,0.3033939,0.33106506,0.55112463,1.1315604,0.6283124,0.50492835,0.8817206,0.7353604,0.11388511,0.22267085,0.7060154,0.3176329,-0.296027,0.11626817,0.33677873,799.011,815.9341,803.44324,803.44324,622.52747,-0.283935546875,-0.00677490234375,0.9609375,4.77020263671875,-4.56085205078125,0.777587890625,1,1.0,1.0,1.0,1.0,30.00
2021-04-10 09:47:40.732,0.92260206,0.59916234,0.25958917,0.7882521,0.63149405,0.2531098,0.34522158,0.54232746,1.0015192,0.5839895,0.45966053,0.8754442,0.62578446,0.10420765,0.21317011,0.68155223,0.37340444,-0.27832833,0.06747068,0.31308672,824.7985,813.91943,824.3956,807.47253,730.9158,-0.27618408203125,-0.00726318359375,0.965087890625,4.702911376953125,-4.9945068359375,0.82244873046875,1,1.0,1.0,1.0,1.0,30.00
2021-04-10 09:47:41.238,0.58073986,0.8119421,0.5265159,0.49495456,0.496711,0.55072635,0.4231435,0.30234626,0.775136,0.6329974,0.47464475,0.5873442,0.5184844,0.1063985,0.23666894,0.59911233,0.3275109,-0.13752177,-0.056449953,0.18658824,807.8755,816.7399,806.6667,802.23444,699.0842,-0.28955078125,-0.0120849609375,0.96014404296875,4.5159912109375,-4.613189697265625,0.0299072265625,1,1.0,1.0,1.0,1.0,30.00
2021-04-10 09:47:41.766,0.49862528,0.68302,0.5501613,0.58340096,0.49226815,0.48003995,0.22956203,0.4446609,0.8849714,0.5864005,0.5277408,0.9142931,0.6191964,0.15044919,0.21387894,0.6045177,0.31007823,-0.16650222,-0.15928216,0.087647796,792.1612,814.7253,811.50183,786.9231,716.8132,-0.299560546875,-0.0084228515625,0.95556640625,4.478607177734375,-3.75335693359375,1.398162841796875,1,1.0,1.0,1.0,1.0,30.00
2021-04-10 09:47:42.292,0.8093929,0.64355934,0.59360063,0.87298197,0.53416467,0.4376107,0.28914425,0.4599099,0.99825364,0.6137267,0.52605045,0.9343501,0.6218286,0.15430143,0.22276235,0.5882575,0.27769327,-0.18665613,-0.21518217,0.10449641,793.7729,806.6667,805.05493,796.99634,725.2747,-0.3087158203125,-0.0196533203125,0.95526123046875,4.29168701171875,-3.3795166015625,1.338348388671875,1,1.0,1.0,1.0,1.0,30.00
2021-04-10 09:47:42.819,1.0284132,0.45556635,0.48796743,0.9996135,0.74129194,0.18027109,0.2555942,0.7319835,1.2187406,0.43706977,0.5148525,1.1545409,0.64127815,0.14841038,0.2162661,0.61889666,0.30027583,-0.36408654,-0.039455406,0.22557674,796.99634,815.9341,814.3223,800.6227,748.24176,-0.31048583984375,-0.02093505859375,0.952392578125,4.53094482421875,-4.822540283203125,1.084136962890625,1,1.0,1.0,1.0,1.0,25.00
2021-04-10 09:47:43.342,1.1068542,0.26784942,0.32395217,1.0531802,0.80792797,0.04232338,0.21688113,0.7330536,1.1964694,0.39381462,0.11138737,1.1500272,0.5876578,0.11298939,0.18966398,0.5957863,0.27564514,-0.34334752,-0.042744435,0.22147538,808.2784,812.71063,819.15753,804.2491,813.5165,-0.30859375,-0.0223388671875,0.94976806640625,5.1739501953125,-4.486083984375,0.366363525390625,1,1.0,1.0,1.0,1.0,25.00
2021-04-10 09:47:43.855,1.0420169,0.22088738,0.29514545,0.9866327,0.85220826,-0.23183799,0.18290874,0.7912684,1.193056,0.27233508,0.14648663,1.1500272,0.6373986,0.0964061,0.17117104,0.6347931,0.26407614,-0.25599396,-0.12962943,0.18568131,801.8315,817.1429,806.26373,796.1905,734.94507,-0.3121337890625,-0.01959228515625,0.95184326171875,4.702911376953125,-5.091705322265625,1.03179931640625,1,1.0,1.0,1.0,1.0,25.00
2021-04-10 09:47:44.365,0.9172737,0.5211519,0.55506426,0.9719913,0.63735414,0.1506384,0.29709798,0.52376086,0.90806574,0.48335242,0.29077744,0.83976185,0.65523446,0.17630915,0.13252603,0.615317,0.09997411,-0.20206663,-0.2711564,0.19226566,808.2784,818.7546,798.60803,801.4286,753.8828,-0.3114013671875,-0.02349853515625,0.95404052734375,4.673004150390625,-4.717864990234375,0.859832763671875,1,1.0,1.0,1.0,1.0,25.00
2021-04-10 09:47:44.879,0.77578413,0.76561517,0.7037242,0.82815194,0.53169787,0.33268604,0.3433205,0.50333893,0.77282274,0.50996053,0.35213456,0.59048855,0.435596,0.2355249,0.1298743,0.51913667,0.07983359,-0.17890863,-0.24643044,0.27044922,826.4103,819.9634,818.7546,823.1868,838.49817,-0.314453125,-0.02154541015625,0.9508056640625,5.03936767578125,-4.972076416015625,0.545806884765625,1,1.0,1.0,1.0,1.0,25.00
2021-04-10 09:47:45.412,0.6028496,0.75518656,0.6753515,0.7326532,0.487032,0.33701092,0.30468735,0.43674922,0.7857235,0.4901295,0.35213456,0.6106244,0.416905,0.23116125,0.12272606,0.5057579,0.21037434,-0.27351162,-0.21819088,0.2851721,788.1319,812.71063,804.65204,780.87915,789.34064,-0.31866455078125,-0.0218505859375,0.94818115234375,5.196380615234375,-5.1141357421875,0.8074951171875,1,1.0,1.0,1.0,1.0,25.00
2021-04-10 09:47:45.913,0.576719,0.73307914,0.5225065,0.7634572,0.48398018,0.24011984,0.26428124,0.45504636,0.77732146,0.4772357,0.2864766,0.7232958,0.37362906,0.17207725,0.17943802,0.4971946,0.2582523,-0.17589301,-0.27282318,0.20185414,790.54944,816.7399,801.02563,775.64105,754.68866,-0.32025146484375,-0.0208740234375,0.9471435546875,4.6356201171875,-4.20196533203125,1.07666015625,1,1.0,1.0,1.0,1.0,25.00
2021-04-10 09:47:46.421,0.63924134,0.5035366,0.33447745,0.77327454,0.37953123,0.1300204,0.16395558,0.36701205,0.7442586,0.32387632,0.18357192,0.70552754,0.38591045,0.103199035,0.19924285,0.5200864,0.26469195,-0.18571685,-0.27294073,0.15036389,803.44324,817.1429,803.8461,798.20514,828.8278,-0.31597900390625,-0.022216796875,0.953857421875,4.38140869140625,-6.123504638671875,0.740203857421875,1,1.0,1.0,1.0,1.0,25.00
2021-04-10 09:47:46.942,0.7927888,0.40740106,0.1945822,0.8298303,0.51342744,0.09799628,0.049459305,0.39500877,0.5152361,0.19484383,0.1961536,0.49151465,0.4274011,0.082945645,0.2042555,0.5159529,0.09466147,-0.18037549,-0.18599232,0.1448269,803.8461,827.619,801.4286,790.54944,704.3223,-0.304931640625,-0.0211181640625,0.9532470703125,4.882354736328125,-5.30853271484375,1.45050048828125,1,1.0,1.0,1.0,1.0,25.00
2021-04-10 09:47:47.457,0.75319505,0.13058037,0.07419018,0.6621824,0.4792015,-0.044077564,-0.14854093,0.28230283,0.5098043,0.28081438,0.15286255,0.4262958,0.43953672,0.089070186,0.11907593,0.54550534,0.025694227,-0.23076408,-0.16613606,0.17722887,791.3553,810.696,808.2784,790.9524,728.49817,-0.29547119140625,-0.01812744140625,0.95379638671875,4.613189697265625,-5.465545654296875,0.79254150390625,1,1.0,1.0,1.0,1.0,25.00
2021-04-10 09:47:47.992,0.6165378,0.40624946,0.18107547,0.6170361,0.4841486,-0.08193822,0.15116903,0.32634267,0.6898908,0.32036415,0.31268397,0.7081128,0.45746592,0.09413361,0.09493751,0.52328193,0.14805187,-0.24502726,-0.14588644,0.16099347,807.0696,812.3077,805.4579,809.4872,778.0586,-0.28668212890625,-0.01922607421875,0.9561767578125,5.7122802734375,-4.26177978515625,3.57391357421875,1,1.0,1.0,1.0,1.0,25.00
2021-04-10 09:47:48.495,0.6283801,0.57641345,0.46537086,0.7056467,0.47202012,0.16167529,0.2658328,0.51411813,0.77818537,0.3514543,0.31762755,0.8180717,0.5247911,0.12858343,0.08812371,0.5633679,0.211729,-0.29292524,-0.21673347,0.13894753,795.78754,807.47253,809.89014,798.60803,662.01465,-0.28857421875,-0.01177978515625,0.95635986328125,5.345916748046875,-4.942169189453125,1.368255615234375,1,1.0,1.0,1.0,1.0,25.00
2021-04-10 09:47:49.001,0.69010156,0.6565009,0.46856257,0.9400734,0.46114245,0.24112618,0.2377193,0.56153965,0.81981474,0.36123514,0.31762755,0.796937,0.6200766,0.1888574,0.08014359,0.5304534,0.301521,-0.29096434,-0.075829364,0.22737981,769.59705,803.0403,821.5751,777.6557,754.68866,-0.2877197265625,-0.01934814453125,0.9569091796875,5.15899658203125,-6.018829345703125,1.188812255859375,1,1.0,1.0,1.0,1.0,25.00
2021-04-10 09:47:49.512,0.8120979,0.62668484,0.6169432,1.0995219,0.513859,0.36599413,0.25364858,0.6398338,0.81981474,0.27843595,0.35341883,0.77709264,0.67464465,0.2333954,0.16530456,0.5318401,0.29686368,-0.18441455,-0.005574535,0.32740632,811.9048,815.5311,813.91943,807.47253,810.293,-0.29876708984375,-0.0167236328125,0.96295166015625,4.448699951171875,-4.246826171875,0.575714111328125,1,1.0,1.0,1.0,1.0,25.00
2021-04-10 09:47:50.024,0.87387806,0.5580559,0.591305,1.2127496,0.33436084,0.24662016,0.2964363,0.4349194,0.5713264,0.24590732,0.3354053,0.6298437,0.71033585,0.22898307,0.11068435,0.45754853,0.38969445,-0.16943151,-0.024465775,0.3981207,801.4286,815.9341,811.50183,805.05493,665.64105,-0.2938232421875,-0.01678466796875,0.95574951171875,4.433746337890625,-4.306640625,1.30096435546875,1,1.0,1.0,1.0,1.0,25.00
2021-04-10 09:47:50.530,0.87387806,0.4285781,0.5864257,1.1408157,0.33436084,0.110282585,0.31330946,0.96637714,0.5713264,0.0413831,0.33382484,0.6882966,0.71033585,0.21520318,0.13954471,0.4372267,0.38969445,-0.15034723,-0.15081497,0.07900147,809.0842,799.81683,805.4579,812.71063,933.9927,-0.30010986328125,-0.0198974609375,0.9542236328125,4.5159912109375,-4.2767333984375,1.188812255859375,1,1.0,1.0,1.0,1.0,25.00
2021-04-10 09:47:51.033,0.3460751,0.1773507,0.29265413,0.8987398,0.5361791,-0.44003507,0.11121424,0.8740707,0.262635,0.013390937,0.13771263,0.5074341,0.31402194,0.12660773,0.021782491,0.34154022,0.27929386,-0.14654878,-0.24028602,-0.0031248792,790.54944,806.26373,803.8461,772.4176,736.9597,-0.3292236328125,-0.0244140625,0.95355224609375,12.8900146484375,-6.57958984375,-5.8319091796875,1,1.0,1.0,1.0,1.0,25.00
2021-04-10 09:47:51.556,0.3460751,0.24804142,-0.08266537,0.8987398,0.5361791,-0.71402806,-0.16555044,0.8740707,0.262635,-0.2465617,0.115328595,0.5074341,0.31402194,0.14203423,0.10990315,0.34154022,0.27929386,-0.15227853,-0.25360972,-0.0031248792,817.5458,814.7253,807.0696,796.99634,749.0476,-0.36419677734375,0.01129150390625,0.93505859375,0.964508056640625,6.706695556640625,11.686248779296875,1,1.0,1.0,1.0,1.0,25.00
2021-04-10 09:47:52.078,0.2775157,0.29330543,-0.19936866,1.2351502,0.5147935,-0.52130187,-0.24283025,0.667014,0.14854707,-0.23055816,0.13014054,0.8322571,0.3086008,0.10188893,0.13788128,0.5204083,0.22403307,-0.18069303,-0.30516675,0.087474376,816.7399,812.71063,809.89014,803.0403,802.6374,-0.41387939453125,-0.0120849609375,0.90185546875,5.181427001953125,-5.181427001953125,14.886322021484375,1,1.0,1.0,1.0,1.0,25.00
2021-04-10 09:47:52.583,0.2775157,0.39959118,0.09593774,1.3647536,0.5147935,-0.44530055,-0.38812926,0.700527,0.14854707,-0.16476135,0.09467382,0.82836336,0.3086008,0.1173561,0.19588885,0.60553604,0.22403307,-0.26037723,-0.34263209,0.13578346,840.5128,821.5751,807.8755,807.0696,716.4103,-0.40582275390625,-0.0145263671875,0.90875244140625,6.437530517578125,-7.88055419921875,-1.4056396484375,1,1.0,1.0,1.0,1.0,25.00
2021-04-10 09:47:53.102,0.2775157,0.39681703,0.22597083,1.3946458,0.5147935,-0.27303076,-0.35768586,0.69801134,0.14854707,0.13445395,0.065671414,0.895914,0.3086008,0.17415658,0.16433705,0.7188093,0.22403307,-0.19029549,-0.25440425,0.26565257,825.6044,813.1135,804.2491,810.293,702.71063,-0.3924560546875,-0.017822265625,0.9161376953125,5.7122802734375,-6.7291259765625,-0.351409912109375,1,1.0,1.0,1.0,1.0,30.00
2021-04-10 09:47:53.608,0.2775157,0.35856774,0.23399127,0.95547915,0.5147935,-0.23382951,-0.1795393,0.6219253,0.14854707,0.3566601,0.3051426,1.1327704,0.3086008,0.2909171,0.11353831,0.69574416,0.22403307,-0.20605052,-0.20225821,0.17546618,814.7253,818.7546,803.44324,787.326,865.09155,-0.3897705078125,-0.0042724609375,0.92315673828125,5.016937255859375,-5.09918212890625,0.2691650390625,1,1.0,1.0,1.0,1.0,30.00
2021-04-10 09:47:54.134,0.8234558,0.24420807,0.10233796,1.0012621,1.0304275,0.05400177,0.29554456,0.82635015,1.2646312,0.49253798,0.508907,1.1418533,0.81208473,0.3205187,0.09197523,0.66707367,0.19966388,-0.22573048,-0.21531107,0.2283162,799.011,815.9341,804.65204,801.8315,767.5824,-0.38433837890625,-0.0107421875,0.92816162109375,4.62066650390625,-6.41510009765625,0.43365478515625,1,1.0,1.0,1.0,1.0,30.00
2021-04-10 09:47:54.642,0.74622816,0.2171955,0.008748138,0.8258511,1.080235,0.31635955,0.52017075,1.0684917,1.3173122,0.52055925,0.5315727,1.1653523,0.69697934,0.22616369,0.12603104,0.6426214,0.23789415,-0.28166687,-0.24157956,0.16208652,832.8571,811.9048,799.011,806.6667,785.31134,-0.38128662109375,-0.01068115234375,0.92486572265625,4.583282470703125,-4.83001708984375,0.381317138671875,1,1.0,1.0,1.0,1.0,30.00
2021-04-10 09:47:55.154,0.65678984,0.31295973,0.014826581,0.7649352,1.2758334,0.53851604,0.56874204,1.2582704,1.3235978,0.5211986,0.62397796,1.1081849,0.69398963,0.1344609,0.18108371,0.6511526,0.33629867,-0.24671662,-0.09882075,0.26251426,817.1429,809.4872,809.4872,818.3516,944.4689,-0.37579345703125,-0.0067138671875,0.92584228515625,4.792633056640625,-5.435638427734375,0.657958984375,1,1.0,1.0,1.0,1.0,30.00
2021-04-10 09:47:55.670,0.8262017,0.35215455,-0.13294719,0.4368597,1.3047787,0.5607068,0.35917136,1.1650662,1.2300562,0.50238746,0.48372015,1.1252908,0.76133233,0.14918265,0.17774636,0.71399677,0.33197707,-0.21203314,0.028269807,0.2980295,819.9634,813.1135,811.9048,820.3663,654.35895,-0.37884521484375,-0.0111083984375,0.92425537109375,4.762725830078125,-4.807586669921875,0.904693603515625,1,1.0,1.0,1.0,1.0,30.00
2021-04-10 09:47:56.187,0.7969715,0.16498579,-0.31134593,0.30895254,1.2205582,0.47002274,0.165782,0.9560385,1.2378397,0.49850318,0.41309828,1.1252908,0.7814019,0.13538425,0.115245655,0.68623364,0.32428744,-0.14653471,0.07616992,0.36467412,790.14655,805.4579,803.0403,777.25275,728.9011,-0.375,-0.01324462890625,0.92840576171875,4.66552734375,-4.844970703125,0.8074951171875,1,1.0,1.0,1.0,1.0,30.00
2021-04-10 09:47:56.688,0.9787735,0.079487994,-0.1589322,0.6103652,0.9062782,0.16308148,0.08850537,0.25930297,1.2290238,0.2749114,0.41162792,0.9303409,0.7414823,0.1640998,0.08043681,0.64649284,0.20701657,-0.20770356,0.032169886,0.29979703,801.4286,827.619,792.96704,786.1172,772.01465,-0.36468505859375,-0.00677490234375,0.93084716796875,5.301055908203125,-6.183319091796875,0.859832763671875,1,1.0,1.0,1.0,1.0,30.00
2021-04-10 09:47:57.196,0.9188154,0.08838825,0.28371996,0.9046126,0.8895609,0.035696603,0.17138515,0.47765884,1.2352997,0.32748815,0.3382107,0.79699177,0.65996873,0.15354677,0.097174615,0.5350111,0.27049965,-0.26507834,0.005514826,0.1970592,816.337,813.91943,817.1429,800.6227,743.00366,-0.37310791015625,-0.0135498046875,0.9287109375,4.1571044921875,-4.77020263671875,0.28411865234375,1,1.0,1.0,1.0,1.0,30.00
2021-04-10 09:47:57.711,0.9770733,0.16279472,0.43035725,1.0198923,0.85314685,0.09782296,0.1659186,0.42644343,1.1788371,0.3227875,0.31628385,0.5789351,0.6396314,0.21316162,0.092329495,0.514385,0.2379084,-0.3368608,-0.076657005,0.1309563,831.6484,820.3663,812.71063,800.6227,753.47986,-0.36895751953125,-0.0126953125,0.92974853515625,4.6356201171875,-5.2337646484375,0.994415283203125,1,1.0,1.0,1.0,1.0,30.00
2021-04-10 09:47:58.215,0.77762973,0.07216493,0.44573224,0.97005963,0.8549167,0.17679742,0.08047282,0.42670813,1.1717497,0.33950627,0.32438684,0.59224224,0.64168376,0.18851323,0.10051907,0.5184045,0.24705896,-0.21897346,-0.13808061,0.12426604,815.9341,817.9487,796.5934,793.36993,745.0183,-0.355224609375,-0.00982666015625,0.93865966796875,5.420684814453125,-5.226287841796875,1.293487548828125,1,1.0,1.0,1.0,1.0,30.00
2021-04-10 09:47:58.722,0.67090076,0.045894332,0.22681916,0.7323739,1.0206187,0.28936148,-0.11720635,0.5646023,1.1315275,0.40057603,0.26527593,0.70745695,0.5957122,0.16507639,0.1324204,0.5755552,0.26780838,-0.13952677,-0.08491161,0.1901971,791.3553,806.6667,805.4579,786.52014,730.5128,-0.358154296875,-0.01263427734375,0.93603515625,5.203857421875,-5.689849853515625,1.682281494140625,1,1.0,1.0,1.0,1.0,30.00
2021-04-10 09:47:59.243,0.6528431,0.040283863,0.15819977,0.49877343,1.0411427,0.2843179,0.013285714,0.6616611,1.0881724,0.50465715,0.34851795,0.6788974,0.5796261,0.18759832,0.17326938,0.6204966,0.26268154,-0.13423851,-0.061010346,0.14618734,785.7143,814.7253,817.9487,784.5055,742.6007,-0.3453369140625,-8.544921875E-4,0.944091796875,5.256195068359375,-5.39825439453125,1.36077880859375,1,1.0,1.0,1.0,1.0,30.00
2021-04-10 09:47:59.767,0.62470937,0.10178639,0.40001687,0.6589334,0.9833741,0.24221732,0.0878206,0.6720541,1.0975647,0.46928987,0.35483947,0.81012547,0.64288,0.25048363,0.21313417,0.59447104,0.2972186,-0.16007541,-0.13113667,0.14392968,799.81683,818.3516,819.5604,785.7143,704.7253,-0.33563232421875,5.4931640625E-4,0.94342041015625,5.2337646484375,-6.018829345703125,1.457977294921875,1,1.0,1.0,1.0,1.0,30.00
2021-04-10 09:48:00.280,0.67068124,0.43997017,0.60860324,0.6767331,0.5305114,0.2102853,0.2420744,0.39706695,0.8229304,0.49559698,0.51050144,0.7731473,0.55681205,0.26698652,0.16057782,0.53201294,0.34921095,-0.19405842,-0.18417457,0.1682214,816.337,812.71063,809.0842,811.50183,882.8205,-0.339111328125,-0.0035400390625,0.939208984375,4.269256591796875,-4.538421630859375,0.35888671875,1,1.0,1.0,1.0,1.0,30.00
2021-04-10 09:48:00.786,0.86047715,0.5383659,0.72332126,0.78635573,0.6643801,0.46557373,0.31386128,0.40301073,0.9914445,0.47682634,0.47931272,0.8269284,0.57166207,0.27520308,0.21185045,0.5161722,0.3755657,-0.18187818,-0.13217252,0.25904304,825.6044,820.7692,805.8608,807.0696,717.619,-0.35137939453125,-3.662109375E-4,0.93975830078125,4.59075927734375,-5.301055908203125,1.18133544921875,1,1.0,1.0,1.0,1.0,30.00
2021-04-10 09:48:01.293,0.99712104,0.5340761,0.63710314,0.68521905,0.76553094,0.4740821,0.28365886,0.32318258,0.9914445,0.48041722,0.4827329,0.8269284,0.47431666,0.18233362,0.16558354,0.4977146,0.4018594,-0.18417351,-0.1275077,0.32813215,804.65204,824.7985,804.65204,802.6374,660.0,-0.3485107421875,-0.00555419921875,0.9378662109375,4.44122314453125,-4.3963623046875,0.94207763671875,1,1.0,1.0,1.0,1.0,30.00
2021-04-10 09:48:01.794,0.90603083,0.222768,0.48429587,0.70709026,0.7275577,0.3553012,0.15614632,0.4218322,0.98166245,0.5146893,0.26744562,0.8269284,0.61987084,0.11652252,0.0939953,0.56164956,0.3653781,-0.1572758,-0.1731765,0.33139658,819.15753,813.5165,809.0842,817.1429,805.8608,-0.35076904296875,-0.00433349609375,0.94268798828125,4.777679443359375,-4.0673828125,0.979461669921875,1,1.0,1.0,1.0,1.0,30.00
2021-04-10 09:48:02.313,0.47912222,-0.1508894,0.086589016,0.36370024,0.58680874,-0.116745494,0.0023124546,0.5822632,0.75333315,0.20374916,0.22436616,0.7427808,0.5722541,0.0372306,-0.032919593,0.52619016,0.30818126,-0.16415562,-0.30348197,0.055191524,805.4579,802.6374,805.4579,801.8315,1040.3663,-0.35552978515625,-0.0015869140625,0.9371337890625,4.747772216796875,-4.23187255859375,1.1962890625,1,1.0,1.0,1.0,1.0,30.00
2021-04-10 09:48:02.838,0.45468163,-0.1888191,-0.058420528,0.26168737,0.6152199,-0.17521934,0.08728926,0.5544571,0.9521586,0.24458653,0.066151224,0.75077254,0.58990127,0.135165,-0.06265704,0.52162826,0.26649967,-0.18337752,-0.27152488,0.13088135,770.40295,807.8755,811.50183,767.1795,680.9524,-0.35748291015625,-0.00341796875,0.93560791015625,4.6954345703125,-4.14215087890625,0.530853271484375,1,1.0,1.0,1.0,1.0,30.00
2021-04-10 09:48:03.365,0.56076825,0.16347362,0.42390624,0.4458685,0.69457287,0.0876435,0.20985852,0.59923214,0.9688098,0.336735,0.3912937,0.761199,0.5520618,0.16389453,0.010328435,0.5109888,0.21232608,-0.20070952,-0.13300866,0.14003089,807.47253,805.8608,799.011,798.60803,771.2088,-0.3580322265625,-0.005615234375,0.93328857421875,5.15899658203125,-4.68048095703125,1.31591796875,1,1.0,1.0,1.0,1.0,30.00
2021-04-10 09:48:03.888,0.61737204,0.19321038,0.5474703,0.6500373,0.5428102,0.08567758,0.13731076,0.49391854,0.9781869,0.23285723,0.3947472,0.6523202,0.62281,0.11726226,0.15361926,0.4960978,0.21222647,-0.1813454,-0.033763666,0.2568299,795.78754,814.3223,806.26373,796.99634,727.6923,-0.35455322265625,-0.00286865234375,0.935302734375,4.6954345703125,-5.659942626953125,1.203765869140625,1,1.0,1.0,1.0,1.0,25.00
2021-04-10 09:48:04.414,0.3961963,0.36192843,0.6060011,0.75913596,-0.17073417,0.07752562,0.08537336,0.32261628,0.77716863,0.20328116,0.37232858,0.47191867,0.7051966,0.029207598,0.19776914,0.4998875,0.28346133,-0.21097697,-0.066043675,0.23264508,811.9048,811.50183,814.3223,804.65204,788.5348,-0.345947265625,-0.00604248046875,0.9395751953125,4.463653564453125,-4.91973876953125,0.650482177734375,1,1.0,1.0,1.0,1.0,25.00
2021-04-10 09:48:04.941,0.28182954,0.6717627,0.6436983,0.5025431,-0.1296475,0.17571546,0.15156877,-0.11186178,0.9847168,0.5250559,0.2171968,0.5011639,0.62797946,0.15089417,0.22286908,0.50079584,0.24486668,-0.25391468,-0.17438066,0.1665049,807.0696,807.8755,806.6667,809.4872,798.60803,-0.352294921875,-0.0068359375,0.9346923828125,4.777679443359375,-5.046844482421875,0.8673095703125,1,1.0,1.0,1.0,1.0,25.00
2021-04-10 09:48:05.465,0.18331814,0.7251853,0.6125097,0.4808586,-0.18094544,0.20366198,0.14909002,0.1500026,1.0207745,0.5398651,0.15953515,0.591848,0.6063043,0.1838553,0.16089597,0.43958914,0.3178754,-0.1172712,-0.23291029,0.10063609,821.5751,807.0696,811.50183,811.50183,672.49084,-0.357421875,-0.00836181640625,0.933837890625,4.5458984375,-4.568328857421875,1.03179931640625,1,1.0,1.0,1.0,1.0,25.00
2021-04-10 09:48:05.991,0.21276256,0.7817483,0.75026387,0.6237431,0.002232489,0.29372442,0.31703484,0.27904707,1.019825,0.54416645,0.2849172,0.5979758,0.5200676,0.16360395,0.08592133,0.4240044,0.29844135,-0.10831835,-0.1861917,0.039677992,805.4579,804.2491,811.0989,805.4579,761.13556,-0.35528564453125,-0.00958251953125,0.935546875,4.7552490234375,-5.03936767578125,1.136474609375,1,1.0,1.0,1.0,1.0,25.00
2021-04-10 09:48:06.520,0.25367767,0.45972452,0.62188303,0.4797984,0.11345657,0.10477224,0.11642126,0.27972302,0.95178795,0.262745,0.367461,0.57878,0.42120218,-0.059079394,0.03682249,0.3133601,0.24061081,-0.14741647,-0.20693097,0.14014754,815.12823,813.91943,801.8315,800.2198,702.71063,-0.3570556640625,-0.0078125,0.93408203125,4.852447509765625,-4.568328857421875,1.158905029296875,1,1.0,1.0,1.0,1.0,25.00
2021-04-10 09:48:07.024,0.2978875,0.37579682,0.5521973,0.39345825,0.379392,0.2682213,0.0800887,0.28595114,0.9782727,0.0944209,0.35870272,0.6575847,0.41471243,-0.056286808,0.08049927,0.33129627,0.139179,-0.34880304,-0.3445835,0.1387312,781.28204,794.17584,806.26373,800.6227,790.9524,-0.3624267578125,-0.00115966796875,0.9423828125,2.28790283203125,-6.228179931640625,-1.338348388671875,1,1.0,1.0,1.0,1.0,25.00
2021-04-10 09:48:07.548,0.6917039,0.0151547715,0.19643252,0.39440092,0.55170417,0.1880505,-0.009678896,0.39245382,0.95165616,0.06953015,0.2431767,0.6595345,0.4105272,0.077256784,0.09466411,0.2861251,0.065642804,-0.37735003,-0.45045322,0.13016644,818.3516,807.47253,811.50183,789.34064,713.1868,-0.33880615234375,-0.0198974609375,0.940185546875,4.29168701171875,-3.06549072265625,0.07476806640625,1,1.0,1.0,1.0,1.0,25.00
2021-04-10 09:48:08.075,1.0140898,0.04521426,0.20352454,0.64346355,0.7203848,0.29023495,0.08642848,0.49474695,1.1573441,0.14174579,0.28501686,0.96153086,0.5393472,0.1552676,0.11246315,0.38860944,0.14682482,-0.28246468,-0.44489068,0.051330063,777.6557,810.696,803.0403,809.89014,705.9341,-0.32623291015625,-0.01898193359375,0.9432373046875,4.8748779296875,-4.68048095703125,0.291595458984375,1,1.0,1.0,1.0,1.0,25.00
2021-04-10 09:48:08.603,1.1404095,0.122326925,0.26095957,0.8885352,0.74676585,0.31295753,0.15838033,0.7711791,1.2237352,0.41661522,0.3715795,1.1351488,0.58427656,0.27854317,0.1469067,0.46496955,0.21488383,-0.0019258873,-0.24682425,0.24523817,816.7399,811.9048,817.9487,802.23444,769.19415,-0.35357666015625,-0.00335693359375,0.94000244140625,6.153411865234375,-4.927215576171875,1.68975830078125,1,1.0,1.0,1.0,1.0,25.00
2021-04-10 09:48:09.122,1.1867857,0.50863284,0.7479569,0.96722966,0.77121115,0.43881893,0.2679951,0.89565784,1.2167884,0.7206063,0.53638643,1.1351488,0.6372797,0.21585417,0.15745164,0.55787694,0.3052937,0.051759385,-0.23971365,0.42716098,822.381,833.663,806.6667,805.4579,681.3553,-0.33746337890625,0.0029296875,0.9434814453125,3.7982177734375,-6.960906982421875,-6.975860595703125,1,1.0,1.0,1.0,1.0,25.00
2021-04-10 09:48:09.655,1.3111733,0.66620636,0.7205479,1.0324618,0.978076,0.4263372,0.2486591,1.0497946,1.3556156,0.78557205,0.53638643,1.0908694,0.5976046,0.20951319,0.09654836,0.58887637,0.24448724,6.656114E-4,-0.26034114,0.5604083,809.89014,827.619,821.978,815.9341,759.12085,-0.32781982421875,0.03533935546875,0.9508056640625,4.23187255859375,-3.222503662109375,2.115936279296875,1,1.0,1.0,1.0,1.0,25.00
2021-04-10 09:48:10.163,1.5985723,0.9180271,0.7399187,0.44620064,1.1812236,0.33382922,0.18011157,0.7048254,1.293372,0.8498066,0.48153803,0.7946807,0.5014884,0.19672276,-0.004561027,0.57448816,0.08735366,-0.2366767,-0.41095784,0.46239996,795.78754,824.3956,813.91943,803.8461,776.4469,-0.35845947265625,0.02972412109375,0.940185546875,5.794525146484375,-8.2244873046875,3.476715087890625,1,1.0,1.0,1.0,1.0,25.00
2021-04-10 09:48:10.682,1.4693031,0.9606447,0.35185316,0.058929447,1.0293139,0.2147422,-0.21533483,0.42137912,1.3042172,0.71911293,0.36845133,0.79114944,0.49233893,0.28937718,-0.007734625,0.47021353,0.17838539,-0.3371037,-0.4680392,0.19219162,832.8571,831.6484,808.2784,812.71063,699.89014,-0.35693359375,0.01220703125,0.93572998046875,4.164581298828125,-5.405731201171875,0.515899658203125,1,1.0,1.0,1.0,1.0,25.00
2021-04-10 09:48:11.197,1.2177336,0.929717,0.39884177,0.11938581,0.7627104,0.13664013,-0.24531661,0.42089024,1.2211267,0.6388697,0.2732663,0.8357997,0.5571754,0.23908672,0.03772787,0.42310813,0.24897493,-0.32215557,-0.4789352,0.085294895,805.8608,807.8755,801.4286,795.38464,799.41394,-0.3511962890625,0.010986328125,0.94073486328125,4.867401123046875,-4.53094482421875,0.800018310546875,1,1.0,1.0,1.0,1.0,25.00
2021-04-10 09:48:11.702,1.0180247,0.7487308,0.716757,0.6292841,0.67980915,0.2735802,-0.0982084,0.466864,0.89584184,0.6508906,0.18227875,0.7557248,0.55656344,0.10321723,0.062670514,0.3911777,0.28460306,-0.35922834,-0.54431677,-0.027767321,806.6667,843.3333,793.7729,791.3553,779.67035,-0.34771728515625,0.00701904296875,0.9417724609375,4.897308349609375,-5.5029296875,0.35888671875,1,1.0,1.0,1.0,1.0,25.00
2021-04-10 09:48:12.214,0.87891835,0.8533452,0.943293,0.8064605,0.6865609,0.4303562,0.11761003,0.50835395,0.8803184,0.5595677,0.45711768,0.7557248,0.5851216,-0.02591891,0.1797735,0.41489047,0.2845503,-0.35543948,-0.5424255,-0.05218739,799.011,826.0073,804.2491,804.65204,608.022,-0.34918212890625,0.009765625,0.93865966796875,4.3963623046875,-4.777679443359375,1.21124267578125,1,1.0,1.0,1.0,1.0,25.00
2021-04-10 09:48:12.736,0.79857904,0.9461898,1.0011917,0.85126746,0.6138036,0.47563255,0.2485597,0.5859968,0.8680025,0.5475422,0.51214665,0.9547656,0.4361242,0.0014408614,0.2533191,0.5072776,0.32436,-0.34765857,-0.43425542,0.11459633,819.5604,817.9487,806.26373,818.7546,833.2601,-0.34185791015625,0.0093994140625,0.9423828125,5.046844482421875,-4.822540283203125,1.48040771484375,1,1.0,1.0,1.0,1.0,25.00
2021-04-10 09:48:13.241,0.21587236,0.8907509,0.79968154,0.5158501,0.1517728,0.29086235,0.14239821,0.3843584,0.76632565,0.45877197,0.51214665,0.9312463,0.45611015,0.05951847,0.21337734,0.4092952,0.3540553,-0.33986863,-0.36788753,0.13717353,802.6374,817.5458,809.0842,807.0696,695.8608,-0.3450927734375,0.0078125,0.94158935546875,4.553375244140625,-4.8748779296875,1.024322509765625,1,1.0,1.0,1.0,1.0,25.00
2021-04-10 09:48:13.756,0.16461813,0.39030942,0.19572996,0.15947129,0.23912923,-0.15075468,-0.15107958,0.24768542,0.8949732,0.20506302,0.35949543,0.9422089,0.4793901,0.068511195,0.10146412,0.3665734,0.29465458,-0.35532454,-0.3154967,0.1085133,816.337,814.3223,803.44324,803.0403,711.978,-0.3497314453125,0.01007080078125,0.93994140625,5.0244140625,-4.74029541015625,0.934600830078125,1,1.0,1.0,1.0,1.0,30.00
2021-04-10 09:48:14.262,0.13052657,-0.44933733,-0.21881098,0.14362547,0.16245635,-0.33026922,-0.32354772,0.11724544,0.9643448,0.15894857,-0.33249676,0.61557513,0.53941035,0.019601969,0.02079765,0.3062774,0.1939813,-0.393586,-0.36617792,0.029682696,830.0366,804.65204,806.6667,807.47253,747.4359,-0.3431396484375,0.012939453125,0.93585205078125,4.747772216796875,-4.85992431640625,1.54022216796875,1,1.0,1.0,1.0,1.0,30.00
2021-04-10 09:48:14.796,-0.14404264,-0.40249586,-0.20615591,0.19136034,0.23593204,-0.29855233,-0.19576095,0.29835272,0.94281477,0.1324899,-0.27185735,0.59975183,0.5100862,0.025049707,0.06530029,0.4249098,0.1146261,-0.4325099,-0.43837434,-0.054841995,703.91943,787.72894,826.0073,701.9048,705.9341,-0.34100341796875,0.00634765625,0.94134521484375,4.538421630859375,-4.852447509765625,1.03179931640625,1,1.0,1.0,1.0,1.0,30.00
2021-04-10 09:48:15.306,-0.3117146,0.37922603,0.65211666,0.20629565,0.14567098,-0.16970038,-0.06951574,0.3740041,0.89350533,0.019408682,-0.20530133,0.5717573,0.5054054,-0.049570534,0.05688716,0.4585461,0.086129576,-0.50930005,-0.509432,-0.093187004,820.3663,815.9341,803.44324,806.6667,785.7143,-0.3424072265625,0.01605224609375,0.941650390625,6.482391357421875,-4.194488525390625,-1.338348388671875,1,1.0,1.0,1.0,1.0,30.00
2021-04-10 09:48:15.830,-0.16541699,0.66351604,1.0244064,0.20975229,0.19870538,0.010313386,0.2335541,0.45636216,0.2207109,-0.19383523,-0.09719897,0.36126912,0.42910317,-0.055225335,0.12690158,0.52007383,0.21378377,-0.58951926,-0.52537394,-0.102164745,781.28204,805.8608,803.0403,813.5165,727.6923,-0.355224609375,0.005126953125,0.92822265625,0.680389404296875,-9.562835693359375,5.5328369140625,1,1.0,1.0,1.0,1.0,30.00
2021-04-10 09:48:16.355,-0.16541699,0.9453406,1.2008221,0.18784958,0.19870538,0.27446628,0.357829,0.47139624,0.2207109,0.47240114,0.25119933,0.30745906,0.42910317,-0.12949294,0.14024931,0.5229143,0.21378377,-0.6741945,-0.40814254,-0.07264204,831.2454,815.5311,803.44324,823.5897,722.4542,-0.3624267578125,0.0479736328125,0.93304443359375,5.959014892578125,-0.994415283203125,1.413116455078125,1,1.0,1.0,1.0,1.0,30.00
2021-04-10 09:48:16.872,-0.16541699,0.804715,1.1251988,0.18784958,0.19870538,0.4006218,0.3658938,0.47139624,0.2207109,0.50755775,0.41583475,0.30745906,0.42910317,-0.027908241,0.10524182,0.5229143,0.21378377,-0.5162197,-0.2381565,-0.07264204,812.71063,807.8755,801.02563,805.4579,730.9158,-0.34228515625,0.01611328125,0.94097900390625,5.14404296875,-5.6524658203125,0.3289794921875,1,1.0,1.0,1.0,1.0,30.00
2021-04-10 09:48:17.378,-0.16541699,0.6224788,0.8871254,1.0603932,0.19870538,0.24299885,0.22849883,0.48226976,0.2207109,0.50755775,0.40059167,0.5439193,0.42910317,-0.046298508,0.045578483,0.37627164,0.21378377,-0.50604,-0.25539008,0.022047719,805.4579,816.7399,803.0403,804.65204,738.5714,-0.3572998046875,0.01080322265625,0.9364013671875,3.446807861328125,-5.570220947265625,-0.9869384765625,1,1.0,1.0,1.0,1.0,30.00
2021-04-10 09:48:17.881,-0.0037298927,0.160536,0.6043105,0.8277919,0.1288397,-0.029232329,-0.020099053,0.3305764,-0.016811196,0.18131073,0.3637722,0.59650236,0.18000443,-0.02868505,0.041731503,0.3721383,0.012632081,-0.4721369,-0.3727147,-0.03232906,800.6227,809.0842,808.2784,796.5934,791.75824,-0.34405517578125,-0.01177978515625,0.937744140625,5.09918212890625,-4.97955322265625,2.429962158203125,1,1.0,1.0,1.0,1.0,30.00
2021-04-10 09:48:18.394,-0.12822416,-0.36045536,-0.062016863,0.1659235,0.17468923,-0.35387042,-0.04101262,0.015078719,0.6969749,-0.009920942,0.10431834,0.48172066,0.25561303,-0.030002845,0.08294239,0.36524314,0.011073845,-0.44099423,-0.480439,-0.066675775,814.3223,804.65204,811.0989,811.50183,838.49817,-0.346435546875,-0.0045166015625,0.93896484375,5.076751708984375,-4.127197265625,-0.261688232421875,1,1.0,1.0,1.0,1.0,30.00
2021-04-10 09:48:18.900,-0.048315655,-0.25017178,-0.2756003,-0.0022121686,0.2409433,-0.23336475,-0.17099138,0.020911196,0.71476936,-0.005411303,0.13221061,0.50683683,0.30065167,-0.028965188,0.16018859,0.43940285,-0.011203048,-0.4506947,-0.39157656,-0.03589276,774.43225,809.0842,792.96704,754.2857,719.2308,-0.34796142578125,-0.012939453125,0.93951416015625,5.495452880859375,-4.42626953125,0.500946044921875,1,1.0,1.0,1.0,1.0,30.00
2021-04-10 09:48:19.422,-0.07245146,-0.045214772,-0.0076576252,0.086149774,0.28773174,-0.19514331,-0.16785961,-0.0022493857,0.7103696,0.012435262,0.2572796,0.42205217,0.3503642,-0.05446294,0.17279354,0.47055772,-0.023629814,-0.45247552,-0.35904855,0.0055668354,799.41394,804.65204,809.89014,805.05493,896.9231,-0.34002685546875,-0.006103515625,0.94415283203125,5.211334228515625,-5.241241455078125,0.246734619140625,1,1.0,1.0,1.0,1.0,30.00
2021-04-10 09:48:19.954,0.07753045,0.122352004,0.48479444,0.15053539,0.34916243,-0.27200103,-0.2097931,-0.050709713,0.6875732,0.03923456,0.25187275,0.3622242,0.37875238,-0.007162272,0.1829865,0.52610683,-0.0595089,-0.48024866,-0.391036,0.036493592,820.7692,805.4579,808.68134,808.2784,800.2198,-0.3504638671875,-0.0067138671875,0.94073486328125,5.091705322265625,-4.658050537109375,0.538330078125,1,1.0,1.0,1.0,1.0,30.00
2021-04-10 09:48:20.462,0.13015307,0.07193533,0.5457463,0.16481704,0.36011928,-0.44559953,-0.04292288,-0.13023728,0.6200885,0.072629154,0.1649579,0.32830247,0.3870217,0.0073511624,0.11678662,0.5190102,-0.05688017,-0.42445463,-0.4471289,0.10545512,807.0696,807.0696,799.81683,799.81683,672.0879,-0.347412109375,-0.0047607421875,0.94342041015625,5.084228515625,-5.988922119140625,1.039276123046875,1,1.0,1.0,1.0,1.0,30.00
2021-04-10 09:48:20.989,0.13015307,-0.17630318,0.6053902,0.5434881,0.36011928,-0.5508726,-0.020839969,0.37614086,0.6200885,-0.017712118,-0.03798018,0.45382473,0.3870217,0.021251913,0.09786675,0.3514893,-0.05688017,-0.45128545,-0.49870595,-0.09683427,803.44324,803.0403,800.6227,800.6227,746.63007,-0.3388671875,4.2724609375E-4,0.9466552734375,4.94964599609375,-6.153411865234375,1.577606201171875,1,1.0,1.0,1.0,1.0,30.00
2021-04-10 09:48:21.495,0.5301403,-0.8424107,0.3133735,0.4070709,0.30210862,-0.54689366,-0.12714791,0.27384728,0.41064563,-0.031816114,-0.21330443,0.49120405,0.509573,-0.03509838,-0.020084772,0.47384903,0.020254195,-0.4936075,-0.44675034,-0.1389892,801.02563,815.9341,800.6227,804.2491,716.8132,-0.324462890625,0.001953125,0.94512939453125,4.59075927734375,-6.220703125,1.248626708984375,1,1.0,1.0,1.0,1.0,30.00
2021-04-10 09:48:22.006,0.51595616,-0.8384663,0.2380206,0.2693482,0.37830138,-0.48115104,-0.30657548,0.3429815,0.53192544,0.015442654,-0.01612321,0.5217454,0.46275452,-0.00217049,-0.07592206,0.4577734,0.041955035,-0.49501616,-0.42507336,-0.16507281,794.57874,812.3077,808.2784,799.81683,737.76556,-0.323486328125,-0.00189208984375,0.951416015625,4.47113037109375,-5.1739501953125,0.43365478515625,1,1.0,1.0,1.0,1.0,30.00
2021-04-10 09:48:22.509,0.5015372,-0.55557674,-0.10820939,0.23951033,0.30033928,-0.4740746,-0.34924194,0.2529065,0.60052717,-0.14334773,0.11546378,0.599431,0.46130246,-0.044045087,-0.08075964,0.418598,0.09850435,-0.47789496,-0.39365146,-0.21343464,811.0989,807.47253,809.89014,804.2491,763.95605,-0.3336181640625,0.00225830078125,0.9462890625,4.366455078125,-3.940277099609375,1.12152099609375,1,1.0,1.0,1.0,1.0,30.00
2021-04-10 09:48:23.016,0.56148434,-0.3454073,0.0103553105,0.30654404,0.2810992,-0.42607382,-0.30404428,0.28436676,0.6349535,-0.06039121,0.12914418,0.59542626,0.46606618,0.0077539235,0.06686534,0.2718719,0.14482675,-0.4163905,-0.4350594,-0.19566636,790.14655,805.4579,805.05493,780.07324,667.25275,-0.340576171875,8.544921875E-4,0.93896484375,4.628143310546875,-5.016937255859375,1.42059326171875,1,1.0,1.0,1.0,1.0,30.00
2021-04-10 09:48:23.518,0.6049468,-0.07005667,-0.053666197,0.21763909,0.052538123,-0.39301288,-0.18718588,-0.069752015,0.60964775,-0.06373383,0.21115768,0.34561333,0.5208813,-0.011901025,0.16828309,0.18382402,0.18885386,-0.40999088,-0.36645022,-0.16650285,814.7253,810.293,804.65204,808.2784,732.52747,-0.3427734375,-0.0067138671875,0.94366455078125,4.65057373046875,-3.925323486328125,0.70281982421875,1,1.0,1.0,1.0,1.0,30.00
2021-04-10 09:48:24.040,0.7038862,0.18661898,-0.07342222,0.24302422,0.14676927,-0.2036792,-0.06532342,-0.39506203,0.51630616,0.102432206,0.085185915,0.30840862,0.5850023,0.023490151,0.16476409,0.14590108,0.2116426,-0.3699314,-0.2973695,-0.14487532,813.1135,806.6667,807.0696,813.5165,824.7985,-0.34930419921875,-0.0064697265625,0.9407958984375,5.136566162109375,-4.42626953125,1.517791748046875,1,1.0,1.0,1.0,1.0,25.00
2021-04-10 09:48:24.552,0.7038862,0.69522077,0.56932443,0.24302422,0.14676927,0.07097163,0.17436829,-0.39506203,0.51630616,0.1673255,0.27084,0.30840862,0.5850023,0.037576076,0.12570155,0.14590108,0.2116426,-0.35860068,-0.18663812,-0.14487532,814.7253,817.9487,799.81683,821.1722,750.2564,-0.352783203125,-0.0067138671875,0.9351806640625,4.8748779296875,-4.403839111328125,1.6748046875,1,1.0,1.0,1.0,1.0,25.00
2021-04-10 09:48:25.059,0.7038862,0.72271836,0.64846957,0.3680516,0.14676927,0.12625395,0.16489525,0.40649077,0.51630616,0.17479219,0.30580837,0.38490635,0.5850023,0.044899408,-0.024767004,0.34432125,0.2116426,-0.40429187,-0.17382395,0.025306934,819.15753,821.5751,815.5311,813.1135,710.7692,-0.35552978515625,-0.01007080078125,0.93438720703125,4.68048095703125,-4.17205810546875,0.725250244140625,1,1.0,1.0,1.0,1.0,25.00
2021-04-10 09:48:25.562,0.7929248,0.671433,0.6470352,0.470204,0.24053636,0.10365157,0.117675565,0.32092625,0.61257374,0.13662054,0.2968937,0.40655085,0.3512664,0.028239958,-0.059853964,0.293429,0.13337496,-0.4342297,-0.23865339,0.036426373,814.3223,814.7253,807.0696,814.3223,796.1905,-0.3533935546875,-0.00701904296875,0.933837890625,4.4561767578125,-4.807586669921875,-0.0897216796875,1,1.0,1.0,1.0,1.0,25.00
2021-04-10 09:48:26.078,0.18966188,0.10064594,0.12357487,0.3488697,0.28563452,-0.121984795,-0.130876,0.22554907,0.8541612,-0.043430954,0.17891374,0.5498491,0.40811735,0.022652451,-0.12498608,0.23385265,0.15817364,-0.47079727,-0.3145259,-0.044102166,780.4762,810.293,798.20514,794.57874,731.31866,-0.354248046875,-0.0067138671875,0.93585205078125,4.80010986328125,-5.562744140625,1.33087158203125,1,1.0,1.0,1.0,1.0,25.00
2021-04-10 09:48:26.584,0.42558312,-0.25694773,-0.13194674,0.245376,0.25306532,-0.21362616,-0.1809136,0.05446246,0.8550968,0.048813954,0.20271869,0.54363805,0.42108098,0.0062413323,-0.061195634,0.18911697,0.11484403,-0.3966136,-0.44184116,-0.08552783,801.02563,803.44324,807.0696,801.02563,740.989,-0.3544921875,-0.00677490234375,0.93670654296875,4.9346923828125,-4.97955322265625,1.06170654296875,1,1.0,1.0,1.0,1.0,25.00
2021-04-10 09:48:27.100,1.0476128,-0.30625358,-0.13573201,-0.013086826,0.40243176,-0.18223862,-0.23322242,0.03184088,0.8808066,0.0669552,0.12402558,0.54363805,0.44218737,-0.0065821293,-0.0507279,0.21963495,0.17239486,-0.4102345,-0.38834482,-0.09185503,788.93774,809.89014,810.696,778.46155,751.06226,-0.35040283203125,-0.0113525390625,0.9410400390625,4.7552490234375,-4.35150146484375,1.069183349609375,1,1.0,1.0,1.0,1.0,25.00
2021-04-10 09:48:27.612,1.2620336,0.19044706,0.012537186,0.13262703,0.34474108,0.1101,-0.19002174,-0.054938227,0.6766746,0.35228223,0.09630876,0.18898606,0.45788667,-0.07409309,0.0033807303,0.26504,0.21087027,-0.30892104,-0.3240728,-0.014548586,811.9048,814.7253,803.8461,793.7729,701.9048,-0.34918212890625,-0.0093994140625,0.93963623046875,4.7552490234375,-4.83001708984375,0.82244873046875,1,1.0,1.0,1.0,1.0,25.00
2021-04-10 09:48:28.125,1.3315903,0.4281547,0.14699127,0.118888736,0.41412997,0.1413937,-0.058606345,0.02620942,0.6605347,0.33810905,-0.018185742,-0.09243676,0.46356323,-0.12500682,0.081277214,0.29932368,0.26991573,-0.34652975,-0.28372288,0.05239243,828.4249,805.05493,803.44324,810.696,776.4469,-0.35205078125,-0.0096435546875,0.93438720703125,4.8748779296875,-3.768310546875,1.532745361328125,1,1.0,1.0,1.0,1.0,25.00
2021-04-10 09:48:28.628,1.2115953,0.4840184,0.26632044,0.118888736,0.35330334,0.11386079,-0.042927776,0.02620942,0.6573512,0.32590476,0.08373388,-0.09243676,0.48634776,-0.17223658,0.17614023,0.29932368,0.2656366,-0.38060343,-0.28442237,0.05239243,798.60803,810.293,797.3993,800.6227,721.2454,-0.34149169921875,-0.01220703125,0.9365234375,4.463653564453125,-6.826324462890625,1.36077880859375,1,1.0,1.0,1.0,1.0,25.00
2021-04-10 09:48:29.152,0.7733353,0.42657077,0.26451233,0.74262047,0.6806319,-0.041362833,-0.066943906,0.4854204,1.0120882,0.34090963,0.12785134,1.0156156,0.530717,-0.08534675,0.16430399,0.28251326,0.24733922,-0.43113536,-0.32182384,0.06738332,793.7729,808.68134,806.6667,815.12823,742.1978,-0.335693359375,-0.01361083984375,0.94537353515625,4.725341796875,-6.930999755859375,-0.067291259765625,1,1.0,1.0,1.0,1.0,25.00
2021-04-10 09:48:29.659,1.0235852,0.51872784,0.59343106,0.7775213,0.9706673,0.09258726,0.12521589,0.7082593,1.0397317,0.34558555,0.3249783,1.0418856,0.5878847,0.11304904,0.19542807,0.595204,0.42675978,-0.1540201,-0.29350412,0.49827865,796.5934,807.8755,811.0989,800.2198,736.9597,-0.30926513671875,-0.0015869140625,0.961181640625,8.127288818359375,-6.317901611328125,-3.69354248046875,1,1.0,1.0,1.0,1.0,25.00
2021-04-10 09:48:30.168,1.1191941,0.53288096,0.63968045,0.8573257,0.9744428,0.30583492,0.25208205,0.73601437,1.0820081,0.51210743,0.36945182,1.0577177,0.6292525,0.24762207,0.17944242,0.59249294,0.49634603,0.1244967,-0.2693573,0.59183997,823.9927,806.6667,800.2198,811.9048,782.49084,-0.3392333984375,-0.00286865234375,0.9425048828125,3.24493408203125,-5.3533935546875,2.1533203125,1,1.0,1.0,1.0,1.0,25.00
2021-04-10 09:48:30.692,1.346128,0.51995873,0.7134284,0.9294169,1.1824872,0.4828609,0.3506227,0.825054,1.0313411,0.6475899,0.4669346,0.91820616,0.72745854,0.22167072,0.16152456,0.7048403,0.68540496,0.12660918,-0.24313606,0.7376653,823.5897,815.5311,814.3223,806.6667,744.61536,-0.33367919921875,-0.0098876953125,0.9422607421875,4.403839111328125,-3.51409912109375,0.814971923828125,1,1.0,1.0,1.0,1.0,25.00
2021-04-10 09:48:31.196,1.4554313,0.17413472,0.39060783,1.2282226,0.6561256,0.35208154,0.1838422,0.64128655,1.0881047,0.6151562,0.4669346,0.91595685,0.8268165,0.09399796,-4.708473E-4,0.5317271,0.45143768,-0.02385643,-0.32799923,0.4879513,789.7436,812.3077,805.05493,786.9231,813.1135,-0.34075927734375,-0.0150146484375,0.93988037109375,4.11224365234375,-5.465545654296875,-0.0299072265625,1,1.0,1.0,1.0,1.0,25.00
2021-04-10 09:48:31.716,1.2328979,0.03152988,0.20583026,1.2901944,0.263757,0.11548282,-0.083230026,0.426822,0.93794686,0.5670134,0.42528248,0.7673328,0.672735,-0.04977645,-0.05146459,0.52411526,0.09617543,-0.36768636,-0.33254212,-0.021649934,804.2491,825.6044,803.8461,801.8315,710.3663,-0.33319091796875,-0.0120849609375,0.9437255859375,4.71038818359375,-5.33843994140625,1.36077880859375,1,1.0,1.0,1.0,1.0,25.00
2021-04-10 09:48:32.233,1.1450409,-0.052781474,-0.22034916,1.0517821,0.27614507,-0.19671495,-0.46943015,0.54656523,0.94480264,0.0024358372,0.09518253,0.7747479,0.64898694,-0.009634616,-0.07194273,0.5391093,0.11198967,-0.31873852,-0.341649,-0.017000489,810.293,809.4872,805.8608,810.293,706.7399,-0.326904296875,-0.00982666015625,0.95166015625,4.6356201171875,-4.613189697265625,-0.478515625,1,1.0,1.0,1.0,1.0,25.00
2021-04-10 09:48:32.765,0.8984267,-0.058231663,-0.34294724,0.3149643,0.19368601,-0.33874226,-0.5298041,0.6022494,0.8772506,-0.12452998,0.05584212,0.63782185,0.5615101,0.04031848,-0.10989014,0.53022254,0.0869984,-0.3180736,-0.33036733,0.1638777,801.4286,811.9048,801.4286,805.4579,689.41394,-0.33734130859375,-0.00225830078125,0.9442138671875,4.8748779296875,-3.401947021484375,2.46734619140625,1,1.0,1.0,1.0,1.0,25.00
2021-04-10 09:48:33.269,0.7358353,-2.996104E-4,-0.20421328,0.43438524,0.2292252,-0.61657715,-0.38557926,0.5165195,0.6680925,-0.14854534,-0.16226406,0.6088904,0.5501202,0.07228115,-0.14986433,0.54807574,0.09303979,-0.25991553,-0.37872213,0.14733857,801.8315,809.0842,809.89014,803.8461,700.696,-0.332763671875,-0.0045166015625,0.94720458984375,4.912261962890625,-4.486083984375,1.33087158203125,1,1.0,1.0,1.0,1.0,25.00
2021-04-10 09:48:33.775,0.63560736,-0.055960022,0.058825627,0.5745723,0.30676278,-0.49325076,-0.24338637,0.5183052,0.8901253,-0.027201846,-0.089841835,0.68445003,0.530133,0.0289671,0.0022254488,0.5007692,0.0878482,-0.28873485,-0.47514495,0.18402033,776.04395,810.293,806.6667,780.4762,854.21246,-0.33367919921875,-0.00762939453125,0.9427490234375,4.41131591796875,-4.538421630859375,0.186920166015625,1,1.0,1.0,1.0,1.0,25.00
2021-04-10 09:48:34.287,0.5528947,0.35959095,0.52318513,0.7776103,0.421619,0.052458744,0.07712393,0.5408926,0.88878024,0.37379062,-0.011095036,0.69928014,0.55648685,0.08800475,0.15020046,0.47622174,0.102003105,-0.28372392,-0.3947412,0.05004727,817.1429,827.2161,802.23444,794.57874,705.9341,-0.34808349609375,-0.0162353515625,0.94342041015625,4.373931884765625,-3.910369873046875,1.338348388671875,1,1.0,1.0,1.0,1.0,25.00
2021-04-10 09:48:34.794,0.58052534,0.5992607,0.6566306,0.8730824,0.46459976,0.2520228,0.22081667,0.716446,0.88878024,0.4274135,0.40254784,0.6982285,0.574902,0.12522669,0.26674494,0.39464122,0.12686099,-0.35039455,-0.33101222,0.02215821,819.15753,782.0879,834.87177,812.3077,706.337,-0.34222412109375,-0.00933837890625,0.9407958984375,4.5458984375,-4.658050537109375,0.3887939453125,1,1.0,1.0,1.0,1.0,30.00
2021-04-10 09:48:35.311,0.58052534,0.8989954,0.8724012,0.8730824,0.46459976,0.47705668,0.43943137,0.716446,0.88878024,0.56180024,0.4895386,0.6982285,0.574902,0.23840313,0.26330063,0.39464122,0.12686099,-0.4057029,-0.25974116,0.02215821,817.9487,814.3223,809.0842,803.0403,793.36993,-0.353271484375,-0.01416015625,0.94085693359375,5.263671875,-4.83001708984375,0.785064697265625,1,1.0,1.0,1.0,1.0,30.00
2021-04-10 09:48:35.838,0.41610342,0.9362096,0.87779105,0.57879275,0.43270728,0.4761098,0.5209136,0.51830703,0.6746599,0.55664355,0.5401694,0.46486676,0.50037146,0.2920512,0.240225,0.43772316,0.1568913,-0.46606582,-0.29402056,0.038462747,799.41394,812.3077,802.6374,804.65204,699.4872,-0.34564208984375,-0.01202392578125,0.93890380859375,4.747772216796875,-4.852447509765625,1.173858642578125,1,1.0,1.0,1.0,1.0,30.00
2021-04-10 09:48:36.348,0.6212864,0.8396997,0.80925333,0.6097035,0.45785394,0.37177888,0.5043423,0.38890925,0.68050176,0.5430416,0.52147835,0.46486676,0.4728728,0.28059712,0.11756715,0.518779,0.16822767,-0.5656725,-0.4285358,0.017513895,846.9597,806.6667,798.60803,814.3223,887.6557,-0.3402099609375,-0.00787353515625,0.94244384765625,5.14404296875,-5.151519775390625,1.39068603515625,1,1.0,1.0,1.0,1.0,30.00
2021-04-10 09:48:36.870,0.6212864,0.52974933,0.5550316,0.6473544,0.45785394,0.06860717,0.32046396,0.3130718,0.68050176,0.36287686,0.4716691,0.4411625,0.4728728,0.21337608,0.069336735,0.526504,0.16822767,-0.34747112,-0.37209487,-0.011521704,823.9927,813.1135,808.2784,811.50183,795.38464,-0.34051513671875,-0.0064697265625,0.94403076171875,5.33843994140625,-4.448699951171875,1.727142333984375,1,1.0,1.0,1.0,1.0,30.00
2021-04-10 09:48:37.379,0.7139396,0.26200765,0.37712127,0.5431754,0.38602382,-0.18299776,0.13106346,0.12399982,0.27024573,0.2156821,0.4654596,0.4865254,0.43687415,0.16336714,0.01870028,0.49489906,0.18040016,-0.28624755,-0.36770046,0.024228517,815.12823,818.7546,800.2198,797.8022,751.4652,-0.33917236328125,-0.0018310546875,0.94482421875,4.732818603515625,-4.41131591796875,1.188812255859375,1,1.0,1.0,1.0,1.0,30.00
2021-04-10 09:48:37.882,0.019749358,-0.3294896,-0.065737195,0.33588037,0.35462168,-0.3943469,-0.21096087,0.19519068,0.6778817,-0.10832651,-0.027911237,0.40805474,0.65465546,0.15688933,0.06688993,0.41919348,0.19709578,-0.23314965,-0.40238768,0.09254286,797.8022,788.93774,813.91943,797.3993,856.63007,-0.34234619140625,-0.00787353515625,0.94189453125,4.673004150390625,-4.59075927734375,0.95703125,1,1.0,1.0,1.0,1.0,30.00
2021-04-10 09:48:38.390,0.6819193,0.19384262,-0.10769864,0.35069945,0.4953149,-0.026029624,-0.20725648,0.31953672,0.9253021,0.26550648,0.009449353,0.74419874,0.6253167,0.12636538,0.032766394,0.36888295,0.21685308,-0.2715852,-0.4479591,0.13066302,803.8461,807.8755,815.12823,796.1905,777.6557,-0.3359375,-0.01043701171875,0.9444580078125,4.448699951171875,-5.1141357421875,0.336456298828125,1,1.0,1.0,1.0,1.0,30.00
2021-04-10 09:48:38.900,0.6819193,0.47403133,0.058481205,0.41461134,0.4953149,0.1390058,-0.16018592,0.39991507,0.9253021,0.27365994,-0.012016869,0.73871905,0.6253167,0.1567057,0.02782221,0.39902025,0.21685308,-0.36259902,-0.40641463,0.1613399,811.0989,810.293,811.0989,818.3516,642.674,-0.33807373046875,-0.00469970703125,0.94549560546875,4.673004150390625,-4.8748779296875,0.515899658203125,1,1.0,1.0,1.0,1.0,30.00
2021-04-10 09:48:39.412,1.0158261,0.9665285,0.67703015,0.75178945,0.7032275,0.4827163,0.32768452,0.42242977,1.0742911,0.62055033,0.50515527,0.76202995,0.61404616,0.15812358,-0.06328952,0.21192513,0.21203381,-0.3275638,-0.36552188,0.06742202,830.4396,812.3077,801.8315,817.1429,790.54944,-0.34649658203125,-0.0113525390625,0.93511962890625,4.68048095703125,-4.306640625,1.981353759765625,1,1.0,1.0,1.0,1.0,30.00
2021-04-10 09:48:39.919,1.0161366,1.0006719,0.81134784,0.91738546,0.75198805,0.47934562,0.4555077,0.5321164,0.9765296,0.6435252,0.67090434,0.93267095,0.62087804,0.11327293,0.105728775,0.103268914,0.16947503,-0.3460107,-0.3852442,-0.19831398,819.15753,812.71063,811.50183,809.89014,776.04395,-0.34429931640625,-0.0146484375,0.94476318359375,4.942169189453125,-2.280426025390625,1.428070068359375,1,1.0,1.0,1.0,1.0,30.00
2021-04-10 09:48:40.434,1.0161366,0.97994053,0.8057708,1.253723,0.75198805,0.47100693,0.4417276,0.52090734,0.9765296,0.6435252,0.67090434,0.9575735,0.62087804,0.073315755,0.12920162,0.18334769,0.16947503,-0.33722332,-0.464942,-0.025391849,799.41394,807.0696,804.65204,793.7729,733.73627,-0.3367919921875,-0.00927734375,0.9456787109375,4.74029541015625,-4.777679443359375,0.9271240234375,1,1.0,1.0,1.0,1.0,30.00
2021-04-10 09:48:40.961,1.2492447,0.6068787,0.5748778,1.3033872,0.54086816,0.09817162,0.20397222,0.5014236,0.8981034,0.5645014,0.66702646,0.9748346,0.37658498,0.08853075,0.10728824,0.2443329,0.018557742,-0.3570145,-0.45177323,0.04552818,822.381,812.71063,811.0989,817.1429,786.1172,-0.3426513671875,-0.01861572265625,0.94036865234375,5.09918212890625,-6.108551025390625,0.904693603515625,1,1.0,1.0,1.0,1.0,30.00
2021-04-10 09:48:41.471,1.0532056,0.23611528,0.31518894,1.2463963,0.3933499,-0.20891681,-0.0983531,0.42077887,0.95485455,0.05374297,0.09336047,0.98427814,0.367125,0.09577946,0.06339787,0.36336967,0.066035315,-0.375929,-0.44078508,0.11814724,816.337,822.7839,808.68134,810.696,658.3883,-0.34130859375,-0.00494384765625,0.943603515625,4.85992431640625,-5.181427001953125,1.9439697265625,1,1.0,1.0,1.0,1.0,30.00
2021-04-10 09:48:41.976,0.9102136,0.074911185,0.15914395,0.8748202,0.3328805,-0.373013,-0.107274756,0.29204002,0.9783957,-0.04746674,-0.07248628,0.92475533,0.34827754,0.088243,0.03672361,0.3716576,0.08643175,-0.37791562,-0.41403276,0.06746412,819.15753,802.23444,814.3223,808.2784,905.38464,-0.33514404296875,-0.00518798828125,0.9447021484375,5.27862548828125,-5.0543212890625,0.9271240234375,1,1.0,1.0,1.0,1.0,30.00
2021-04-10 09:48:42.506,0.30142435,0.1377914,-0.07186613,0.079428434,0.20813875,-0.34066486,-0.27501637,0.11310346,0.9260235,-0.03163663,-0.1383815,0.902658,0.38002196,0.05706665,-0.003360931,0.3729058,0.2170775,-0.314422,-0.38154405,0.0054403534,798.60803,811.9048,809.0842,805.8608,821.1722,-0.3299560546875,-0.0032958984375,0.94427490234375,4.299163818359375,-4.6356201171875,1.60003662109375,1,1.0,1.0,1.0,1.0,30.00
2021-04-10 09:48:43.029,0.0839483,0.12096357,-0.0073213656,-0.08129838,0.23547249,-0.35531518,-0.44138095,-0.056331765,0.7183406,-0.07687887,-0.048605397,0.7758141,0.41341034,0.008871228,-0.12997092,0.31291732,0.23678075,-0.31721538,-0.333154,0.022250213,804.65204,813.1135,805.4579,797.8022,719.2308,-0.3243408203125,-0.0032958984375,0.9527587890625,4.628143310546875,-3.4991455078125,0.5682373046875,1,1.0,1.0,1.0,1.0,30.00
2021-04-10 09:48:43.538,0.28486225,0.0415465,-0.012650434,0.1458721,0.29370117,-0.41806465,-0.7452776,-0.091552176,0.7189408,-0.14097881,0.032560818,0.57964057,0.45992088,0.009577998,-0.06533808,0.30769414,0.28980803,-0.32376242,-0.32479322,-0.010647774,793.7729,813.91943,811.9048,791.3553,758.71796,-0.33135986328125,-0.0057373046875,0.9449462890625,4.62066650390625,-3.828125,1.383209228515625,1,1.0,1.0,1.0,1.0,30.00
2021-04-10 09:48:44.041,0.755107,-0.06402755,-0.053797536,0.6545013,0.5089357,-0.29658443,-0.7358581,0.23745307,0.76184404,0.23860738,0.07238044,0.62803924,0.49932727,0.08503046,-0.01438726,0.30364245,0.22870183,-0.39071608,-0.36029378,-0.011897049,703.1135,802.6374,817.5458,710.7692,853.00366,-0.33856201171875,-0.0030517578125,0.94329833984375,4.912261962890625,-4.08233642578125,0.91217041015625,1,1.0,1.0,1.0,1.0,30.00
2021-04-10 09:48:44.577,0.92251116,0.42100963,0.44663528,0.8356532,0.6030503,-0.06757138,-0.46795902,0.368563,0.76184404,0.4972042,0.036104,0.62803924,0.486385,0.09325477,0.026432136,0.28314874,0.24849713,-0.31631997,-0.3763264,-0.1412908,817.1429,814.3223,808.68134,826.8132,738.5714,-0.33673095703125,-0.007080078125,0.93951416015625,4.837493896484375,-6.02630615234375,1.443023681640625,1,1.0,1.0,1.0,1.0,30.00
2021-04-10 09:48:45.083,1.0361505,0.8654346,0.6049913,1.0819505,0.720092,0.026025383,-0.2649647,0.61048204,0.7451048,0.4972042,-0.045884546,0.5713535,0.5105326,0.10045105,-0.026465382,0.2734628,0.21124546,-0.2892752,-0.32838914,-0.12002108,813.5165,821.5751,800.2198,810.293,697.47253,-0.3431396484375,-0.00933837890625,0.94329833984375,4.254302978515625,-4.134674072265625,1.1663818359375,1,1.0,1.0,1.0,1.0,25.00
2021-04-10 09:48:45.609,1.0361505,0.9382993,0.64739287,1.0819505,0.720092,0.28934282,-0.15184662,0.61048204,0.7451048,0.50391924,-0.07271871,0.5713535,0.5105326,0.1204378,0.03129979,0.2734628,0.21124546,-0.31463587,-0.31481212,-0.12002108,836.08057,819.15753,809.4872,830.4396,632.6007,-0.3489990234375,-0.00604248046875,0.94158935546875,4.433746337890625,-4.463653564453125,1.1065673828125,1,1.0,1.0,1.0,1.0,25.00
2021-04-10 09:48:46.117,0.47452274,0.8516891,0.2801435,0.48347402,0.6046721,0.2636326,-0.11904956,0.430063,1.0030482,0.3256372,0.1845654,0.8801987,0.56274486,0.12995058,0.088515006,0.7025591,0.38516298,-0.41898295,-0.33858025,-0.101543926,819.9634,811.50183,807.47253,820.7692,753.0769,-0.3475341796875,-0.01202392578125,0.9423828125,4.179534912109375,-4.777679443359375,0.560760498046875,1,1.0,1.0,1.0,1.0,25.00
2021-04-10 09:48:46.645,0.45240948,0.4814379,0.10620338,0.44700792,0.75353056,0.22843528,-0.1368586,0.6778535,1.0130879,0.3256372,0.18807893,0.894027,0.6616482,0.08181016,0.17036912,0.69265646,0.3650626,-0.47004306,-0.33205253,-0.08101619,796.5934,810.293,804.65204,802.23444,933.1868,-0.35064697265625,-0.0128173828125,0.9364013671875,4.583282470703125,-5.091705322265625,0.46356201171875,1,1.0,1.0,1.0,1.0,25.00
2021-04-10 09:48:47.171,0.42590785,0.28927442,-0.06859148,0.38939387,0.7293158,0.004547957,-0.15483204,0.72941524,1.0040407,0.023771636,0.20207845,0.99372387,0.7087013,0.005026865,0.12403509,0.66547024,0.28652734,-0.4703842,-0.38116178,-0.047934204,776.4469,817.9487,796.99634,753.47986,664.0293,-0.35662841796875,-0.017822265625,0.93798828125,4.725341796875,-4.53094482421875,1.48040771484375,1,1.0,1.0,1.0,1.0,25.00
2021-04-10 09:48:47.304,,,,,,,,,,,,,,,,,,,,,,,,,,,,,,,,,,,,,,/muse/elements/blink
2021-04-10 09:48:47.672,0.46018708,0.16808978,0.36520222,0.4574083,0.76841706,0.0826318,0.21387377,0.79657495,0.9489737,0.39535698,0.29624018,0.9263885,0.7472084,0.014735853,0.015336392,0.65172887,0.20881529,-0.43039238,-0.33779576,-0.0070764725,819.5604,807.47253,801.02563,798.20514,669.67035,-0.3582763671875,-0.022705078125,0.93865966796875,4.643096923828125,-4.2169189453125,1.09161376953125,1,1.0,1.0,1.0,1.0,25.00
2021-04-10 09:48:48.205,0.5112642,0.30480316,0.43097314,0.53681326,0.450829,0.15818083,0.27865693,0.6009821,0.5570738,0.42624605,0.33810252,0.8579923,0.6961257,0.054433018,-0.087221935,0.61888236,-0.01702554,-0.38527814,-0.26446038,0.04128983,813.5165,813.5165,805.8608,811.0989,770.0,-0.3585205078125,-0.0205078125,0.93505859375,4.927215576171875,-4.844970703125,1.084136962890625,1,1.0,1.0,1.0,1.0,25.00
2021-04-10 09:48:48.707,0.65637237,0.4843558,0.5813819,0.85124785,0.9339707,0.20341122,0.48029056,1.1673896,0.6641212,0.5286939,0.49573532,0.9712997,0.6167826,0.033490073,-0.1166001,0.31656,0.022749647,-0.38294876,-0.21917838,-0.13756731,819.15753,809.0842,812.3077,813.91943,817.1429,-0.35711669921875,-0.01617431640625,0.94097900390625,5.166473388671875,-4.97955322265625,1.801910400390625,1,1.0,1.0,1.0,1.0,25.00
2021-04-10 09:48:49.226,0.7299646,0.4716456,0.3728522,0.80102074,0.8931607,0.10225758,0.3544335,1.0595815,0.94451404,0.52626777,0.5404048,0.98570883,0.50203556,0.07658715,-0.05720943,0.34558746,0.017256597,-0.4020247,-0.26703763,-0.13368425,817.5458,810.696,817.1429,825.6044,817.5458,-0.35614013671875,-0.0185546875,0.9364013671875,4.7552490234375,-4.65057373046875,1.3458251953125,1,1.0,1.0,1.0,1.0,25.00
2021-04-10 09:48:49.731,0.8690798,0.53648967,0.37381214,1.1217046,0.88318616,0.17042284,0.3770527,0.999788,0.94816625,0.5825898,0.6142698,0.9900918,0.45143384,0.08831503,-0.02503917,0.27331963,-0.0071163983,-0.52851117,-0.37567466,0.0016644222,809.0842,817.5458,811.50183,808.2784,752.674,-0.355224609375,-0.02227783203125,0.941650390625,5.256195068359375,-5.66741943359375,1.607513427734375,1,1.0,1.0,1.0,1.0,25.00
2021-04-10 09:48:50.258,0.98409265,0.65113586,0.34489286,1.1447335,0.8183038,0.24977908,0.23885699,0.81375796,0.9670961,0.5506383,0.49365512,0.9301296,0.34172,0.06332445,0.018791547,0.24094948,-0.007633253,-0.52442074,-0.38380107,0.056496374,808.2784,804.65204,811.9048,805.4579,718.022,-0.33709716796875,-0.014404296875,0.94091796875,4.964599609375,-5.42816162109375,1.36077880859375,1,1.0,1.0,1.0,1.0,25.00
2021-04-10 09:48:50.785,1.275719,0.7125079,0.37346774,1.2104539,0.58481765,0.22634196,0.19046408,0.6731034,0.9034238,0.48561546,0.33087158,0.72462267,0.5000178,0.026451597,0.013398521,0.19676885,-0.0653713,-0.46676844,-0.30956516,0.09780264,802.6374,815.12823,806.6667,795.38464,757.50916,-0.347412109375,-0.0181884765625,0.93695068359375,4.867401123046875,-4.792633056640625,0.64300537109375,1,1.0,1.0,1.0,1.0,25.00
2021-04-10 09:48:51.310,1.1562843,0.6617086,0.29425094,0.9232005,0.6054965,0.11019885,0.01673115,0.31212145,0.76515347,0.4778779,0.23186402,0.51430655,0.6070455,-0.014564799,-0.016343901,0.28684592,-0.010590058,-0.34740385,-0.32138956,0.0026420727,799.81683,807.47253,799.011,781.28204,668.0586,-0.34613037109375,-0.02374267578125,0.9368896484375,4.807586669921875,-5.12908935546875,0.844879150390625,1,1.0,1.0,1.0,1.0,25.00
2021-04-10 09:48:51.816,1.0215021,0.31510398,0.01848743,0.67370135,0.5900411,-0.1955349,-0.121511504,0.5095669,0.83708,0.122930475,0.18046899,0.74974865,0.5919592,-0.06431503,0.04468966,0.44334063,0.13082665,-0.4287007,-0.4361488,-0.09268425,798.20514,808.2784,809.0842,804.2491,799.81683,-0.33843994140625,-0.01312255859375,0.94268798828125,4.7552490234375,-4.717864990234375,1.772003173828125,1,1.0,1.0,1.0,1.0,25.00
2021-04-10 09:48:52.344,0.7933323,0.15398446,-0.03891625,0.652362,0.566409,-0.17148234,-0.16019124,0.44749412,0.8300289,0.1275487,0.26087892,0.7565845,0.5899969,-0.029602297,0.050752934,0.4212815,0.20505962,-0.53006697,-0.5486063,-0.082090616,792.5641,809.0842,810.696,792.96704,724.87177,-0.3408203125,-0.01031494140625,0.94171142578125,4.78515625,-4.493560791015625,1.6448974609375,1,1.0,1.0,1.0,1.0,25.00
2021-04-10 09:48:52.845,0.71632683,0.23512134,0.19009815,0.75922716,0.6457395,-0.026985025,-0.11156795,0.650222,0.95251304,0.49773887,0.2299668,0.94395745,0.5203599,0.028246012,0.083814874,0.44159102,0.21643405,-0.5859766,-0.59268683,-0.12229413,810.696,802.23444,805.4579,807.0696,817.9487,-0.34259033203125,-0.00634765625,0.94671630859375,4.747772216796875,-4.007568359375,1.233673095703125,1,1.0,1.0,1.0,1.0,25.00
2021-04-10 09:48:53.362,0.72761416,0.25792983,0.33151728,0.9279611,0.6607389,0.09347469,-0.08549069,0.743942,0.99130803,0.5292204,0.2419597,1.0251198,0.5089539,0.09729459,-0.0039841244,0.39200205,0.13077922,-0.5346797,-0.42259368,-0.11789749,811.9048,801.4286,809.4872,808.2784,749.85345,-0.338134765625,-0.0169677734375,0.93951416015625,4.673004150390625,-5.256195068359375,1.12152099609375,1,1.0,1.0,1.0,1.0,25.00
2021-04-10 09:48:53.890,0.55531424,0.14718531,0.34281802,0.8170296,0.739338,0.09814458,-0.13534471,0.8140226,1.139577,0.5149664,0.26317632,1.1716878,0.46072653,0.07232112,0.057169035,0.4265128,0.094920576,-0.41794753,-0.4161459,-0.11839775,803.8461,801.4286,807.0696,801.4286,641.06226,-0.34344482421875,-0.0126953125,0.93865966796875,4.358978271484375,-5.24871826171875,0.276641845703125,1,1.0,1.0,1.0,1.0,25.00
2021-04-10 09:48:54.398,0.3922407,0.3945238,0.35514042,0.7398812,0.6893623,0.2870755,0.07856662,0.774126,1.2121657,0.6048915,0.52822775,1.2321669,0.5203958,0.118278414,0.010624792,0.39406636,0.106912255,-0.43013194,-0.3894555,-0.074357055,805.8608,811.9048,802.23444,801.02563,772.01465,-0.33660888671875,-0.01611328125,0.94451904296875,4.5159912109375,-3.686065673828125,0.83740234375,1,1.0,1.0,1.0,1.0,25.00
2021-04-10 09:48:54.922,0.61876166,0.8487505,0.7927667,0.59772325,0.7629667,0.44639695,0.41100466,0.77272713,1.2097179,0.6174297,0.6403277,1.1942892,0.541389,0.18637113,0.072398685,0.41443983,0.096717164,-0.37180105,-0.40833884,-0.053238705,809.0842,811.50183,805.05493,804.2491,735.7509,-0.33929443359375,-0.01544189453125,0.9410400390625,4.508514404296875,-4.127197265625,0.979461669921875,1,1.0,1.0,1.0,1.0,25.00
2021-04-10 09:48:55.430,0.6962382,0.8822618,0.8233407,0.6186042,0.67390823,0.49205065,0.4416528,0.67588747,1.1941131,0.6174297,0.628354,1.1738131,0.5432554,0.18233195,-0.016159179,0.4105207,0.04082821,-0.44427177,-0.3416033,-0.037835177,803.44324,803.0403,806.26373,801.4286,764.35895,-0.35003662109375,-0.01922607421875,0.9344482421875,4.867401123046875,-4.65057373046875,1.495361328125,1,1.0,1.0,1.0,1.0,20.00
2021-04-10 09:48:55.957,0.63786227,0.7681163,0.76920736,0.40163794,0.49239188,0.30247632,0.32644957,0.47184277,0.96169704,0.5610863,0.6002065,0.872922,0.4830203,0.1606491,-0.050916545,0.4526758,0.08904054,-0.42200157,-0.30006963,0.0064974334,818.7546,809.4872,806.6667,820.3663,771.6117,-0.351806640625,-0.010986328125,0.9359130859375,4.62066650390625,-4.85992431640625,1.09161376953125,1,1.0,1.0,1.0,1.0,20.00
2021-04-10 09:48:56.480,0.1990083,-0.22918983,0.038714413,-0.077341616,0.17006221,-0.16571014,-0.2628801,0.10299097,0.833495,0.14014824,-0.025952771,0.8111842,0.44308493,0.013731985,-0.06461639,0.55138224,0.20713161,-0.4554425,-0.31345302,0.027128397,801.4286,813.5165,803.0403,802.6374,825.2015,-0.34466552734375,-0.01605224609375,0.93865966796875,4.88983154296875,-4.366455078125,0.934600830078125,1,1.0,1.0,1.0,1.0,20.00
2021-04-10 09:48:57.010,0.23859817,-0.037259456,0.08531032,0.40603444,0.36466524,-0.33828962,-0.27191016,0.434481,0.8655902,0.092207335,-0.07539596,0.7719322,0.4825086,0.053073063,0.035438742,0.60205257,0.2710803,-0.3647373,-0.38599026,0.073680334,817.9487,805.8608,807.0696,816.7399,770.0,-0.34552001953125,-0.0103759765625,0.93658447265625,4.568328857421875,-5.809478759765625,2.295379638671875,1,1.0,1.0,1.0,1.0,20.00
2021-04-10 09:48:57.512,0.54632694,0.56617653,0.21721569,0.5334446,0.532323,0.041759677,0.028158015,0.50602216,0.9738069,0.4364159,0.094840795,0.81612885,0.51202995,0.09291644,0.11870681,0.59481865,0.28248665,-0.36581555,-0.37930775,0.11124523,825.2015,808.68134,806.26373,821.5751,859.0476,-0.3465576171875,-0.01080322265625,0.939453125,4.77020263671875,-4.68048095703125,1.55517578125,1,1.0,1.0,1.0,1.0,20.00
2021-04-10 09:48:58.042,0.55840206,0.59964013,0.19573645,0.52819055,0.4992578,0.055971976,0.002388197,0.4769692,0.97385913,0.4364159,0.10105742,0.83764684,0.4815972,0.15179972,0.15468423,0.50456387,0.21044713,-0.37727505,-0.3672678,0.06985588,801.02563,817.9487,802.6374,803.8461,697.47253,-0.34490966796875,-0.0125732421875,0.940673828125,4.762725830078125,-4.38140869140625,1.03179931640625,1,1.0,1.0,1.0,1.0,20.00
2021-04-10 09:48:58.571,0.45491692,0.531003,0.057438258,0.37484932,0.33615196,0.12387491,-0.020536544,0.21871524,0.9465641,0.43782043,0.14511563,0.7840274,0.3920594,0.121248156,0.102874696,0.4053758,0.17572138,-0.44504103,-0.40356728,0.024772655,779.67035,805.05493,805.8608,786.1172,817.1429,-0.3231201171875,-0.00689697265625,0.95623779296875,7.2076416015625,-15.11810302734375,1.667327880859375,1,1.0,1.0,1.0,1.0,20.00
2021-04-10 09:48:59.097,0.8230659,-0.025019918,-0.048274714,0.9187282,0.36332607,0.01650013,-0.37691817,0.45529458,0.93188727,0.028842663,0.10539346,0.94044274,0.33370575,0.052758876,0.07753721,0.42744854,0.07574196,-0.48250392,-0.44673446,-0.07559339,843.3333,812.71063,806.26373,822.7839,685.38464,-0.2171630859375,0.02081298828125,0.97021484375,6.482391357421875,-3.84307861328125,1.65985107421875,1,1.0,1.0,1.0,1.0,20.00
2021-04-10 09:48:59.605,1.0030569,0.08201458,-0.062140368,1.0773252,0.49365208,0.04280975,-0.4331193,0.5662894,0.928595,0.09493901,0.074121974,0.93940324,0.31857044,0.05892291,-0.017412284,0.4630825,0.040004905,-0.5020164,-0.4882137,-0.058273107,828.4249,810.696,806.6667,820.3663,757.1062,-0.17974853515625,0.02392578125,0.95867919921875,7.05810546875,-6.160888671875,4.433746337890625,1,1.0,1.0,1.0,1.0,20.00
2021-04-10 09:49:00.117,1.7594242,0.22296587,-0.10587619,1.2566689,0.8217352,-0.0685538,-0.48068827,0.74316525,1.1196079,0.12842056,0.037216768,0.94884855,0.49832615,0.09864667,0.04479715,0.5528297,0.074340604,-0.50631243,-0.45386288,-0.0012513724,817.1429,805.8608,808.2784,803.8461,780.07324,-0.1387939453125,0.0108642578125,0.96868896484375,4.844970703125,-6.093597412109375,-4.987030029296875,1,1.0,1.0,1.0,1.0,20.00
2021-04-10 09:49:00.627,1.8554075,0.26783472,0.18357024,1.1030964,0.8281178,-0.110234976,-0.22775339,0.8475135,1.1551114,0.15869041,0.11393698,0.9291766,0.5314644,0.13614735,0.055987325,0.5620316,0.17508808,-0.481647,-0.5092043,0.037569188,810.293,817.5458,802.6374,807.8755,675.31134,-0.14459228515625,0.01129150390625,0.997314453125,4.8150634765625,-5.24871826171875,4.29168701171875,1,1.0,1.0,1.0,1.0,20.00
2021-04-10 09:49:01.141,1.7762207,0.16169477,0.302804,1.075991,0.8525971,-0.13937178,-0.23184001,0.806987,1.174098,0.091090165,0.1462017,0.9871937,0.5990597,0.11665812,0.15017593,0.6050959,0.18807082,-0.35575852,-0.4319749,0.09661054,822.7839,813.1135,814.3223,777.6557,772.4176,-0.16302490234375,0.0037841796875,1.03411865234375,9.772186279296875,-8.62823486328125,-8.202056884765625,1,1.0,1.0,1.0,1.0,20.00
2021-04-10 09:49:01.650,1.7449576,0.55610335,0.3660623,1.0542942,0.8775219,0.02300092,-0.10482674,0.86373603,1.1732968,0.27105054,0.15164354,0.9836941,0.6070319,0.40262586,0.34063166,0.62410015,0.16470651,-0.07881558,-0.27741215,0.1104189,793.36993,791.3553,810.696,795.38464,591.9048,-0.2188720703125,0.00677490234375,0.9620361328125,0.471038818359375,-0.37384033203125,-5.2935791015625,1,1.0,1.0,1.0,1.0,20.00
2021-04-10 09:49:02.170,1.7449576,0.5941981,0.25037533,1.0967817,0.8775219,0.030414756,-0.117087975,0.77342093,1.1732968,0.31238982,0.19045538,0.93866915,0.6070319,0.40529186,0.3441136,0.65506446,0.16470651,-0.034685716,-0.25682428,0.15859295,817.9487,825.2015,801.8315,814.7253,843.3333,-0.27813720703125,0.049072265625,0.933349609375,9.413299560546875,2.392578125,11.85821533203125,1,1.0,1.0,1.0,1.0,20.00
2021-04-10 09:49:02.693,1.7449576,0.9311177,0.88328916,1.5793647,0.8775219,0.29721606,0.35379046,1.0387796,1.1732968,0.3137618,0.65087134,0.603021,0.6070319,0.50267804,0.34924805,0.63160276,0.16470651,0.023828963,-0.23762202,0.28438032,829.6337,809.0842,805.4579,810.293,915.05493,-0.332763671875,-0.02716064453125,0.94549560546875,3.611297607421875,3.476715087890625,-3.446807861328125,1,1.0,1.0,1.0,1.0,20.00
2021-04-10 09:49:03.203,1.7449576,0.9123565,0.95696133,1.4227155,0.8775219,0.39243057,0.43416253,0.92715055,1.1732968,0.23446798,0.6560249,1.0140527,0.6070319,0.0826638,0.1596572,0.63132656,0.16470651,-0.19177087,-0.12580942,0.2600427,788.5348,797.8022,811.50183,795.78754,746.2271,-0.34283447265625,0.00164794921875,0.9410400390625,5.12908935546875,-7.70111083984375,2.280426025390625,1,1.0,1.0,1.0,1.0,20.00
2021-04-10 09:49:03.730,1.7449576,0.87584037,0.99732053,1.24148,0.8775219,0.4859641,0.40833893,0.7759536,1.1732968,0.015825482,0.6854979,1.027,0.6070319,-0.012647135,0.06273393,0.4998368,0.16470651,-0.33632755,-0.10245017,0.19370466,816.7399,813.1135,802.23444,810.696,701.0989,-0.33209228515625,0.00323486328125,0.94891357421875,5.45806884765625,-3.955230712890625,2.0635986328125,1,1.0,1.0,1.0,1.0,20.00
2021-04-10 09:49:04.234,1.7449576,0.77921516,0.6440571,1.0291086,0.8775219,0.3697371,0.15170944,0.5590347,1.1732968,0.016416406,0.50931597,1.0033307,0.6070319,0.03706789,-0.0480411,0.42154837,0.16470651,-0.41533598,-0.17163433,0.09869966,781.28204,796.5934,821.1722,778.46155,776.4469,-0.330322265625,0.00592041015625,0.9449462890625,4.844970703125,-4.448699951171875,0.515899658203125,1,1.0,1.0,1.0,1.0,20.00
2021-04-10 09:49:04.767,1.7449576,0.97313386,0.69115055,0.8883815,0.8775219,0.465059,0.19885144,0.36422828,1.1732968,0.75386834,0.28541723,0.86425674,0.6070319,0.08458405,-0.10035271,0.34665468,0.16470651,-0.523086,-0.38018587,0.010291339,818.3516,813.91943,805.05493,808.68134,774.83514,-0.32586669921875,0.00433349609375,0.94940185546875,4.91973876953125,-4.418792724609375,1.248626708984375,1,1.0,1.0,1.0,1.0,20.00
2021-04-10 09:49:05.213,,,,,,,,,,,,,,,,,,,,,,,,,,,,,,,,,,,,,,/muse/elements/blink
2021-04-10 09:49:05.271,1.7449576,1.0783533,0.67020494,0.7319457,0.8775219,0.523954,0.2710173,0.23322678,1.1732968,0.75551677,0.029117852,0.8035983,0.6070319,0.10940769,-0.08800617,0.40527102,0.16470651,-0.6330023,-0.4302351,-0.03566291,830.0366,799.011,808.2784,825.2015,742.1978,-0.34039306640625,0.0096435546875,0.9404296875,4.747772216796875,-3.96270751953125,1.0467529296875,1,1.0,1.0,1.0,1.0,30.00
2021-04-10 09:49:05.784,1.7449576,1.2658689,1.0681043,0.66422504,0.8775219,0.68955904,0.74221414,0.22767591,1.1732968,0.75391454,0.028350916,0.4071692,0.6070319,0.12489101,-0.05211277,0.5306501,0.16470651,-0.7369689,-0.45234424,0.005480297,813.91943,811.9048,800.2198,812.71063,709.5604,-0.3402099609375,0.01007080078125,0.94207763671875,4.59075927734375,-3.955230712890625,1.15142822265625,1,1.0,1.0,1.0,1.0,30.00
2021-04-10 09:49:06.310,1.7449576,1.4027301,0.91308635,0.66422504,0.8775219,0.830579,0.61916125,0.22767591,1.1732968,0.74956065,-0.07840241,0.4071692,0.6070319,0.10960248,-0.07384971,0.5306501,0.16470651,-0.68565726,-0.58226246,0.005480297,831.2454,814.3223,803.0403,828.022,746.2271,-0.34295654296875,0.01007080078125,0.9381103515625,4.314117431640625,-3.372039794921875,0.37384033203125,1,1.0,1.0,1.0,1.0,30.00
2021-04-10 09:49:06.834,1.7449576,0.23255405,0.7130676,0.66422504,0.8775219,0.03685059,0.44687968,0.22767591,1.1732968,0.02756055,0.10262245,0.4071692,0.6070319,0.048440173,-0.019572584,0.5306501,0.16470651,-0.5449325,-0.46439126,0.005480297,842.9304,813.91943,799.81683,803.0403,701.0989,-0.32476806640625,-0.05670166015625,0.9217529296875,-10.706787109375,-3.21502685546875,-3.282318115234375,1,1.0,1.0,1.0,1.0,30.00
2021-04-10 09:49:07.361,1.7449576,0.11550934,0.09159327,0.66422504,0.8775219,-0.075643525,-0.033412687,0.22767591,1.1732968,0.08120164,0.12944007,0.4071692,0.6070319,-0.004299994,-0.014478344,0.5306501,0.16470651,-0.5378143,-0.41551062,0.005480297,805.05493,815.12823,809.89014,815.12823,741.79486,-0.336181640625,-0.0157470703125,0.9505615234375,18.220977783203125,-9.532928466796875,5.38330078125,1,2.0,1.0,1.0,2.0,30.00
2021-04-10 09:49:07.871,1.7449576,0.37390873,0.25739,0.18762062,0.8775219,-0.042890485,-0.07696675,0.41805175,1.1732968,0.29426363,0.15921293,0.5200293,0.6070319,-0.05040078,0.008123296,0.57213676,0.16470651,-0.52803344,-0.30260485,0.08825337,844.1392,804.2491,801.02563,792.5641,740.58606,-0.2833251953125,0.093505859375,0.9708251953125,-1.07666015625,2.7215576171875,3.790740966796875,1,1.0,1.0,1.0,1.0,30.00
2021-04-10 09:49:08.378,1.7449576,0.75543505,0.5849796,0.18762062,0.8775219,0.12408423,-0.120146275,0.41805175,1.1732968,0.32860678,0.017137934,0.5200293,0.6070319,-0.024984572,-0.017081905,0.57213676,0.16470651,-0.5629758,-0.32359618,0.08825337,828.022,802.23444,803.8461,811.50183,680.54944,-0.33099365234375,0.02239990234375,0.94439697265625,1.801910400390625,-3.043060302734375,-1.7047119140625,1,1.0,1.0,1.0,1.0,30.00
2021-04-10 09:49:08.893,1.7449576,0.79124266,0.619687,0.22299302,0.8775219,0.2176447,-0.09829277,0.47657868,1.1732968,0.3151537,0.03700711,0.5200293,0.6070319,-0.006807949,-0.057777256,0.61151344,0.16470651,-0.53183204,-0.26492766,0.15070418,803.0403,821.1722,802.6374,808.68134,785.31134,-0.36102294921875,-0.004638671875,0.9359130859375,3.745880126953125,-3.416900634765625,0.97198486328125,1,1.0,1.0,1.0,1.0,30.00
2021-04-10 09:49:09.411,0.8016168,0.84431577,0.6403858,0.7313338,0.41780493,0.34875533,0.21339716,0.6831946,0.24643822,0.40947008,0.49796337,0.7718404,0.3961698,0.096481144,0.05776407,0.6985726,0.12657979,-0.42916372,-0.27035493,0.11588195,776.04395,779.2674,827.619,794.9817,782.8938,-0.3629150390625,-0.00689697265625,0.9342041015625,4.6954345703125,-3.63372802734375,1.8243408203125,1,1.0,1.0,1.0,1.0,30.00
2021-04-10 09:49:09.921,0.80026436,0.80725956,0.7060791,0.5081038,0.56718,0.5249076,0.3745038,0.6481748,1.0211781,0.48706076,0.49796337,0.80254626,0.5154265,0.12096568,0.16629718,0.578495,0.25476307,-0.38872162,-0.26000965,0.029268552,808.68134,818.7546,806.26373,796.1905,614.87177,-0.3560791015625,-0.00872802734375,0.93817138671875,4.478607177734375,-5.682373046875,0.94207763671875,1,1.0,1.0,1.0,1.0,30.00
2021-04-10 09:49:10.429,0.9026386,0.9840034,0.88330925,0.6306567,0.55500984,0.65170956,0.46171945,0.52430254,1.028716,0.48706076,0.5045457,0.809172,0.5416716,0.18243077,0.31122717,0.48033622,0.19994904,-0.39336306,-0.25710836,-0.0054256776,805.4579,812.71063,810.293,805.4579,814.7253,-0.3671875,-0.0133056640625,0.93035888671875,3.6785888671875,-4.658050537109375,0.059814453125,1,1.0,1.0,1.0,1.0,30.00
2021-04-10 09:49:10.940,1.0688695,1.0413008,1.0408912,0.7650355,0.67368716,0.7105604,0.54909956,0.5157585,1.0419456,0.46855992,0.44685405,0.85315967,0.5543207,0.15251955,0.3104052,0.34458753,0.23944263,-0.47286534,-0.3151392,-0.048478127,798.20514,806.6667,806.6667,799.81683,710.7692,-0.36126708984375,-0.0159912109375,0.9320068359375,4.5758056640625,-6.138458251953125,1.375732421875,1,1.0,1.0,1.0,1.0,30.00
2021-04-10 09:49:11.460,1.2624712,1.0223311,1.0806359,1.1165979,0.7438999,0.6052301,0.57521933,0.520328,0.94198817,0.48797506,0.43941233,0.68715936,0.54888487,0.1331899,0.28421384,0.3752917,0.15133776,-0.47624335,-0.3680854,-0.013608122,795.38464,810.293,806.26373,801.02563,736.9597,-0.36566162109375,-0.021728515625,0.93218994140625,4.643096923828125,-4.35150146484375,1.263580322265625,1,1.0,1.0,1.0,1.0,30.00
2021-04-10 09:49:11.994,1.2214391,0.48625168,0.9840882,1.1277901,0.70160335,0.0318801,0.54499793,0.5976237,0.89243215,0.36189154,0.41185248,0.68848646,0.48143163,-0.042833764,0.20921691,0.42636576,0.15384933,-0.36187124,-0.46615285,-0.044905283,805.8608,815.5311,799.81683,809.0842,846.9597,-0.36322021484375,-0.0174560546875,0.92803955078125,4.628143310546875,-4.388885498046875,0.800018310546875,1,1.0,1.0,1.0,1.0,30.00
2021-04-10 09:49:12.514,1.0442132,0.47661844,0.7141776,1.0526078,0.55996895,-0.0019803473,0.30908248,0.56397635,0.8121415,0.3680417,0.25256282,0.6277411,0.4642128,0.033842165,0.12310413,0.3898656,0.07242455,-0.29689705,-0.45786825,-0.08736558,798.20514,811.0989,801.4286,808.68134,708.7546,-0.36492919921875,-0.02178955078125,0.9285888671875,4.91973876953125,-4.65057373046875,1.024322509765625,1,1.0,1.0,1.0,1.0,30.00
2021-04-10 09:49:13.042,0.65423393,0.32218122,0.105825625,0.6007863,0.45877388,-0.059714302,-0.10157116,0.4913732,0.8455662,0.23980893,0.08479261,0.7116312,0.4414049,0.03572038,0.07605089,0.26711133,0.02481787,-0.2903974,-0.37477547,-0.24325234,808.68134,810.293,800.6227,803.44324,787.72894,-0.366943359375,-0.02325439453125,0.93212890625,4.74029541015625,-4.852447509765625,1.07666015625,1,1.0,1.0,1.0,1.0,30.00
2021-04-10 09:49:13.572,0.30977008,0.051489938,-0.13748714,0.26630688,0.46682537,-0.20877983,-0.3941452,0.32992035,0.8365192,-0.052562866,9.135151E-4,0.8593095,0.4141667,0.03280931,0.020933956,0.22849976,-0.028635893,-0.32045278,-0.3575456,-0.16806832,792.96704,814.7253,802.6374,799.011,752.674,-0.3695068359375,-0.02374267578125,0.93475341796875,5.121612548828125,-4.246826171875,1.099090576171875,1,1.0,1.0,1.0,1.0,30.00
2021-04-10 09:49:14.074,0.42919928,-0.10580383,-0.09580183,0.30940858,0.42509693,-0.2365148,-0.3708109,0.16044822,0.8727147,-0.015036379,-0.005416713,0.8593095,0.46540156,-0.041306715,-0.0139343,0.26300576,-0.04141448,-0.40806365,-0.4008017,-0.11150005,821.978,803.8461,807.47253,813.5165,687.3993,-0.37200927734375,-0.0263671875,0.93048095703125,4.493560791015625,-4.957122802734375,0.897216796875,1,1.0,1.0,1.0,1.0,30.00
2021-04-10 09:49:14.581,0.473804,-0.024630658,0.03328695,0.3494289,0.33806047,-0.2983824,-0.1783492,-0.032075744,0.55953807,0.088315375,-0.07295603,0.7303816,0.4531141,-0.066195324,-0.05378417,0.2771351,-0.005566242,-0.44881943,-0.46445274,0.008548667,794.57874,807.47253,803.8461,791.75824,710.3663,-0.36376953125,-0.02587890625,0.9310302734375,5.016937255859375,-5.345916748046875,0.2093505859375,1,1.0,1.0,1.0,1.0,30.00
2021-04-10 09:49:15.116,0.8595529,0.14466935,0.10591125,0.7804682,0.38187385,-0.25172055,-0.13985999,0.3118564,0.82931674,0.19489582,0.025060592,0.85812825,0.4536446,-0.028300237,-0.013692325,0.14369586,0.032669555,-0.45985273,-0.4345731,-0.0440861,789.34064,811.9048,793.36993,780.4762,674.10254,-0.37237548828125,-0.026611328125,0.92767333984375,4.78515625,-4.972076416015625,0.755157470703125,1,1.0,1.0,1.0,1.0,30.00
2021-04-10 09:49:15.632,0.9470117,0.8287807,0.6298891,1.057444,0.3934769,0.21159178,0.1696579,0.4217923,0.7619304,0.40598702,0.35872608,0.712624,0.3333369,0.067074664,0.024971338,0.10409752,0.056796957,-0.4105089,-0.31948367,-0.07555401,817.5458,815.12823,810.696,819.5604,771.6117,-0.37066650390625,-0.02545166015625,0.9285888671875,5.09918212890625,-4.65057373046875,0.859832763671875,1,1.0,1.0,1.0,1.0,25.00
2021-04-10 09:49:16.153,0.94974715,0.97436965,0.8486053,0.9789448,0.4520531,0.37422848,0.30964842,0.61317253,0.8324207,0.39122832,0.45929936,0.7693796,0.3800033,0.14073823,0.04130432,0.14126354,0.087986566,-0.42124003,-0.21148139,-0.11670513,806.26373,805.4579,799.81683,798.60803,734.94507,-0.370849609375,-0.026611328125,0.92791748046875,4.927215576171875,-4.59075927734375,1.1065673828125,1,1.0,1.0,1.0,1.0,25.00
2021-04-10 09:49:16.658,0.78006846,1.0347877,0.9640073,0.8534962,0.59591544,0.5209289,0.37367806,0.65575004,0.6325513,0.39122832,0.45571196,0.7763805,0.38127834,0.17644471,-0.05072453,0.13761246,-0.048221495,-0.41245744,-0.23440751,-0.24041328,820.7692,813.1135,797.8022,807.47253,732.9304,-0.36956787109375,-0.02435302734375,0.929443359375,4.837493896484375,-4.553375244140625,1.413116455078125,1,1.0,1.0,1.0,1.0,25.00
2021-04-10 09:49:17.165,0.71033394,0.6037469,0.8031399,0.5121193,0.7257763,0.24638005,0.3582266,0.7675541,0.73617166,0.24354772,0.43762195,0.8201678,0.37287492,0.13142833,-0.04034841,0.26545048,0.004704542,-0.43308342,-0.26977706,-0.22539231,816.337,808.68134,808.2784,806.6667,890.07324,-0.36260986328125,-0.0283203125,0.930908203125,4.448699951171875,-4.687957763671875,1.009368896484375,1,1.0,1.0,1.0,1.0,25.00
2021-04-10 09:49:17.691,0.63275075,0.5070247,0.5424229,0.24740373,0.6627252,0.04587382,0.2952253,0.6794939,0.80619484,0.2533896,0.11515805,0.8284117,0.34081373,0.092144415,-0.07197248,0.3074277,-0.05888705,-0.38216263,-0.38977456,-0.21970126,806.6667,811.50183,799.81683,801.8315,736.1539,-0.36822509765625,-0.0284423828125,0.931640625,4.47113037109375,-4.725341796875,0.61309814453125,1,1.0,1.0,1.0,1.0,25.00
2021-04-10 09:49:18.193,0.4724602,0.22589716,0.046412468,0.18848121,0.6161572,-0.3310338,0.22760122,0.5956238,0.77898395,0.13081348,0.051006597,0.758699,0.30112422,0.01659844,-0.07189049,0.3871127,-0.047198843,-0.36086565,-0.43799976,-0.1548447,802.23444,797.8022,806.26373,807.0696,776.4469,-0.37164306640625,-0.02947998046875,0.93310546875,4.732818603515625,-4.568328857421875,1.353302001953125,1,1.0,1.0,1.0,1.0,25.00
2021-04-10 09:49:18.701,0.6924328,0.14280237,0.049743585,0.15739976,0.40782326,-0.21971397,0.06802216,0.38989475,0.8286276,0.1489573,0.04558416,0.6287038,0.26998127,-0.12803116,-0.09999607,0.34114727,-0.08231201,-0.4132212,-0.5513736,-0.18907334,806.6667,811.50183,798.20514,803.0403,810.696,-0.3707275390625,-0.02398681640625,0.92926025390625,4.605712890625,-4.628143310546875,1.12152099609375,1,1.0,1.0,1.0,1.0,25.00
2021-04-10 09:49:19.213,0.69888103,-0.075153686,0.017447414,0.2694456,0.33754835,-0.16215278,-0.12639733,0.27591208,0.63313717,0.019825244,-0.17223404,0.38379705,0.24108782,-0.1900433,-0.12446019,0.33746156,0.0050977394,-0.4912781,-0.5716703,-0.1659934,804.65204,802.23444,800.2198,802.6374,726.8865,-0.36865234375,-0.0281982421875,0.929931640625,4.687957763671875,-4.62066650390625,0.88226318359375,1,1.0,1.0,1.0,1.0,25.00
2021-04-10 09:49:19.720,0.6999749,-0.09043438,0.07542865,0.28453434,0.28825587,-0.21016544,-0.19284417,0.3266576,0.58798593,0.039384127,-0.16665384,0.38873836,0.278753,-0.1093955,-0.117082365,0.3822275,0.060947563,-0.5318241,-0.59251016,-0.13425723,813.5165,812.3077,807.0696,820.3663,732.9304,-0.3717041015625,-0.02532958984375,0.92919921875,5.136566162109375,-4.71038818359375,0.9869384765625,1,1.0,1.0,1.0,1.0,25.00
2021-04-10 09:49:20.237,0.23933522,-0.14264461,-0.08196972,0.14779453,0.21447976,-0.2563566,-0.1361304,0.22185254,0.4893018,0.13221844,-0.10294209,0.3726693,0.20335788,0.006665345,-0.08778556,0.39234224,0.035307787,-0.4493854,-0.5427552,-0.08683138,806.26373,815.12823,812.3077,805.8608,692.6374,-0.3685302734375,-0.02764892578125,0.92913818359375,5.001983642578125,-4.613189697265625,1.15142822265625,1,1.0,1.0,1.0,1.0,25.00
2021-04-10 09:49:20.738,0.57932574,-0.1905389,-0.20287214,0.6263593,0.37261608,-0.11140517,-0.019992199,0.47798663,0.4891609,0.15652952,-0.026221834,0.7193703,0.21574521,0.07478963,-0.008031586,0.40479273,-0.04723272,-0.41781893,-0.38692,-0.10504422,790.9524,811.50183,816.7399,789.7436,678.5348,-0.37188720703125,-0.02288818359375,0.930419921875,4.762725830078125,-4.792633056640625,1.136474609375,1,1.0,1.0,1.0,1.0,25.00
2021-04-10 09:49:21.244,1.0307424,-0.16564462,-0.11626392,0.7601832,0.59410393,-0.08840522,-0.0063755447,0.54655284,0.6713879,0.2127694,-0.04480784,0.7193703,0.17530201,0.05154447,0.0357923,0.40522265,-0.18543871,-0.4045077,-0.29045507,-0.11002539,806.6667,813.5165,811.50183,804.65204,786.9231,-0.3609619140625,-0.02606201171875,0.93304443359375,4.59075927734375,-4.598236083984375,1.1962890625,1,1.0,1.0,1.0,1.0,25.00
2021-04-10 09:49:21.758,1.2178605,-0.104049705,0.07336658,1.0263091,0.7767974,-0.057182726,-0.14256911,0.76218426,0.82654756,0.21038027,-0.05292077,0.7193703,0.24531166,0.038756527,0.022309229,0.3595936,-0.29527983,-0.38915706,-0.24379756,-0.21495035,794.9817,807.47253,810.696,790.14655,747.4359,-0.37158203125,-0.02423095703125,0.933837890625,4.78515625,-5.21881103515625,0.770111083984375,1,1.0,1.0,1.0,1.0,25.00
2021-04-10 09:49:22.266,1.0537097,-0.13082133,0.091879785,1.0263472,0.70336413,-0.19082534,-0.28780293,0.69278115,0.82118917,0.09076877,-0.18209006,0.51259184,0.106241085,-0.044961646,0.02033266,0.32963583,-0.3442222,-0.3336866,-0.33788309,-0.23342662,816.337,809.0842,803.8461,809.0842,718.8278,-0.37152099609375,-0.02496337890625,0.93328857421875,4.777679443359375,-5.24871826171875,1.143951416015625,1,1.0,1.0,1.0,1.0,25.00
2021-04-10 09:49:22.776,0.9183636,-0.08793958,0.04856527,1.0169251,0.55133766,-0.35912177,-0.3374926,0.60667604,0.81883985,0.123893335,-0.21759461,0.50559473,0.16607015,-0.085649505,0.057077754,0.37225088,-0.38211223,-0.33146816,-0.3863023,-0.2913375,791.3553,811.0989,811.50183,757.9121,950.10986,-0.364013671875,-0.02716064453125,0.92303466796875,4.725341796875,-4.50103759765625,1.308441162109375,1,1.0,1.0,1.0,1.0,25.00
2021-04-10 09:49:23.282,0.9107161,0.5707577,0.44451717,1.0337703,0.53258777,0.07027604,0.123917535,0.572686,0.65334463,0.36948928,0.22865911,0.8190534,0.22654502,-0.037030503,0.11546343,0.4693831,-0.29095602,-0.3957199,-0.2968343,-0.22179438,793.36993,809.89014,801.8315,799.011,756.7033,-0.3687744140625,-0.0242919921875,0.92913818359375,5.061798095703125,-4.044952392578125,2.37762451171875,1,1.0,1.0,1.0,1.0,25.00
2021-04-10 09:49:23.793,1.0196161,0.79682016,0.77906543,1.1395898,0.5887577,0.2881241,0.3322799,0.6503967,0.7658975,0.389898,0.2583407,0.8612351,0.3384409,0.044698328,0.100488015,0.55768186,-0.1368525,-0.37617677,-0.19548638,-0.12003367,778.46155,829.2308,795.38464,768.3883,761.13556,-0.36993408203125,-0.0194091796875,0.92779541015625,5.203857421875,-5.420684814453125,1.854248046875,1,1.0,1.0,1.0,1.0,25.00
2021-04-10 09:49:24.312,1.0475777,0.8832418,0.88664466,1.291,0.74138504,0.36215916,0.42145836,0.87193155,0.75588596,0.37028095,0.3728483,0.8612351,0.35941905,0.077803776,0.051003926,0.6266887,0.020232348,-0.3291388,-0.09228666,0.022679586,794.9817,812.71063,798.60803,823.5897,762.3443,-0.3922119140625,-0.01361083984375,0.92431640625,2.609405517578125,2.355194091796875,4.478607177734375,1,1.0,1.0,1.0,1.0,25.00
2021-04-10 09:49:24.815,1.0475777,0.86483663,1.0370209,1.291,0.74138504,0.35371813,0.55693775,0.87193155,0.75588596,0.36329985,0.54231477,0.8612351,0.35941905,0.07359234,0.06417505,0.6266887,0.020232348,-0.28635508,-0.0791692,0.022679586,778.86444,809.4872,805.05493,765.9707,643.0769,-0.42889404296875,-9.765625E-4,0.9019775390625,5.33843994140625,0.179443359375,2.818756103515625,1,1.0,1.0,1.0,1.0,25.00
2021-04-10 09:49:25.336,1.0475777,1.0699067,1.1159589,1.291,0.74138504,0.21641156,0.5059276,0.87193155,0.75588596,0.4805799,0.55191934,0.8612351,0.35941905,0.20369269,0.048788354,0.6266887,0.020232348,-0.26887378,-0.09775955,0.022679586,828.4249,805.4579,813.5165,822.7839,754.2857,-0.445556640625,-0.00848388671875,0.89593505859375,3.416900634765625,-3.372039794921875,0.082244873046875,1,1.0,1.0,1.0,1.0,25.00
2021-04-10 09:49:25.842,1.0475777,1.1432773,1.1570791,1.291,0.74138504,0.40707475,0.46801814,0.87193155,0.75588596,0.4824366,0.5952755,0.8612351,0.35941905,0.21780007,0.04500906,0.6266887,0.020232348,-0.291764,-0.20687523,0.022679586,814.7253,817.1429,806.6667,803.44324,724.4689,-0.40960693359375,-0.008056640625,0.91107177734375,4.747772216796875,-7.2674560546875,1.9140625,1,2.0,1.0,1.0,2.0,25.00
2021-04-10 09:49:26.349,0.5427525,1.0183644,1.0106511,0.43231893,0.32882822,0.250907,0.14619537,0.53310156,0.33836207,0.4824366,0.27918077,0.45961115,0.34557027,0.16207244,-0.07109262,0.27855688,0.0709652,-0.34243166,-0.3518505,-0.31054696,826.8132,814.3223,802.6374,822.381,692.6374,-0.40924072265625,-0.01129150390625,0.9090576171875,4.77020263671875,-6.44500732421875,1.368255615234375,1,1.0,1.0,1.0,1.0,30.00
2021-04-10 09:49:26.851,0.45003963,0.7081087,0.71604776,0.5735928,0.34484977,0.02135042,-0.028333306,0.5563908,0.5046779,0.22692972,0.22240621,0.5608709,0.33222726,0.096241005,-0.115212925,0.35993734,0.10715608,-0.453402,-0.45172483,-0.22245206,825.2015,811.50183,803.44324,821.5751,744.61536,-0.397705078125,-0.00567626953125,0.9166259765625,4.50103759765625,-4.91973876953125,-0.411224365234375,1,1.0,1.0,1.0,1.0,30.00
2021-04-10 09:49:27.357,0.34088174,0.32447153,0.35116056,0.45042354,0.23380381,-0.62885493,-0.19395833,0.41011393,0.44612122,0.036420163,0.12162376,0.6149129,0.34090337,0.037496846,-0.14958847,0.37053785,0.06317169,-0.5060354,-0.45999044,-0.26138896,824.7985,809.4872,797.3993,811.50183,712.7839,-0.39447021484375,-0.0113525390625,0.9171142578125,6.17584228515625,-5.03936767578125,0.919647216796875,1,1.0,1.0,1.0,1.0,30.00
2021-04-10 09:49:27.866,0.25795045,-0.08583433,-0.0036578833,0.33586764,0.15087368,-0.8481004,-0.36910787,0.2380053,0.49533716,-0.075516954,-0.018570159,0.5740707,0.3692707,-0.0050603617,-0.11612226,0.3902692,-0.023869125,-0.49451637,-0.39685333,-0.24458642,794.57874,809.0842,813.1135,805.4579,776.8498,-0.40594482421875,-4.8828125E-4,0.9132080078125,5.450592041015625,-4.246826171875,2.400054931640625,1,1.0,1.0,1.0,1.0,30.00
2021-04-10 09:49:28.387,0.5560913,0.11071193,-0.009112094,-0.082293294,0.2094558,-0.2787007,-0.35292634,-0.21688753,0.7249907,0.06757662,-0.15032472,0.48753393,0.40904197,-0.059025284,-0.071312174,0.37554082,-0.15577243,-0.3751797,-0.3186002,-0.29760063,802.23444,815.9341,808.68134,806.26373,847.76556,-0.40509033203125,4.2724609375E-4,0.91455078125,4.47113037109375,-4.94964599609375,1.697235107421875,1,1.0,1.0,1.0,1.0,30.00
2021-04-10 09:49:28.913,0.76716995,0.1278045,-0.051753826,-0.380247,0.39490828,-0.032571495,-0.29386917,-0.32937166,0.7408138,0.05303913,-0.16363975,-0.1163888,0.41495946,-0.0035481285,-0.09542246,0.35812145,-0.29448545,-0.35177138,-0.27460748,-0.24811065,797.3993,809.4872,799.81683,796.1905,686.99634,-0.405517578125,4.8828125E-4,0.914306640625,4.17205810546875,-4.9346923828125,1.084136962890625,1,1.0,1.0,1.0,1.0,30.00
2021-04-10 09:49:29.422,0.7989154,0.20071748,-0.09446065,-0.022626735,0.5992372,0.0142398225,-0.28601128,0.13798286,0.90015554,0.017797297,-0.16626893,0.30356067,0.3154266,0.001891453,-0.12893713,0.3026979,-0.28668198,-0.34067094,-0.25962052,-0.07896089,745.0183,802.23444,816.337,742.1978,643.47986,-0.40411376953125,-0.00164794921875,0.91436767578125,4.605712890625,-4.6356201171875,0.91217041015625,1,1.0,1.0,1.0,1.0,30.00
2021-04-10 09:49:29.949,0.652741,0.36228836,0.23378068,-0.022626735,0.545604,0.013051827,-0.306511,0.13798286,0.83563775,-0.051841,-0.18718629,0.30356067,0.28189135,-0.015140736,-0.13101989,0.3026979,-0.28511012,-0.47857624,-0.340623,-0.07896089,812.3077,803.0403,803.0403,806.6667,771.6117,-0.40716552734375,-5.4931640625E-4,0.9232177734375,5.1739501953125,-4.388885498046875,0.538330078125,1,1.0,1.0,1.0,1.0,30.00
2021-04-10 09:49:30.454,0.40236768,0.50754064,0.6234271,-0.022626735,0.65402865,0.014484469,-0.22539015,0.13798286,0.75177646,0.19008459,-0.24642295,0.30356067,0.15652545,0.04533098,0.038172495,0.3026979,-0.23678376,-0.4671322,-0.29429898,-0.07896089,811.0989,818.3516,804.65204,807.47253,748.24176,-0.40423583984375,-0.0013427734375,0.9169921875,5.001983642578125,-4.508514404296875,0.441131591796875,1,1.0,1.0,1.0,1.0,30.00
2021-04-10 09:49:30.961,0.40236768,0.49380475,0.64184016,-0.022626735,0.65402865,0.05144756,-0.22747032,0.13798286,0.75177646,0.20499782,-0.23653534,0.30356067,0.15652545,0.13602763,0.11054192,0.3026979,-0.23678376,-0.49730018,-0.36895317,-0.07896089,792.1612,805.05493,817.9487,791.3553,760.7326,-0.4068603515625,-0.0052490234375,0.91607666015625,4.792633056640625,-4.7552490234375,1.2261962890625,1,1.0,1.0,1.0,1.0,30.00
2021-04-10 09:49:31.494,0.72980213,0.27083534,0.5474359,0.6832816,0.061864674,-0.058975745,-0.27682087,0.193049,0.45389405,0.20543818,-0.3548317,0.76562583,0.16757011,0.2144814,0.08711383,0.2733766,-0.21979056,-0.39204702,-0.3540816,-0.25350988,805.05493,813.1135,802.23444,806.26373,805.4579,-0.4061279296875,-0.0067138671875,0.91729736328125,4.643096923828125,-5.90667724609375,0.575714111328125,1,1.0,1.0,1.0,1.0,30.00
2021-04-10 09:49:31.996,0.72980213,-0.020133078,0.13657591,0.6832816,0.061864674,-0.30874774,-0.43766326,0.193049,0.45389405,0.11424971,-0.29293868,0.76562583,0.16757011,0.120076954,-0.031931106,0.2733766,-0.21979056,-0.40329865,-0.34178585,-0.25350988,827.619,819.5604,809.0842,812.3077,721.2454,-0.4066162109375,-0.0042724609375,0.91827392578125,4.47113037109375,-4.9346923828125,1.24114990234375,1,1.0,1.0,1.0,1.0,30.00
