TimeStamp,Delta_TP9,Delta_AF7,Delta_AF8,Delta_TP10,Theta_TP9,Theta_AF7,Theta_AF8,Theta_TP10,Alpha_TP9,Alpha_AF7,Alpha_AF8,Alpha_TP10,Beta_TP9,Beta_AF7,Beta_AF8,Beta_TP10,Gamma_TP9,Gamma_AF7,Gamma_AF8,Gamma_TP10,RAW_TP9,RAW_AF7,RAW_AF8,RAW_TP10,AUX_RIGHT,Accelerometer_X,Accelerometer_Y,Accelerometer_Z,Gyro_X,Gyro_Y,Gyro_Z,HeadBandOn,HSI_TP9,HSI_AF7,HSI_AF8,HSI_TP10,Battery,Elements
2021-04-24 08:52:02.428,1.0656582,0.0,0.21965975,0.7587805,1.235319,0.0,-0.14894147,0.061491504,1.0688057,0.0,0.12457294,0.1399743,0.83085394,0.0,0.22119132,0.89528936,0.3040902,0.0,-0.24148574,0.22599244,758.315,810.293,811.9048,756.7033,830.84247,0.11248779296875,0.0384521484375,0.9970703125,4.90478515625,-4.777679443359375,2.056121826171875,1,2.0,1.0,1.0,2.0,45.00
2021-04-24 08:52:02.604,,,,,,,,,,,,,,,,,,,,,,,,,,,,,,,,,,,,,,/muse/elements/blink
2021-04-24 08:52:02.933,1.0656582,0.0,0.1362898,0.7587805,1.235319,0.0,-0.005489543,0.061491504,1.0688057,0.0,0.002681443,0.1399743,0.83085394,0.0,0.23655127,0.89528936,0.3040902,0.0,-0.34414527,0.22599244,811.0989,856.63007,829.2308,813.1135,720.4396,0.1092529296875,0.0374755859375,0.99029541015625,6.17584228515625,-6.138458251953125,-1.375732421875,1,2.0,1.0,1.0,2.0,45.00
2021-04-24 08:52:03.442,1.0656582,0.0,0.16649339,0.7587805,1.235319,0.0,0.108606264,0.061491504,1.0688057,0.0,0.26852986,0.1399743,0.83085394,0.0,0.2618351,0.89528936,0.3040902,0.0,-0.36665404,0.22599244,817.1429,768.3883,824.7985,798.20514,774.0293,0.09954833984375,0.043701171875,0.9791259765625,7.439422607421875,-2.25799560546875,-2.3626708984375,1,2.0,1.0,1.0,2.0,45.00
2021-04-24 08:52:03.945,1.0656582,0.0,0.442362,0.7587805,1.235319,0.0,0.044009037,0.061491504,1.0688057,0.0,0.2990396,0.1399743,0.83085394,0.0,0.24302733,0.89528936,0.3040902,0.0,-0.28746197,0.22599244,787.326,780.87915,816.337,788.93774,851.79486,0.06201171875,0.086181640625,1.00244140625,4.747772216796875,-1.57012939453125,0.785064697265625,1,2.0,1.0,1.0,2.0,45.00
2021-04-24 08:52:04.256,,,,,,,,,,,,,,,,,,,,,,,,,,,,,,,,,,,,,,/muse/elements/blink
2021-04-24 08:52:04.456,1.0656582,0.0,0.50678855,0.7587805,1.235319,0.0,-0.09365266,0.061491504,1.0688057,0.0,0.35704932,0.1399743,0.83085394,0.0,0.13587046,0.89528936,0.3040902,0.0,-0.14171854,0.22599244,786.52014,871.9414,822.381,783.2967,682.96704,0.0457763671875,0.0970458984375,0.9818115234375,4.17205810546875,-1.5850830078125,0.76263427734375,1,2.0,1.0,1.0,2.0,45.00
2021-04-24 08:52:04.961,1.0656582,0.0,0.6009521,0.7587805,1.235319,0.0,-0.15537581,0.061491504,1.0688057,0.0,0.36277092,0.1399743,0.83085394,0.0,0.02657535,0.89528936,0.3040902,0.0,-0.108244285,0.22599244,808.68134,761.13556,816.337,799.81683,953.73627,0.1055908203125,0.130859375,0.99273681640625,3.416900634765625,-8.142242431640625,1.996307373046875,1,2.0,1.0,1.0,2.0,45.00
2021-04-24 08:52:05.474,1.0656582,0.0,0.5945674,0.7587805,1.235319,0.0,0.116161324,0.061491504,1.0688057,0.0,0.33609957,0.1399743,0.83085394,0.0,0.03428441,0.89528936,0.3040902,0.0,-0.120158024,0.22599244,773.22345,830.0366,821.5751,774.83514,798.60803,0.1815185546875,0.08935546875,0.9716796875,-0.25421142578125,-15.634002685546875,-8.59832763671875,1,2.0,1.0,1.0,2.0,45.00
2021-04-24 08:52:05.989,1.0656582,0.0,0.6089517,0.7587805,1.235319,0.0,0.12447857,0.061491504,1.0688057,0.0,0.3443019,0.1399743,0.83085394,0.0,0.13749386,0.89528936,0.3040902,0.0,-0.15412268,0.22599244,780.87915,938.022,816.7399,753.0769,708.3516,0.2237548828125,0.09918212890625,0.973388671875,3.880462646484375,-2.6318359375,-1.996307373046875,1,2.0,1.0,1.0,2.0,45.00
2021-04-24 08:52:06.498,1.459966,0.0,0.37748635,0.7587805,1.3502753,0.0,0.14600995,0.061491504,0.86798024,0.0,0.32986036,0.1399743,0.8567818,0.0,0.17965905,0.89528936,0.31575048,0.0,-0.17525125,0.22599244,803.8461,775.2381,803.0403,785.31134,782.0879,0.24530029296875,0.1356201171875,0.995849609375,2.6617431640625,-0.2392578125,0.4486083984375,1,2.0,1.0,1.0,2.0,45.00
2021-04-24 08:52:07.006,1.459966,0.0,0.2870658,0.7587805,1.3502753,0.0,-0.023715755,0.061491504,0.86798024,0.0,0.3180301,0.1399743,0.8567818,0.0,0.23869295,0.89528936,0.31575048,0.0,-0.20734318,0.22599244,788.5348,825.2015,810.293,772.4176,800.6227,0.25927734375,0.10577392578125,0.949951171875,3.297271728515625,-7.005767822265625,-2.773895263671875,1,1.0,1.0,1.0,1.0,45.00
2021-04-24 08:52:07.513,0.63659966,0.0,0.31085953,0.71108705,0.5650544,0.0,-0.08916991,0.4823748,0.77290547,0.0,0.31817192,0.6488529,0.76965606,0.0,0.15241201,0.8439952,0.33671656,0.0,-0.25411603,0.34083098,795.38464,826.4103,806.26373,786.52014,776.8498,0.23883056640625,0.14300537109375,0.984130859375,3.043060302734375,-6.661834716796875,-1.353302001953125,1,1.0,1.0,1.0,1.0,45.00
2021-04-24 08:52:08.040,0.6314761,0.0,0.32815143,0.6070945,0.612993,0.0,-0.12126288,0.4903657,0.786093,0.0,0.34068817,0.67675555,0.6839476,0.0,0.17554371,0.78325856,0.23833002,0.0,-0.29254588,0.21985063,790.54944,811.9048,808.68134,782.0879,801.02563,0.25372314453125,0.07135009765625,0.96551513671875,0.291595458984375,2.22808837890625,27.611846923828125,1,1.0,1.0,1.0,1.0,45.00
2021-04-24 08:52:08.553,0.61868894,0.0,0.32853845,0.64326173,0.59481144,0.0,-0.18861608,0.46849006,0.786093,0.0,0.20784956,0.68807745,0.6339368,0.0,0.109618634,0.81245476,0.17102726,0.0,-0.25007045,0.15927264,756.7033,1046.8132,805.4579,730.9158,759.12085,0.06536865234375,-0.02215576171875,1.0020751953125,8.785247802734375,17.204132080078125,7.289886474609375,1,1.0,1.0,1.0,1.0,45.00
2021-04-24 08:52:08.608,,,,,,,,,,,,,,,,,,,,,,,,,,,,,,,,,,,,,,/muse/elements/blink
2021-04-24 08:52:09.078,0.6471125,0.0,0.6370436,0.7325634,0.62236017,0.0,0.4949394,0.5205272,0.6670822,0.0,0.55036044,0.5913241,0.50447524,0.0,0.34290156,0.7982588,0.09328509,0.0,-0.0350868,0.110543005,817.9487,738.5714,810.293,811.50183,821.5751,0.02545166015625,0.05975341796875,1.023193359375,6.32537841796875,-5.96649169921875,-1.54022216796875,1,1.0,1.0,1.0,1.0,45.00
2021-04-24 08:52:09.582,0.6471125,0.0,0.791531,0.93359804,0.62236017,0.0,0.5247705,0.57967573,0.6670822,0.0,0.6158189,0.54033744,0.50447524,0.0,0.3669857,0.8515816,0.09328509,0.0,-0.016309151,0.13988549,812.71063,796.1905,813.91943,793.7729,770.0,0.00830078125,0.062255859375,1.00164794921875,4.50103759765625,-4.882354736328125,2.1533203125,1,1.0,1.0,1.0,1.0,45.00
2021-04-24 08:52:10.099,0.6471125,0.0,0.6190202,0.93359804,0.62236017,0.0,0.47539964,0.57967573,0.6670822,0.0,0.62025714,0.54033744,0.50447524,0.0,0.31364408,0.8515816,0.09328509,0.0,-0.045055166,0.13988549,782.49084,850.18317,817.5458,797.3993,656.3736,0.033935546875,0.0177001953125,0.97113037109375,3.446807861328125,-7.29736328125,-2.235565185546875,1,1.0,1.0,1.0,1.0,45.00
2021-04-24 08:52:10.477,,,,,,,,,,,,,,,,,,,,,,,,,,,,,,,,,,,,,,/muse/elements/blink
2021-04-24 08:52:10.609,0.6471125,0.0,0.41579598,0.93359804,0.62236017,0.0,0.36398396,0.57967573,0.6670822,0.0,0.6004383,0.54033744,0.50447524,0.0,0.23479433,0.8515816,0.09328509,0.0,-0.14064063,0.13988549,826.8132,702.3077,792.5641,815.9341,990.40295,0.041259765625,0.06256103515625,0.99102783203125,5.899200439453125,-10.460052490234375,-4.85992431640625,1,1.0,1.0,1.0,1.0,45.00
2021-04-24 08:52:11.116,0.6471125,0.0,0.4403253,0.93359804,0.62236017,0.0,0.26855662,0.57967573,0.6670822,0.0,0.2607539,0.54033744,0.50447524,0.0,0.12369574,0.8515816,0.09328509,0.0,-0.20691271,0.13988549,726.08057,794.9817,799.41394,753.0769,802.23444,0.0235595703125,0.007568359375,1.03131103515625,6.95343017578125,2.1832275390625,14.47509765625,1,2.0,1.0,1.0,2.0,45.00
2021-04-24 08:52:11.627,0.6471125,0.0,0.5119856,0.93359804,0.62236017,0.0,0.17168704,0.57967573,0.6670822,0.0,0.56760854,0.54033744,0.50447524,0.0,0.05468893,0.8515816,0.09328509,0.0,-0.28796577,0.13988549,817.1429,883.6264,815.5311,788.5348,768.7912,0.1256103515625,0.09112548828125,0.99114990234375,5.824432373046875,-7.828216552734375,-8.00018310546875,1,2.0,1.0,1.0,2.0,45.00
2021-04-24 08:52:12.007,,,,,,,,,,,,,,,,,,,,,,,,,,,,,,,,,,,,,,/muse/elements/blink
2021-04-24 08:52:12.155,0.6471125,0.0,0.5368129,0.93359804,0.62236017,0.0,0.054410096,0.57967573,0.6670822,0.0,0.5677963,0.54033744,0.50447524,0.0,-0.01179564,0.8515816,0.09328509,0.0,-0.34121653,0.13988549,762.74725,755.09155,770.40295,752.27106,734.1392,-0.03717041015625,0.2918701171875,0.97149658203125,5.211334228515625,-1.323394775390625,1.65985107421875,1,2.0,1.0,1.0,2.0,45.00
2021-04-24 08:52:12.680,0.6471125,0.0,0.3934907,0.93359804,0.62236017,0.0,0.08717728,0.57967573,0.6670822,0.0,0.5677963,0.54033744,0.50447524,0.0,-0.009020278,0.8515816,0.09328509,0.0,-0.40154293,0.13988549,781.685,869.5238,808.68134,766.77655,789.7436,0.0078125,0.08514404296875,1.0145263671875,-7.835693359375,-13.32366943359375,7.633819580078125,1,2.0,1.0,1.0,2.0,45.00
2021-04-24 08:52:13.206,0.6471125,0.0,0.404649,0.93359804,0.62236017,0.0,0.06372792,0.57967573,0.6670822,0.0,0.29631215,0.54033744,0.50447524,0.0,-0.03294931,0.8515816,0.09328509,0.0,-0.4913073,0.13988549,787.326,837.6923,823.9927,776.04395,778.0586,0.04302978515625,0.13873291015625,1.00274658203125,3.51409912109375,-5.0244140625,-2.071075439453125,1,2.0,1.0,1.0,2.0,45.00
2021-04-24 08:52:13.715,0.6471125,0.0,0.9335333,0.93359804,0.62236017,0.0,-0.29148555,0.57967573,0.6670822,0.0,0.07382082,0.54033744,0.50447524,0.0,-0.07054189,0.8515816,0.09328509,0.0,-0.3458532,0.13988549,802.23444,817.5458,813.1135,791.3553,792.5641,0.0411376953125,0.0589599609375,0.9923095703125,-3.54400634765625,0.3289794921875,4.05242919921875,1,2.0,1.0,1.0,2.0,45.00
2021-04-24 08:52:14.224,0.8769031,0.0,0.6427339,1.138359,0.36568654,0.0,-0.20266323,0.31305265,0.446933,0.0,0.10360988,0.53974766,0.56144947,0.0,6.993424E-5,0.81984556,0.29861966,0.0,-0.33557367,0.43405136,795.38464,842.1245,828.4249,789.7436,686.99634,0.0853271484375,0.167724609375,1.0147705078125,8.17962646484375,-12.972259521484375,-1.697235107421875,1,1.0,1.0,1.0,1.0,45.00
2021-04-24 08:52:14.748,0.8769031,0.0,0.48689657,1.138359,0.36568654,0.0,-0.016515968,0.31305265,0.446933,0.0,0.22692996,0.53974766,0.56144947,0.0,0.09216664,0.81984556,0.29861966,0.0,-0.37719253,0.43405136,837.6923,665.64105,813.91943,833.663,961.39197,-0.09478759765625,0.1429443359375,1.0003662109375,6.4599609375,12.919921875,6.74407958984375,1,1.0,1.0,1.0,1.0,45.00
2021-04-24 08:52:15.249,0.9112528,0.0,0.2342439,0.9606241,0.4610707,0.0,0.031558715,0.23006849,0.446933,0.0,0.25231522,0.3354454,0.6208224,0.0,0.057557654,0.8040592,0.33293352,0.0,-0.33343947,0.41722924,794.9817,786.9231,820.7692,784.90845,851.79486,0.01800537109375,0.09576416015625,1.004150390625,5.764617919921875,-4.747772216796875,-0.874786376953125,1,1.0,1.0,1.0,1.0,45.00
2021-04-24 08:52:15.757,0.88269943,0.0,0.50847006,0.9606241,0.47664964,0.0,0.07266166,0.23006849,0.4407386,0.0,0.27273628,0.3354454,0.6274247,0.0,0.09087797,0.8040592,0.31368676,0.0,-0.27564442,0.41722924,798.20514,814.7253,810.696,784.10254,752.674,0.02593994140625,0.1529541015625,1.01190185546875,7.22259521484375,-15.753631591796875,0.2691650390625,1,1.0,1.0,1.0,1.0,45.00
2021-04-24 08:52:16.271,0.88269943,0.0,0.54342365,0.9606241,0.47664964,0.0,0.012733081,0.23006849,0.4407386,0.0,0.36714604,0.3354454,0.6274247,0.0,0.0811671,0.8040592,0.31368676,0.0,-0.26558578,0.41722924,803.44324,694.65204,813.5165,802.23444,942.4542,0.136962890625,0.0867919921875,0.99169921875,0.710296630859375,-6.041259765625,7.4169921875,1,1.0,1.0,1.0,1.0,45.00
2021-04-24 08:52:16.780,0.667279,0.0,0.54545546,0.9606241,0.6730687,0.0,-0.05717837,0.23006849,0.27588516,0.0,0.34607255,0.3354454,0.6066009,0.0,0.10992365,0.8040592,0.34204745,0.0,-0.28190738,0.41722924,802.23444,849.3773,821.978,789.7436,757.50916,0.0115966796875,0.06671142578125,0.987060546875,2.0635986328125,3.94775390625,-6.482391357421875,1,1.0,1.0,1.0,1.0,45.00
2021-04-24 08:52:17.297,0.667279,0.0,0.45732617,0.9606241,0.6730687,0.0,-0.036793854,0.23006849,0.27588516,0.0,0.31955746,0.3354454,0.6066009,0.0,0.049954794,0.8040592,0.34204745,0.0,-0.23920323,0.41722924,805.4579,776.4469,801.4286,790.54944,825.6044,-0.0098876953125,0.07672119140625,0.9971923828125,7.484283447265625,-1.786956787109375,6.063690185546875,1,1.0,1.0,1.0,1.0,45.00
2021-04-24 08:52:17.810,0.5614539,0.0,0.38061836,0.9349559,0.6377876,0.0,0.013895376,1.1258111,0.2792711,0.0,0.28299266,0.8444474,0.63777864,0.0,-0.028650358,0.54862386,0.15225947,0.0,-0.2152599,0.45822015,806.6667,794.57874,826.8132,829.6337,850.989,0.04412841796875,0.0787353515625,0.9967041015625,2.8411865234375,-9.43572998046875,-2.70660400390625,1,1.0,1.0,1.0,1.0,45.00
2021-04-24 08:52:18.315,0.5156625,0.0,0.42131263,0.9684642,0.514637,0.0,0.121377826,1.0840354,0.27034488,0.0,0.41668895,0.7925875,0.63556904,0.0,0.033671543,0.54951495,0.21831778,0.0,-0.26312426,0.40152994,776.4469,925.5311,808.68134,760.32965,795.78754,0.0452880859375,0.1005859375,0.99896240234375,4.77020263671875,-6.71417236328125,-0.560760498046875,1,1.0,1.0,1.0,1.0,45.00
2021-04-24 08:52:18.823,0.5156625,0.0,0.47474688,0.9684642,0.514637,0.0,0.14826785,1.0840354,0.27034488,0.0,0.40140468,0.7925875,0.63556904,0.0,0.110492885,0.54951495,0.21831778,0.0,-0.3471262,0.40152994,818.3516,828.022,819.5604,810.696,762.74725,0.0272216796875,0.06683349609375,0.988525390625,3.028106689453125,-1.069183349609375,0.91217041015625,1,1.0,1.0,1.0,1.0,45.00
2021-04-24 08:52:19.327,0.47157857,0.0,0.65092933,0.9684642,0.38173476,0.0,0.18878083,1.0840354,0.16065805,0.0,0.31662,0.7925875,0.62685716,0.0,0.0863963,0.54951495,0.30950573,0.0,-0.319152,0.40152994,792.96704,788.5348,819.5604,793.7729,802.6374,0.052001953125,0.07794189453125,0.99896240234375,4.23187255859375,-2.041168212890625,-1.3458251953125,1,1.0,1.0,1.0,1.0,45.00
2021-04-24 08:52:19.847,0.47157857,0.0,0.58613867,0.9684642,0.38173476,0.0,0.08403932,1.0840354,0.16065805,0.0,0.27093706,0.7925875,0.62685716,0.0,-0.010950438,0.54951495,0.30950573,0.0,-0.26682094,0.40152994,780.87915,879.19415,820.3663,769.19415,760.7326,0.031494140625,0.0518798828125,1.0050048828125,5.2337646484375,-3.162689208984375,-0.186920166015625,1,1.0,1.0,1.0,1.0,45.00
2021-04-24 08:52:20.370,0.49293262,0.0,0.25746435,0.5698572,0.08700032,0.0,-0.004035805,-0.04260969,0.29334283,0.0,0.10023344,0.3910047,0.42785034,0.0,-0.10434389,0.748011,-0.02691575,0.0,-0.2562911,0.42167705,713.5897,778.0586,822.7839,726.08057,811.9048,0.004150390625,0.061767578125,1.01324462890625,0.73272705078125,0.9271240234375,4.000091552734375,1,1.0,1.0,1.0,1.0,45.00
2021-04-24 08:52:20.637,,,,,,,,,,,,,,,,,,,,,,,,,,,,,,,,,,,,,,/muse/elements/blink
2021-04-24 08:52:20.898,0.49293262,0.0,0.12407201,0.5698572,0.08700032,0.0,0.25996026,-0.04260969,0.29334283,0.0,0.24413192,0.3910047,0.42785034,0.0,-0.096050575,0.748011,-0.02691575,0.0,-0.28183007,0.42167705,804.2491,850.58606,820.3663,806.6667,732.52747,-0.02044677734375,0.02496337890625,0.98626708984375,4.687957763671875,-9.85443115234375,1.8841552734375,1,1.0,1.0,1.0,1.0,45.00
2021-04-24 08:52:21.421,0.49126372,0.0,0.5436891,0.5698572,0.115119554,0.0,0.52491367,-0.04260969,0.24176998,0.0,0.27033088,0.3910047,0.4304336,0.0,0.009325102,0.748011,-0.09338305,0.0,-0.2785949,0.42167705,799.011,865.4945,811.0989,796.1905,674.5055,0.03875732421875,0.05609130859375,1.00732421875,3.84307861328125,-2.37762451171875,3.24493408203125,1,1.0,1.0,1.0,1.0,45.00
2021-04-24 08:52:21.950,0.45931026,0.0,0.5546571,0.5698572,0.08983063,0.0,0.51315635,-0.04260969,0.23015302,0.0,0.23620734,0.3910047,0.435645,0.0,0.03121902,0.748011,-0.10948422,0.0,-0.28505448,0.42167705,784.10254,805.05493,813.5165,791.3553,757.9121,0.00299072265625,0.05499267578125,1.00579833984375,3.028106689453125,-5.81695556640625,0.10467529296875,1,1.0,1.0,1.0,1.0,45.00
2021-04-24 08:52:22.452,0.4388992,0.0,0.28222358,0.5698572,0.20454827,0.0,0.11069971,-0.04260969,0.51315576,0.0,0.20422892,0.3910047,0.6994224,0.0,0.09691835,0.748011,0.589587,0.0,-0.21413855,0.42167705,798.60803,870.7326,806.6667,782.0879,728.49817,0.014404296875,0.0428466796875,1.0052490234375,4.83001708984375,-7.53662109375,2.235565185546875,1,1.0,1.0,1.0,1.0,45.00
2021-04-24 08:52:22.971,0.4388992,0.0,0.14815044,0.5698572,0.20454827,0.0,-0.03597339,-0.04260969,0.51315576,0.0,0.15523048,0.3910047,0.6994224,0.0,0.0706992,0.748011,0.589587,0.0,-0.24388571,0.42167705,805.05493,815.9341,834.87177,798.60803,794.57874,-0.00518798828125,0.03533935546875,1.0032958984375,4.882354736328125,-7.155303955078125,-0.9869384765625,1,1.0,1.0,1.0,1.0,45.00
2021-04-24 08:52:23.493,0.39961362,0.0,0.50896865,0.5698572,0.13980377,0.0,0.11186199,-0.04260969,0.4043347,0.0,0.18696806,0.3910047,0.6742579,0.0,0.13357185,0.748011,0.6251719,0.0,-0.20939712,0.42167705,806.26373,826.0073,809.4872,799.41394,766.77655,0.1180419921875,0.05194091796875,0.9693603515625,8.740386962890625,-9.293670654296875,-0.590667724609375,1,1.0,1.0,1.0,1.0,45.00
2021-04-24 08:52:24.020,0.39961362,0.0,0.7472971,0.99882334,0.13980377,0.0,0.23068585,0.9160636,0.4043347,0.0,0.28423962,0.5551961,0.6742579,0.0,0.19178995,0.91569436,0.6251719,0.0,-0.29370353,0.20064165,794.17584,861.4652,809.0842,775.2381,772.8205,0.05438232421875,0.0924072265625,0.9891357421875,4.246826171875,-2.953338623046875,2.489776611328125,1,1.0,1.0,1.0,1.0,45.00
2021-04-24 08:52:24.529,1.2545991,0.0,0.67876226,0.96043766,1.3646647,0.0,0.15300174,0.82537717,0.91962653,0.0,0.25056678,0.5633102,0.77436113,0.0,0.2562046,0.8832274,0.08684636,0.0,-0.3386301,0.26819503,813.1135,778.0586,805.8608,788.1319,719.6337,0.05877685546875,0.10009765625,1.01702880859375,5.00946044921875,-2.968292236328125,6.4898681640625,1,1.0,1.0,1.0,1.0,45.00
2021-04-24 08:52:25.057,1.0055592,0.0,0.5023024,0.96043766,1.0903467,0.0,0.09817711,0.82537717,0.92167336,0.0,0.29852292,0.5633102,0.6268528,0.0,0.1616327,0.8832274,0.20505086,0.0,-0.37339595,0.26819503,786.9231,870.32965,798.60803,781.28204,836.08057,0.03546142578125,0.099365234375,0.9998779296875,2.75146484375,-3.222503662109375,1.36077880859375,1,1.0,1.0,1.0,1.0,45.00
2021-04-24 08:52:25.479,,,,,,,,,,,,,,,,,,,,,,,,,,,,,,,,,,,,,,/muse/elements/blink
2021-04-24 08:52:25.590,0.55918914,0.0,-0.006357188,0.55690044,0.47409847,0.0,0.07920565,0.34835663,0.6649582,0.0,0.27238575,0.47053906,0.489342,0.0,-0.012794195,0.6897585,0.34997115,0.0,-0.3680126,0.4083154,804.2491,771.6117,803.44324,810.293,901.3553,0.050048828125,0.10186767578125,0.99456787109375,6.751556396484375,-4.20196533203125,-2.654266357421875,1,1.0,1.0,1.0,1.0,45.00
2021-04-24 08:52:26.013,,,,,,,,,,,,,,,,,,,,,,,,,,,,,,,,,,,,,,/muse/elements/blink
2021-04-24 08:52:26.112,0.39025283,0.0,0.14966379,0.55690044,0.2325081,0.0,0.101864874,0.34835663,0.62817466,0.0,0.22426932,0.47053906,0.45909142,0.0,-0.10994896,0.6897585,0.37867248,0.0,-0.38066298,0.4083154,863.47986,849.3773,823.5897,838.49817,763.1502,-0.0389404296875,0.1177978515625,0.9764404296875,8.471221923828125,11.701202392578125,1.921539306640625,1,1.0,1.0,1.0,1.0,45.00
2021-04-24 08:52:26.342,,,,,,,,,,,,,,,,,,,,,,,,,,,,,,,,,,,,,,/muse/elements/blink
2021-04-24 08:52:26.628,0.4143188,0.0,0.64772326,0.55690044,0.3082077,0.0,0.28699973,0.34835663,0.62817466,0.0,0.26114264,0.47053906,0.4900134,0.0,-0.005797342,0.6897585,0.44424894,0.0,-0.36377826,0.4083154,632.6007,882.8205,768.3883,620.9158,674.5055,-0.26800537109375,0.0816650390625,0.94586181640625,-4.239349365234375,23.13323974609375,-10.6768798828125,1,1.0,1.0,1.0,1.0,45.00
2021-04-24 08:52:26.654,,,,,,,,,,,,,,,,,,,,,,,,,,,,,,,,,,,,,,/muse/elements/blink
2021-04-24 08:52:26.837,,,,,,,,,,,,,,,,,,,,,,,,,,,,,,,,,,,,,,/muse/elements/blink
2021-04-24 08:52:27.129,0.4143188,0.0,0.812689,0.55690044,0.3082077,0.0,0.36761844,0.34835663,0.62817466,0.0,0.26042557,0.47053906,0.4900134,0.0,0.07316483,0.6897585,0.44424894,0.0,-0.3521704,0.4083154,772.01465,775.64105,772.01465,751.4652,700.696,-0.2789306640625,0.04974365234375,0.95660400390625,6.759033203125,-16.217193603515625,0.157012939453125,1,1.0,1.0,1.0,1.0,45.00
2021-04-24 08:52:27.631,0.4143188,0.0,1.037028,0.55690044,0.3082077,0.0,0.48055828,0.34835663,0.62817466,0.0,0.10508015,0.47053906,0.4900134,0.0,0.17790051,0.6897585,0.44424894,0.0,-0.27299592,0.4083154,780.07324,783.69965,771.2088,777.6557,712.7839,-0.39208984375,0.02789306640625,0.9130859375,4.673004150390625,4.1571044921875,0.157012939453125,1,1.0,1.0,1.0,1.0,45.00
2021-04-24 08:52:28.148,0.4143188,0.0,1.037028,0.55690044,0.3082077,0.0,0.48055828,0.34835663,0.62817466,0.0,0.10508015,0.47053906,0.4900134,0.0,0.17790051,0.6897585,0.44424894,0.0,-0.27299592,0.4083154,799.41394,852.1978,805.05493,786.9231,741.39197,-0.3592529296875,0.05657958984375,0.9349365234375,6.68426513671875,-10.744171142578125,3.835601806640625,1,2.0,4.0,1.0,2.0,45.00
2021-04-24 08:52:28.649,0.4143188,0.0,1.037028,0.55690044,0.3082077,0.0,0.48055828,0.34835663,0.62817466,0.0,0.10508015,0.47053906,0.4900134,0.0,0.17790051,0.6897585,0.44424894,0.0,-0.27299592,0.4083154,817.9487,780.4762,817.1429,799.81683,744.61536,-0.30303955078125,0.0361328125,0.95098876953125,5.241241455078125,-9.55535888671875,2.983245849609375,1,2.0,4.0,1.0,2.0,45.00
2021-04-24 08:52:29.160,0.4143188,0.0,1.037028,0.55690044,0.3082077,0.0,0.48055828,0.34835663,0.62817466,0.0,0.10508015,0.47053906,0.4900134,0.0,0.17790051,0.6897585,0.44424894,0.0,-0.27299592,0.4083154,835.6777,737.76556,828.4249,834.0659,841.7216,-0.27899169921875,0.03948974609375,0.9586181640625,4.329071044921875,-6.258087158203125,0.6878662109375,1,2.0,4.0,1.0,2.0,45.00
2021-04-24 08:52:29.670,1.084484,0.0,1.1271262,0.8047583,0.7383416,0.0,0.4824241,0.76994795,0.81915206,0.0,0.42983463,0.6267194,0.55931103,0.0,-0.08222632,0.7871898,0.47725052,0.0,0.008467867,0.5943707,817.1429,711.5751,811.9048,821.5751,1012.1612,-0.279541015625,0.0455322265625,0.9617919921875,4.897308349609375,-3.955230712890625,1.667327880859375,1,1.0,4.0,1.0,1.0,45.00
2021-04-24 08:52:30.178,1.0361739,0.0,0.99767894,0.8279255,0.77124405,0.0,0.44852835,0.7165362,0.9728744,0.0,0.4345344,0.9357133,0.659302,0.0,-0.058673143,0.91809386,0.3731839,0.0,-0.10336186,0.49623433,797.3993,768.3883,797.8022,791.75824,795.78754,-0.281982421875,0.03680419921875,0.96380615234375,4.822540283203125,-4.78515625,1.996307373046875,1,1.0,4.0,1.0,1.0,45.00
2021-04-24 08:52:30.695,1.0483145,0.0,0.91571337,0.8279255,0.70576483,0.0,0.3419288,0.7165362,0.9728744,0.0,0.43493432,0.9357133,0.74856955,0.0,-0.022523219,0.91809386,0.34925908,0.0,-0.18336709,0.49623433,794.17584,615.2747,785.31134,805.4579,1081.4652,-0.28192138671875,0.03912353515625,0.9615478515625,4.508514404296875,-4.388885498046875,0.2392578125,1,1.0,4.0,1.0,1.0,45.00
2021-04-24 08:52:31.202,0.95221907,0.0,0.66298646,0.8186214,0.7286062,0.0,-0.024115982,0.72166175,0.8025378,0.0,0.37710935,0.84231603,0.80629194,0.0,0.06496467,0.96838313,0.42551255,0.0,-0.4105365,0.71933615,814.7253,767.98535,784.5055,802.23444,1094.762,-0.29986572265625,0.0299072265625,0.9619140625,4.538421630859375,-3.7384033203125,1.36077880859375,1,1.0,4.0,1.0,1.0,45.00
2021-04-24 08:52:31.706,0.93074656,0.0,0.7986957,0.8072103,0.6780517,0.0,0.11414239,0.7710138,0.6091595,0.0,0.4186245,0.6628306,0.7999859,0.0,0.16443363,0.9055331,0.49560314,0.0,-0.38588327,0.88722813,751.8681,914.65204,829.2308,755.89746,713.9927,-0.28997802734375,0.02874755859375,0.95904541015625,4.403839111328125,-4.2767333984375,0.575714111328125,1,1.0,4.0,1.0,1.0,45.00
2021-04-24 08:52:32.215,0.8361299,0.0,0.8472309,0.63159996,0.69098496,0.0,0.23340684,0.6764447,0.8005224,0.0,0.4320156,0.8357411,0.70226145,0.0,0.15847263,0.8938438,0.5064174,0.0,-0.33197257,0.67572993,791.3553,831.6484,805.4579,794.17584,649.12085,-0.311279296875,0.02630615234375,0.949462890625,4.6954345703125,-3.54400634765625,1.68975830078125,1,1.0,4.0,1.0,1.0,45.00
2021-04-24 08:52:32.726,0.6966226,0.0,0.92552316,0.5248001,0.49516082,0.0,0.45120403,0.54685456,0.79391325,0.0,0.33461857,0.80439085,0.64769757,0.0,0.14736776,0.87164897,0.43397743,0.0,-0.26173225,0.44848827,795.78754,784.10254,809.0842,780.4762,765.56775,-0.32733154296875,0.0205078125,0.94384765625,4.433746337890625,-4.837493896484375,1.1962890625,1,1.0,4.0,1.0,1.0,45.00
2021-04-24 08:52:33.241,0.6715277,0.0,0.89524573,0.5248001,0.48653948,0.0,0.4552276,0.54685456,0.85404277,0.0,0.22416712,0.80439085,0.640346,0.0,0.083020605,0.87164897,0.4336857,0.0,-0.23664828,0.44848827,801.02563,761.53845,810.696,799.41394,777.6557,-0.31817626953125,0.026611328125,0.9461669921875,5.57769775390625,-4.388885498046875,1.816864013671875,1,1.0,1.0,1.0,1.0,45.00
2021-04-24 08:52:33.778,0.34070438,0.0,0.7355492,0.6725134,0.36660755,0.0,0.370388,0.6788057,0.83474195,0.0,0.19367835,0.87285465,0.6056131,0.0,0.08214489,0.60093874,0.38760194,0.0,-0.28708395,0.5405391,799.011,876.3736,819.5604,801.4286,663.6264,-0.34356689453125,0.04718017578125,0.94122314453125,5.809478759765625,-3.087921142578125,1.801910400390625,1,1.0,4.0,1.0,1.0,45.00
2021-04-24 08:52:34.295,0.49430254,0.0,0.7352147,0.76141757,0.3689534,0.0,0.24682823,0.6243919,0.82206315,0.0,0.2976169,0.8848477,0.6452265,0.0,0.055284254,0.7041744,0.33335024,0.0,-0.24658762,0.5852607,817.1429,763.5531,809.89014,817.1429,840.5128,-0.35986328125,0.03717041015625,0.934326171875,2.79632568359375,-3.4991455078125,0.2691650390625,1,1.0,1.0,1.0,1.0,45.00
2021-04-24 08:52:34.798,0.87079483,0.0,0.72186565,0.97385013,0.46312183,0.0,0.29734284,0.6563867,0.7576747,0.0,0.23368455,0.9102833,0.62494206,0.0,-0.022568062,0.6960353,0.28959477,0.0,-0.36087817,0.6388463,802.6374,833.663,813.1135,791.3553,731.31866,-0.36602783203125,0.0225830078125,0.92901611328125,3.87298583984375,-5.271148681640625,-0.11962890625,1,1.0,1.0,1.0,1.0,45.00
2021-04-24 08:52:35.306,0.8766428,0.0,0.7183599,0.9456935,0.4432581,0.0,0.32220683,0.5437364,0.6791711,0.0,0.22824094,0.8485916,0.5824239,0.0,-0.0324646,0.6922104,0.2665086,0.0,-0.41954648,0.6378247,827.2161,824.7985,811.9048,813.5165,804.65204,-0.35723876953125,0.0303955078125,0.931884765625,4.747772216796875,-4.344024658203125,1.09161376953125,1,1.0,1.0,1.0,1.0,45.00
2021-04-24 08:52:35.828,0.85829777,0.0,0.5771714,0.95316917,0.36162314,0.0,0.20149252,0.5189555,0.67854625,0.0,0.3456867,0.8180726,0.5228142,0.0,-0.0077149174,0.5983874,0.26697862,0.0,-0.59816974,0.6154778,839.304,657.98535,803.0403,836.08057,1084.6886,-0.3555908203125,0.02874755859375,0.93511962890625,5.12908935546875,-5.420684814453125,1.27105712890625,1,1.0,1.0,1.0,1.0,45.00
2021-04-24 08:52:36.334,0.45774323,0.0,0.5512642,0.57127005,0.17786063,0.0,-0.035943255,0.31748554,0.6603245,0.0,0.38599363,0.8037512,0.4989583,0.0,-0.0014188765,0.6098068,0.29831702,0.0,-0.559224,0.480221,792.96704,837.28937,812.71063,797.8022,784.10254,-0.35418701171875,0.0257568359375,0.93408203125,4.3963623046875,-5.93658447265625,0.83740234375,1,1.0,4.0,1.0,1.0,45.00
2021-04-24 08:52:36.859,0.92269015,0.0,0.72417134,0.9655556,0.4204067,0.0,0.20568016,0.35790846,0.545259,0.0,0.386844,0.52428967,0.45316023,0.0,-0.06377627,0.7191072,0.27091795,0.0,-0.35985363,0.31954426,799.41394,844.94507,811.0989,790.54944,690.2198,-0.3514404296875,0.03338623046875,0.94110107421875,4.942169189453125,-4.927215576171875,1.86920166015625,1,1.0,1.0,1.0,1.0,45.00
2021-04-24 08:52:37.366,1.0694627,0.0,0.6748716,0.9722571,0.5752094,0.0,0.22741319,0.33366165,0.498128,0.0,0.30316597,0.52738607,0.4484329,0.0,-0.18105282,0.7225583,0.28229508,0.0,-0.26258734,0.35618842,831.6484,653.1502,807.47253,832.4542,1025.4579,-0.34991455078125,0.02081298828125,0.937255859375,5.001983642578125,-5.3533935546875,0.934600830078125,1,1.0,1.0,1.0,1.0,45.00
2021-04-24 08:52:37.874,1.1653303,0.0,0.60962033,1.0821121,0.5014317,0.0,0.29203635,0.462898,0.3617096,0.0,0.14704496,0.58395016,0.32668498,0.0,-0.21009721,0.5330963,0.2749446,0.0,-0.23733677,0.46703318,734.5421,867.9121,818.7546,741.79486,759.12085,-0.3310546875,0.0218505859375,0.9434814453125,6.20574951171875,-5.824432373046875,-6.71417236328125,1,1.0,1.0,1.0,1.0,45.00
2021-04-24 08:52:38.384,1.1653303,0.0,0.5569136,1.0809382,0.5014317,0.0,0.23467012,0.51418656,0.3617096,0.0,0.39069664,0.49458265,0.32668498,0.0,-0.051292226,0.40960434,0.2749446,0.0,-0.24312283,0.53681296,795.38464,854.61536,812.3077,796.1905,760.32965,-0.386474609375,0.04498291015625,0.92755126953125,4.224395751953125,-1.338348388671875,-0.919647216796875,1,1.0,1.0,1.0,1.0,45.00
2021-04-24 08:52:38.902,1.1653303,0.0,0.6849536,1.1663239,0.5014317,0.0,0.3194291,0.6087229,0.3617096,0.0,0.39236027,0.49212304,0.32668498,0.0,0.1076406,0.35855702,0.2749446,0.0,-0.18096669,0.5723666,792.96704,819.5604,794.17584,790.14655,842.1245,-0.3525390625,0.030029296875,0.9259033203125,5.12908935546875,-2.572021484375,0.097198486328125,1,1.0,1.0,1.0,1.0,45.00
2021-04-24 08:52:39.405,1.1653303,0.0,0.87093526,1.1698433,0.5014317,0.0,0.37246582,0.649508,0.3617096,0.0,0.3941349,0.48949146,0.32668498,0.0,0.12412944,0.3168469,0.2749446,0.0,-0.16202298,0.61074644,726.8865,772.4176,712.381,716.4103,710.7692,-0.38873291015625,0.04443359375,0.92376708984375,3.641204833984375,0.179443359375,2.10845947265625,1,1.0,1.0,1.0,1.0,45.00
2021-04-24 08:52:39.918,1.1653303,0.0,0.96043736,1.1698433,0.5014317,0.0,0.3870784,0.649508,0.3617096,0.0,0.36975542,0.48949146,0.32668498,0.0,0.15964335,0.3168469,0.2749446,0.0,-0.14242128,0.61074644,833.663,829.2308,765.16486,803.8461,787.72894,-0.35516357421875,0.0450439453125,0.93817138671875,4.08233642578125,-6.138458251953125,-1.614990234375,1,1.0,1.0,1.0,1.0,45.00
2021-04-24 08:52:40.423,1.1653303,0.0,1.1324615,1.1698433,0.5014317,0.0,0.47341546,0.649508,0.3617096,0.0,0.068793945,0.48949146,0.32668498,0.0,-0.05354046,0.3168469,0.2749446,0.0,-0.30268124,0.61074644,749.85345,811.9048,760.32965,754.2857,784.90845,-0.4091796875,0.0189208984375,0.9119873046875,3.66363525390625,-5.5029296875,0.059814453125,1,1.0,1.0,1.0,1.0,45.00
2021-04-24 08:52:40.924,1.1653303,0.0,1.1324615,1.1698433,0.5014317,0.0,0.47341546,0.649508,0.3617096,0.0,0.068793945,0.48949146,0.32668498,0.0,-0.05354046,0.3168469,0.2749446,0.0,-0.30268124,0.61074644,785.31134,890.07324,786.52014,780.87915,768.7912,-0.42010498046875,0.03173828125,0.9053955078125,3.865509033203125,0.2691650390625,4.725341796875,1,2.0,1.0,1.0,2.0,45.00
2021-04-24 08:52:41.448,1.1653303,0.0,1.1324615,1.1698433,0.5014317,0.0,0.47341546,0.649508,0.3617096,0.0,0.068793945,0.48949146,0.32668498,0.0,-0.05354046,0.3168469,0.2749446,0.0,-0.30268124,0.61074644,813.5165,754.68866,780.87915,823.9927,860.2564,-0.43292236328125,0.03277587890625,0.90142822265625,4.867401123046875,-8.47869873046875,1.495361328125,1,2.0,1.0,1.0,2.0,45.00
2021-04-24 08:52:41.972,1.1653303,0.0,1.1324615,1.1698433,0.5014317,0.0,0.47341546,0.649508,0.3617096,0.0,0.068793945,0.48949146,0.32668498,0.0,-0.05354046,0.3168469,0.2749446,0.0,-0.30268124,0.61074644,817.1429,821.978,824.3956,792.5641,798.60803,-0.39111328125,0.03839111328125,0.92120361328125,3.887939453125,-8.575897216796875,1.83929443359375,1,2.0,1.0,1.0,2.0,45.00
2021-04-24 08:52:42.474,1.1653303,0.0,1.1324615,1.1698433,0.5014317,0.0,0.47341546,0.649508,0.3617096,0.0,0.068793945,0.48949146,0.32668498,0.0,-0.05354046,0.3168469,0.2749446,0.0,-0.30268124,0.61074644,834.0659,840.10986,803.8461,821.5751,808.2784,-0.36688232421875,0.02105712890625,0.92816162109375,4.673004150390625,-5.69732666015625,1.71966552734375,1,2.0,1.0,1.0,2.0,45.00
2021-04-24 08:52:42.992,1.1653303,0.0,1.1324615,1.1698433,0.5014317,0.0,0.47341546,0.649508,0.3617096,0.0,0.068793945,0.48949146,0.32668498,0.0,-0.05354046,0.3168469,0.2749446,0.0,-0.30268124,0.61074644,822.7839,615.2747,807.47253,819.5604,1098.7913,-0.359130859375,0.02734375,0.93463134765625,5.286102294921875,-5.375823974609375,2.6318359375,1,2.0,1.0,1.0,2.0,45.00
2021-04-24 08:52:43.520,1.1653303,0.0,1.1324615,1.1698433,0.5014317,0.0,0.47341546,0.649508,0.3617096,0.0,0.068793945,0.48949146,0.32668498,0.0,-0.05354046,0.3168469,0.2749446,0.0,-0.30268124,0.61074644,791.3553,835.6777,785.7143,771.6117,747.4359,-0.35498046875,0.01995849609375,0.93328857421875,4.74029541015625,-4.583282470703125,1.68975830078125,1,2.0,1.0,1.0,2.0,45.00
2021-04-24 08:52:44.030,1.1653303,0.0,1.3510232,1.1698433,0.5014317,0.0,0.23546225,0.649508,0.3617096,0.0,0.7468888,0.48949146,0.32668498,0.0,0.024921546,0.3168469,0.2749446,0.0,-0.44427383,0.61074644,816.337,762.74725,801.02563,823.1868,861.4652,-0.373046875,0.02459716796875,0.92669677734375,3.970184326171875,-3.768310546875,0.755157470703125,1,2.0,1.0,1.0,2.0,45.00
2021-04-24 08:52:44.553,1.1653303,0.0,1.4405056,1.1698433,0.5014317,0.0,0.69813037,0.649508,0.3617096,0.0,0.7745359,0.48949146,0.32668498,0.0,0.23078553,0.3168469,0.2749446,0.0,-0.17013429,0.61074644,807.47253,809.0842,838.0952,817.9487,642.27106,-0.37384033203125,0.02545166015625,0.934814453125,5.0543212890625,-5.734710693359375,1.592559814453125,1,2.0,1.0,1.0,2.0,45.00
2021-04-24 08:52:45.082,1.1653303,0.0,1.4405056,1.1698433,0.5014317,0.0,0.69813037,0.649508,0.3617096,0.0,0.7745359,0.48949146,0.32668498,0.0,0.23078553,0.3168469,0.2749446,0.0,-0.17013429,0.61074644,820.3663,883.22345,822.381,810.696,678.93774,-0.36846923828125,0.025146484375,0.929443359375,4.358978271484375,-4.299163818359375,0.680389404296875,1,2.0,1.0,1.0,2.0,45.00
2021-04-24 08:52:45.588,1.1653303,0.0,1.4308805,1.1698433,0.5014317,0.0,0.6533212,0.649508,0.3617096,0.0,0.74996537,0.48949146,0.32668498,0.0,0.25078392,0.3168469,0.2749446,0.0,-0.22193052,0.61074644,834.87177,810.293,840.10986,832.0513,717.2161,-0.3743896484375,0.02764892578125,0.92926025390625,4.88983154296875,-5.196380615234375,2.444915771484375,1,2.0,1.0,1.0,2.0,45.00
2021-04-24 08:52:46.093,1.1653303,0.0,1.0288271,1.1698433,0.5014317,0.0,0.6037166,0.649508,0.3617096,0.0,0.28766024,0.48949146,0.32668498,0.0,0.22782283,0.3168469,0.2749446,0.0,-0.4042721,0.61074644,828.8278,878.3883,834.0659,819.9634,746.2271,-0.3670654296875,0.02508544921875,0.93853759765625,4.306640625,-4.0374755859375,1.12152099609375,1,2.0,1.0,1.0,2.0,40.00
2021-04-24 08:52:46.605,0.39680344,0.0,0.8349381,0.40666062,0.3363976,0.0,0.4119011,0.44763783,0.4518588,0.0,0.30451974,0.6221766,0.54913336,0.0,0.18603265,0.49732673,0.25788862,0.0,-0.4470075,0.38845515,802.23444,888.46155,819.15753,803.44324,758.71796,-0.3697509765625,0.019775390625,0.93017578125,4.53094482421875,-4.643096923828125,1.308441162109375,1,1.0,1.0,1.0,1.0,40.00
2021-04-24 08:52:47.114,0.60532963,0.0,0.6555214,0.4357925,0.33981353,0.0,0.31867555,0.36905682,0.5217109,0.0,0.30695045,0.6473743,0.6009852,0.0,0.08616058,0.56781876,0.39440915,0.0,-0.40485823,0.41967204,809.4872,836.8865,818.7546,815.9341,747.4359,-0.3729248046875,0.0162353515625,0.9306640625,5.2935791015625,-4.1571044921875,1.218719482421875,1,1.0,1.0,1.0,1.0,40.00
2021-04-24 08:52:47.641,0.47175637,0.0,0.1401438,0.35811538,0.24466915,0.0,-0.013065265,0.25717202,0.48438752,0.0,0.10931939,0.5446433,0.5522211,0.0,-0.0069517274,0.52790534,0.36159453,0.0,-0.4075189,0.43601558,806.26373,858.6447,820.7692,803.44324,681.75824,-0.3658447265625,0.02117919921875,0.93096923828125,5.316009521484375,-5.570220947265625,1.278533935546875,1,1.0,1.0,1.0,1.0,40.00
2021-04-24 08:52:48.146,0.43278027,0.0,0.072762616,0.39556262,0.060157,0.0,-0.10237947,0.037483823,0.5513554,0.0,0.05977612,0.5912399,0.50784606,0.0,0.0096295215,0.57433474,0.3476878,0.0,-0.35865438,0.50255555,814.3223,750.65936,813.91943,820.7692,843.3333,-0.36767578125,0.02288818359375,0.93292236328125,4.3963623046875,-3.925323486328125,1.0467529296875,1,1.0,4.0,1.0,1.0,40.00
2021-04-24 08:52:48.649,0.3108464,0.0,-0.07126219,0.6550029,0.06520206,0.0,-0.41602585,0.42544392,0.59562945,0.0,-0.10394965,0.55264205,0.45180225,0.0,0.0747883,0.57525665,0.27899846,0.0,-0.32893702,0.5116992,789.34064,776.4469,812.71063,792.1612,785.7143,-0.37518310546875,0.01593017578125,0.93011474609375,4.3963623046875,-5.674896240234375,1.383209228515625,1,1.0,1.0,1.0,1.0,40.00
2021-04-24 08:52:49.175,0.4306854,0.0,-0.053464983,0.7839168,0.16049497,0.0,-0.3023782,0.57167846,0.5910848,0.0,-0.049397238,0.55264205,0.46350062,0.0,0.03973359,0.641816,0.27153754,0.0,-0.33716574,0.5314576,810.293,867.1062,825.6044,802.23444,779.67035,-0.36920166015625,0.01995849609375,0.9326171875,4.77020263671875,-5.031890869140625,1.757049560546875,1,1.0,4.0,1.0,1.0,40.00
2021-04-24 08:52:49.677,0.68936795,0.0,0.28713834,0.9579794,0.5025153,0.0,-0.06111102,0.7731411,0.6548944,0.0,0.06571654,0.47108057,0.5267806,0.0,0.12026603,0.73964226,0.35887033,0.0,-0.23443706,0.45596707,824.3956,695.4579,809.89014,823.1868,978.315,-0.3660888671875,0.01513671875,0.93414306640625,4.972076416015625,-5.271148681640625,1.622467041015625,1,1.0,4.0,1.0,1.0,40.00
2021-04-24 08:52:50.192,0.26153642,0.0,0.3973112,0.64723605,0.44814023,0.0,-0.009258961,0.4961322,0.5422989,0.0,0.015123319,0.72250557,0.37214985,0.0,0.12931088,0.74716103,0.37634245,0.0,-0.26012984,0.5139622,805.05493,814.7253,810.696,801.8315,801.02563,-0.364501953125,0.02056884765625,0.933349609375,4.94964599609375,-4.478607177734375,1.54022216796875,1,1.0,1.0,1.0,1.0,40.00
2021-04-24 08:52:50.701,0.23749532,0.0,0.40987584,0.51604104,0.2785857,0.0,-0.03127036,0.36877906,0.5512627,0.0,-0.047308926,0.72250557,0.40550813,0.0,0.13645315,0.65468633,0.27819756,0.0,-0.24056043,0.5092037,801.8315,829.6337,821.978,793.7729,716.8132,-0.36865234375,0.01910400390625,0.93035888671875,4.14215087890625,-4.65057373046875,0.889739990234375,1,1.0,4.0,1.0,1.0,40.00
2021-04-24 08:52:51.229,0.16838595,0.0,0.2960259,0.18243009,0.17582417,0.0,-0.16139798,0.1958208,0.5567627,0.0,0.12040693,0.6763867,0.38837713,0.0,-0.0053337715,0.61294615,0.21852058,0.0,-0.31152803,0.54736817,821.978,685.38464,809.0842,821.5751,989.59705,-0.3719482421875,0.01300048828125,0.926025390625,4.486083984375,-4.418792724609375,0.7476806640625,1,1.0,1.0,1.0,1.0,40.00
2021-04-24 08:52:51.738,0.19005181,0.0,0.14216407,-0.10631296,0.028766533,0.0,-0.23235571,0.043079443,0.48082873,0.0,0.033791516,0.44392157,0.3571989,0.0,-0.082328185,0.53753054,0.09906551,0.0,-0.34980094,0.55566436,766.3736,855.0183,810.696,745.42126,837.6923,-0.373046875,0.0135498046875,0.92852783203125,4.658050537109375,-4.62066650390625,1.0467529296875,1,1.0,4.0,1.0,1.0,40.00
2021-04-24 08:52:52.265,0.1814445,0.0,0.07151549,-0.37312645,0.078214645,0.0,-0.23239183,0.05198492,0.43331105,0.0,0.051175095,0.3627999,0.30736434,0.0,-0.08391654,0.5805859,0.08786388,0.0,-0.44825557,0.5830808,799.011,832.0513,809.0842,793.36993,713.5897,-0.3619384765625,0.011962890625,0.931640625,4.4561767578125,-5.495452880859375,0.785064697265625,1,1.0,4.0,1.0,1.0,40.00
2021-04-24 08:52:52.770,0.18760712,0.0,-0.03491791,-0.24867122,0.076334275,0.0,-0.3500983,0.17335053,0.09513327,0.0,0.012248275,0.20469496,0.23819911,0.0,-0.05422459,0.48199785,0.078892484,0.0,-0.50892395,0.58918357,823.9927,823.9927,800.6227,800.6227,820.3663,-0.365478515625,0.0146484375,0.92950439453125,4.867401123046875,-5.4132080078125,0.441131591796875,1,1.0,1.0,1.0,1.0,40.00
2021-04-24 08:52:53.289,0.7465447,0.0,0.35429838,-0.24867122,0.37696627,0.0,-0.04661464,0.17335053,0.6367973,0.0,0.1490451,0.20469496,0.48730707,0.0,0.027162367,0.48199785,0.29124588,0.0,-0.4046548,0.58918357,802.6374,872.3443,815.9341,798.20514,657.1795,-0.36944580078125,0.0103759765625,0.9302978515625,4.56085205078125,-4.478607177734375,1.428070068359375,1,1.0,4.0,1.0,1.0,40.00
2021-04-24 08:52:53.811,0.7614119,0.0,0.83130366,0.9208336,0.39137924,0.0,0.14956476,0.34214544,0.71269333,0.0,0.37668172,0.83030015,0.42123386,0.0,0.08326031,0.67054814,0.36606592,0.0,-0.34207997,0.6033598,811.50183,805.05493,798.60803,802.6374,770.80585,-0.37091064453125,0.00567626953125,0.923828125,4.1571044921875,-4.358978271484375,1.06170654296875,1,1.0,4.0,1.0,1.0,40.00
2021-04-24 08:52:54.329,0.7844635,0.0,1.0145396,0.91838545,0.5183549,0.0,0.32345903,0.3044051,0.79119456,0.0,0.4183279,0.8427342,0.46922803,0.0,0.07690819,0.6964565,0.31718168,0.0,-0.29341722,0.5640581,801.8315,848.1685,802.6374,803.8461,739.3773,-0.3822021484375,0.010009765625,0.926025390625,5.076751708984375,-6.9085693359375,1.45050048828125,1,1.0,1.0,1.0,1.0,40.00
2021-04-24 08:52:54.846,0.7940005,0.0,1.0158877,0.8476807,0.5792615,0.0,0.31113663,0.23544662,0.788134,0.0,0.4251051,0.8442622,0.47269347,0.0,0.054625623,0.6916479,0.3148054,0.0,-0.22475658,0.5856071,814.3223,812.3077,814.7253,814.3223,626.1539,-0.37139892578125,0.01226806640625,0.93011474609375,5.316009521484375,-4.18701171875,1.6748046875,1,1.0,1.0,1.0,1.0,40.00
2021-04-24 08:52:55.373,0.6988642,0.0,0.8609957,0.7444043,0.6732342,0.0,0.24183767,0.23080982,0.51778907,0.0,0.50448734,0.5549236,0.46815324,0.0,0.021294266,0.6710493,0.23419268,0.0,-0.21061365,0.5429859,827.619,782.8938,811.50183,812.71063,883.6264,-0.36328125,0.0108642578125,0.93255615234375,4.486083984375,-4.88983154296875,1.39068603515625,1,1.0,1.0,1.0,1.0,40.00
2021-04-24 08:52:55.877,0.35095727,0.0,0.82590514,0.6944415,0.70845103,0.0,0.16148879,0.48403463,0.75749207,0.0,0.55465496,0.59856147,0.45268968,0.0,0.06843314,0.7445268,0.19014497,0.0,-0.30677196,0.54443187,804.65204,864.2857,809.89014,780.4762,728.49817,-0.3685302734375,0.01470947265625,0.9266357421875,4.717864990234375,-5.2337646484375,1.36077880859375,1,1.0,1.0,1.0,1.0,40.00
2021-04-24 08:52:56.386,0.47947666,0.0,0.8972192,0.67675805,0.75170654,0.0,0.3960114,0.5040424,0.75749207,0.0,0.70769894,0.59856147,0.4524195,0.0,0.031469982,0.74716836,0.118840866,0.0,-0.42382067,0.5476399,784.10254,869.5238,826.4103,779.2674,695.8608,-0.3656005859375,0.00726318359375,0.9300537109375,4.747772216796875,-4.149627685546875,1.338348388671875,1,1.0,1.0,1.0,1.0,45.00
2021-04-24 08:52:56.895,0.67749125,0.0,0.936318,0.8426055,0.8656291,0.0,0.4992187,0.6811901,0.88009787,0.0,0.7027134,0.5434407,0.4707981,0.0,-0.01889956,0.83864546,0.08111261,0.0,-0.4945185,0.50764006,786.1172,784.90845,772.01465,774.0293,810.696,-0.3731689453125,0.01226806640625,0.92828369140625,4.702911376953125,-4.658050537109375,0.83740234375,1,1.0,4.0,1.0,1.0,45.00
2021-04-24 08:52:57.407,0.8654796,0.0,0.93754536,0.8678933,0.91955274,0.0,0.5784764,0.704042,0.80526406,0.0,0.68265545,0.40443838,0.41110122,0.0,-0.10234023,0.7757182,0.16554515,0.0,-0.42739424,0.52360606,720.4396,976.7033,718.8278,713.5897,654.35895,-0.381591796875,0.0140380859375,0.92767333984375,4.50103759765625,-3.611297607421875,1.1663818359375,1,1.0,4.0,1.0,1.0,45.00
2021-04-24 08:52:57.940,1.0145099,0.0,0.8051422,0.8678933,0.9771892,0.0,0.36520395,0.704042,0.7608029,0.0,0.31462124,0.40443838,0.3999242,0.0,-0.13349059,0.7757182,0.33711454,0.0,-0.3388227,0.52360606,770.40295,707.1429,761.53845,775.64105,955.7509,-0.3782958984375,0.0025634765625,0.92742919921875,5.24871826171875,-4.0374755859375,-0.16448974609375,1,1.0,1.0,1.0,1.0,45.00
2021-04-24 08:52:58.461,1.0769755,0.0,0.8450301,0.8678933,0.9963825,0.0,0.39891642,0.704042,0.69838226,0.0,0.20984493,0.40443838,0.43016565,0.0,-0.13436459,0.7757182,0.40882608,0.0,-0.3643816,0.52360606,799.81683,816.337,792.1612,790.54944,805.4579,-0.3809814453125,0.00537109375,0.927978515625,4.18701171875,-4.62066650390625,1.57012939453125,1,1.0,1.0,1.0,1.0,45.00
2021-04-24 08:52:58.986,1.0769755,0.0,0.8450301,0.8678933,0.9963825,0.0,0.39891642,0.704042,0.69838226,0.0,0.20984493,0.40443838,0.43016565,0.0,-0.13436459,0.7757182,0.40882608,0.0,-0.3643816,0.52360606,786.1172,861.06226,767.1795,766.3736,711.1722,-0.38720703125,-3.662109375E-4,0.92315673828125,4.553375244140625,-3.529052734375,1.772003173828125,1,1.0,1.0,1.0,1.0,45.00
2021-04-24 08:52:59.501,1.0769755,0.0,0.8450301,0.8678933,0.9963825,0.0,0.39891642,0.704042,0.69838226,0.0,0.20984493,0.40443838,0.43016565,0.0,-0.13436459,0.7757182,0.40882608,0.0,-0.3643816,0.52360606,829.6337,810.293,817.1429,822.381,786.1172,-0.3914794921875,-0.00128173828125,0.92083740234375,4.26177978515625,-4.568328857421875,1.016845703125,1,1.0,4.0,1.0,1.0,45.00
2021-04-24 08:53:00.004,1.0769755,0.0,1.044415,0.8678933,0.9963825,0.0,0.74353844,0.704042,0.69838226,0.0,0.6208666,0.40443838,0.43016565,0.0,0.30480814,0.7757182,0.40882608,0.0,-0.36462778,0.52360606,789.34064,880.40295,799.41394,786.52014,735.34796,-0.397216796875,-0.00115966796875,0.91595458984375,4.8748779296875,-4.50103759765625,0.979461669921875,1,2.0,4.0,1.0,2.0,45.00
2021-04-24 08:53:00.512,1.0917569,0.0,1.1009061,1.1708876,0.8473186,0.0,0.8554665,0.92531484,0.66714525,0.0,0.6406345,1.0430152,0.45328745,0.0,0.36477736,0.63737553,0.22580305,0.0,-0.35161623,0.45037475,816.337,745.82416,827.2161,822.381,1120.9524,-0.39764404296875,0.00482177734375,0.91827392578125,5.4730224609375,-4.29168701171875,1.936492919921875,1,1.0,4.0,1.0,1.0,45.00
2021-04-24 08:53:01.028,1.0535723,0.0,1.1385957,1.2145381,0.78096914,0.0,0.7707869,1.0317397,0.62450314,0.0,0.58365756,0.91083103,0.4876757,0.0,0.28846064,0.6916438,0.23298275,0.0,-0.25071472,0.48682085,836.08057,794.17584,828.4249,825.6044,814.7253,-0.422607421875,0.05377197265625,0.92608642578125,13.38348388671875,-1.435546875,8.725433349609375,1,1.0,4.0,1.0,1.0,45.00
2021-04-24 08:53:01.555,0.9514357,0.0,0.9545575,0.9392086,0.70066655,0.0,0.5493001,0.7531339,0.62450314,0.0,0.49278095,0.7910794,0.46646953,0.0,0.19044702,0.7424355,0.2236989,0.0,-0.21307978,0.41978753,834.4689,857.8388,838.9011,803.8461,730.5128,-0.42449951171875,0.06524658203125,0.8892822265625,17.39105224609375,-1.68975830078125,11.327362060546875,1,1.0,1.0,1.0,1.0,45.00
2021-04-24 08:53:02.064,0.8220122,0.0,0.89467466,0.5619336,0.5778747,0.0,0.3319127,0.49550533,0.60563344,0.0,0.45726705,0.34829876,0.47580865,0.0,0.16311224,0.77410203,0.22200224,0.0,-0.22592789,0.41219753,821.1722,870.32965,835.2747,823.1868,723.663,-0.43438720703125,0.07916259765625,0.90411376953125,-5.959014892578125,-7.117919921875,-11.731109619140625,1,1.0,4.0,1.0,1.0,45.00
2021-04-24 08:53:02.592,0.64496595,0.0,0.6207663,0.5384763,0.46122536,0.0,0.20940669,0.4419313,0.2417589,0.0,0.4175987,0.29605517,0.4429585,0.0,0.13309035,0.770741,0.23007274,0.0,-0.2784804,0.41999185,827.2161,803.8461,810.696,813.5165,782.49084,-0.43658447265625,0.06591796875,0.9029541015625,0.11962890625,-4.62066650390625,-2.100982666015625,1,1.0,1.0,1.0,1.0,45.00
2021-04-24 08:53:03.099,0.36167112,0.0,0.75568885,0.34283364,0.012504611,0.0,0.059760835,0.12535465,0.050847575,0.0,0.2735288,0.042310312,0.4847237,0.0,0.07382264,0.7679542,0.27387613,0.0,-0.3533263,0.49790007,794.9817,874.7619,809.4872,786.9231,700.293,-0.41748046875,0.0452880859375,0.91064453125,7.37213134765625,-4.568328857421875,6.1309814453125,1,1.0,1.0,1.0,1.0,45.00
2021-04-24 08:53:03.606,0.36167112,0.0,0.77921677,0.34283364,0.012504611,0.0,0.13959982,0.12535465,0.050847575,0.0,0.2507495,0.042310312,0.4847237,0.0,-0.030250903,0.7679542,0.27387613,0.0,-0.31137714,0.49790007,813.1135,768.3883,800.2198,799.41394,808.68134,-0.43212890625,0.04376220703125,0.9111328125,7.648773193359375,-3.955230712890625,4.792633056640625,1,1.0,1.0,1.0,1.0,45.00
2021-04-24 08:53:04.136,0.36167112,0.0,0.9788967,0.34283364,0.012504611,0.0,0.23761578,0.12535465,0.050847575,0.0,0.21085936,0.042310312,0.4847237,0.0,-0.04534769,0.7679542,0.27387613,0.0,-0.3135422,0.49790007,805.8608,863.8828,832.0513,811.9048,760.7326,-0.41912841796875,0.02691650390625,0.9130859375,3.865509033203125,-4.852447509765625,0.64300537109375,1,1.0,1.0,1.0,1.0,45.00
2021-04-24 08:53:04.660,0.80294126,0.0,1.0066825,0.34283364,0.32147044,0.0,0.23265775,0.12535465,0.51653695,0.0,0.16458213,0.042310312,0.5737623,0.0,-0.053250503,0.7679542,0.09519671,0.0,-0.31219107,0.49790007,825.6044,858.6447,837.28937,815.12823,732.9304,-0.41748046875,0.02618408203125,0.906494140625,4.68048095703125,-4.702911376953125,1.1663818359375,1,1.0,1.0,1.0,1.0,45.00
2021-04-24 08:53:05.171,0.7947365,0.0,1.0842766,0.997884,0.45473632,0.0,0.3281487,0.66472703,0.39675754,0.0,0.25687698,0.6015842,0.5074089,0.0,0.05674863,0.56677014,0.15508632,0.0,-0.27895895,0.33420348,824.3956,754.68866,812.71063,826.4103,914.2491,-0.4169921875,0.02557373046875,0.91021728515625,4.358978271484375,-5.226287841796875,1.383209228515625,1,1.0,1.0,1.0,1.0,45.00
2021-04-24 08:53:05.683,0.7540983,0.0,1.0479313,0.8843007,0.5554859,0.0,0.2752045,0.5591638,0.40033045,0.0,0.20423403,0.3688038,0.4740891,0.0,0.05353495,0.56554437,0.104508094,0.0,-0.33337554,0.22767317,817.1429,870.32965,826.0073,817.9487,711.978,-0.4180908203125,0.02337646484375,0.910400390625,4.7552490234375,-4.8748779296875,1.435546875,1,1.0,1.0,1.0,1.0,45.00
2021-04-24 08:53:06.206,0.6790833,0.0,0.94147867,0.81279606,0.50103307,0.0,0.2389746,0.4806917,0.36773023,0.0,0.2842105,0.36803412,0.4225046,0.0,0.010643784,0.5529481,0.019927382,0.0,-0.3202155,0.20995663,785.7143,803.0403,819.5604,761.13556,816.337,-0.4058837890625,0.0191650390625,0.915283203125,4.53094482421875,-6.1309814453125,0.919647216796875,1,1.0,1.0,1.0,1.0,45.00
2021-04-24 08:53:06.731,0.6603773,0.0,0.82759035,0.50594306,0.470875,0.0,0.03904035,0.20290221,0.36773023,0.0,0.2574451,0.24254099,0.43880075,0.0,-0.0018073014,0.5571424,-0.0019028065,0.0,-0.37558913,0.15741242,808.2784,836.8865,830.4396,812.71063,734.94507,-0.37939453125,0.0267333984375,0.92889404296875,5.81695556640625,-9.263763427734375,2.968292236328125,1,1.0,1.0,1.0,1.0,45.00
2021-04-24 08:53:07.258,0.27525914,0.0,0.73124933,0.25480816,0.21838216,0.0,0.071750194,0.13790038,0.037436202,0.0,0.4008423,-0.10605465,0.3747723,0.0,0.122317515,0.51263213,-0.029618558,0.0,-0.21100633,0.115092255,824.7985,868.71796,813.91943,810.696,800.2198,-0.3939208984375,0.04681396484375,0.92071533203125,7.005767822265625,-4.508514404296875,4.149627685546875,1,1.0,1.0,1.0,1.0,45.00
2021-04-24 08:53:07.785,0.27525914,0.0,0.8231266,0.25480816,0.21838216,0.0,-0.013696361,0.13790038,0.037436202,0.0,0.38458824,-0.10605465,0.3747723,0.0,0.13272847,0.51263213,-0.029618558,0.0,-0.2109795,0.115092255,802.23444,790.54944,820.7692,803.0403,729.304,-0.40521240234375,0.0289306640625,0.91925048828125,3.529052734375,-4.448699951171875,-2.093505859375,1,1.0,1.0,1.0,1.0,45.00
2021-04-24 08:53:08.295,0.27525914,0.0,0.78193396,0.25480816,0.21838216,0.0,0.041634683,0.13790038,0.037436202,0.0,0.28895128,-0.10605465,0.3747723,0.0,0.04625936,0.51263213,-0.029618558,0.0,-0.21698043,0.115092255,818.3516,867.1062,825.6044,806.26373,711.1722,-0.40582275390625,0.03204345703125,0.91162109375,5.45806884765625,-5.360870361328125,1.36077880859375,1,1.0,1.0,1.0,1.0,45.00
2021-04-24 08:53:08.806,0.27525914,0.0,0.72488487,0.9850811,0.21838216,0.0,0.15474956,0.6273718,0.037436202,0.0,0.31870466,0.5282272,0.3747723,0.0,-0.09173311,0.5829348,-0.029618558,0.0,-0.3869497,0.35296702,817.1429,822.381,813.91943,812.3077,730.10986,-0.4205322265625,0.03076171875,0.90850830078125,3.865509033203125,-7.439422607421875,0.171966552734375,1,1.0,1.0,1.0,1.0,45.00
2021-04-24 08:53:09.324,0.5669041,0.0,0.6589744,0.91646177,0.31459048,0.0,0.2636262,0.6472447,0.34399673,0.0,0.27343127,0.64050126,0.40951616,0.0,-0.07353871,0.4935139,0.0710617,0.0,-0.41338086,0.39643216,816.337,716.8132,811.9048,819.9634,982.3443,-0.3956298828125,0.0281982421875,0.91912841796875,4.20196533203125,-6.213226318359375,1.772003173828125,1,1.0,1.0,1.0,1.0,45.00
2021-04-24 08:53:09.841,0.45217988,0.0,0.5778036,0.7661508,0.14346823,0.0,0.3071397,0.5636558,0.38760227,0.0,0.29615507,0.60071564,0.43005773,0.0,-0.13342623,0.5215949,0.05459991,0.0,-0.39906374,0.33816004,799.41394,884.43225,809.0842,788.5348,711.5751,-0.38787841796875,0.02294921875,0.9210205078125,4.508514404296875,-5.345916748046875,1.128997802734375,1,1.0,1.0,1.0,1.0,45.00
2021-04-24 08:53:10.353,0.33786723,0.0,0.4662599,0.44942367,0.08986069,0.0,0.21126525,0.40936077,0.46568847,0.0,0.04998568,0.6054962,0.44277036,0.0,-0.14056894,0.49554092,0.074818,0.0,-0.40293327,0.29273212,807.0696,736.1539,809.89014,801.4286,837.6923,-0.396240234375,0.0220947265625,0.91943359375,4.792633056640625,-5.2337646484375,1.495361328125,1,1.0,1.0,1.0,1.0,45.00
2021-04-24 08:53:10.867,0.47186047,0.0,0.59560305,0.22231087,0.15269703,0.0,0.17014128,0.25077638,0.48542693,0.0,0.1350235,0.52553004,0.40841126,0.0,-0.1646168,0.55086815,0.09185756,0.0,-0.38361216,0.18404922,798.60803,816.7399,809.0842,793.36993,740.18317,-0.3857421875,0.02764892578125,0.9267578125,4.029998779296875,-4.762725830078125,1.876678466796875,1,1.0,1.0,1.0,1.0,45.00
2021-04-24 08:53:11.369,0.50762254,0.0,0.516016,0.21119903,0.18219204,0.0,0.03206706,0.11295918,0.40975142,0.0,0.17028397,0.30863532,0.35957065,0.0,-0.041739162,0.5008578,0.12347779,0.0,-0.41622007,0.30004236,776.8498,844.5421,815.12823,775.64105,673.2967,-0.3824462890625,0.02490234375,0.92449951171875,4.4561767578125,-4.2169189453125,1.31591796875,1,1.0,1.0,1.0,1.0,45.00
2021-04-24 08:53:11.878,0.67102814,0.0,0.6491566,0.37837067,0.27995962,0.0,0.13100062,0.057911165,0.33759734,0.0,0.09511009,0.26052928,0.2756846,0.0,0.11203657,0.5301768,0.13012123,0.0,-0.33634174,0.41664934,819.15753,720.4396,807.47253,813.91943,928.7546,-0.38818359375,0.02069091796875,0.91729736328125,4.77020263671875,-4.71038818359375,0.82244873046875,1,1.0,1.0,1.0,1.0,45.00
2021-04-24 08:53:12.383,0.5283814,0.0,0.5175066,0.42034405,-0.028616788,0.0,0.1612951,0.06467784,0.15718196,0.0,0.05450948,0.26052928,0.2772058,0.0,0.1388752,0.5376009,0.13530186,0.0,-0.28130555,0.46404576,815.9341,819.5604,813.5165,811.9048,994.83514,-0.3951416015625,0.02374267578125,0.9188232421875,4.68048095703125,-3.416900634765625,1.128997802734375,1,1.0,1.0,1.0,1.0,45.00
2021-04-24 08:53:12.890,0.5283814,0.0,0.5215513,0.59844464,-0.028616788,0.0,0.18107472,0.26412532,0.15718196,0.0,0.042081624,0.48221406,0.2772058,0.0,0.107018,0.4595788,0.13530186,0.0,-0.30572304,0.50116783,815.9341,857.4359,814.7253,802.6374,654.35895,-0.39630126953125,0.02154541015625,0.92047119140625,4.8150634765625,-4.26177978515625,1.487884521484375,1,1.0,1.0,1.0,1.0,45.00
2021-04-24 08:53:13.401,0.5283814,0.0,0.22308184,0.59844464,-0.028616788,0.0,0.06541012,0.26412532,0.15718196,0.0,0.104801275,0.48221406,0.2772058,0.0,0.012848719,0.4595788,0.13530186,0.0,-0.35845795,0.50116783,817.1429,831.6484,818.3516,797.8022,753.8828,-0.398193359375,0.02496337890625,0.91851806640625,4.553375244140625,-4.538421630859375,1.457977294921875,1,1.0,1.0,1.0,1.0,45.00
2021-04-24 08:53:13.919,0.5283814,0.0,0.067541346,0.59844464,-0.028616788,0.0,-0.081024475,0.26412532,0.15718196,0.0,0.09408815,0.48221406,0.2772058,0.0,0.067869976,0.4595788,0.13530186,0.0,-0.43322888,0.50116783,805.8608,799.81683,798.20514,782.8938,815.9341,-0.39593505859375,0.02069091796875,0.91839599609375,4.134674072265625,-4.987030029296875,1.532745361328125,1,1.0,1.0,1.0,1.0,45.00
2021-04-24 08:53:14.422,0.5283814,0.0,0.12656681,0.59844464,-0.028616788,0.0,-0.1391316,0.26412532,0.15718196,0.0,0.13649608,0.48221406,0.2772058,0.0,0.07597904,0.4595788,0.13530186,0.0,-0.30609855,0.50116783,805.05493,805.8608,816.7399,801.8315,784.10254,-0.39935302734375,0.02056884765625,0.92059326171875,4.792633056640625,-4.822540283203125,2.429962158203125,1,1.0,1.0,1.0,1.0,45.00
2021-04-24 08:53:14.957,0.037207995,0.0,0.124949925,0.6088692,0.22217831,0.0,-0.19834009,0.32161954,0.36823907,0.0,0.14134328,0.5543469,0.45309702,0.0,0.06953686,0.66807395,0.22323526,0.0,-0.2888013,-0.033534676,806.6667,801.02563,817.1429,811.0989,798.60803,-0.4000244140625,0.0174560546875,0.9149169921875,4.912261962890625,-4.90478515625,0.9869384765625,1,1.0,1.0,1.0,1.0,45.00
2021-04-24 08:53:15.471,0.06530118,0.0,-0.03338681,0.49143398,0.20026894,0.0,-0.08834606,0.35842225,0.4473764,0.0,0.13653459,0.5743186,0.43831754,0.0,-0.064451575,0.56885487,0.11940887,0.0,-0.2629269,0.053518184,805.05493,793.36993,814.7253,810.293,718.022,-0.39532470703125,0.02130126953125,0.92205810546875,5.084228515625,-5.5926513671875,1.009368896484375,1,1.0,1.0,1.0,1.0,45.00
2021-04-24 08:53:15.989,0.029858474,0.0,-0.082642496,0.31365612,0.043541625,0.0,-0.064607896,0.21672823,0.30705577,0.0,0.11436591,0.43861654,0.39779875,0.0,-0.06308926,0.46214575,0.18758708,0.0,-0.3262707,0.1935699,817.5458,765.16486,810.696,809.4872,809.4872,-0.40985107421875,0.01507568359375,0.9127197265625,4.5159912109375,-4.224395751953125,0.35888671875,1,1.0,1.0,1.0,1.0,45.00
2021-04-24 08:53:16.515,-0.025711032,0.0,-0.018143037,0.16009691,0.08848297,0.0,-0.12434366,0.18788393,0.29097912,0.0,0.12524985,0.45298934,0.33536193,0.0,-0.0545749,0.4699776,0.21558985,0.0,-0.2828851,0.38174662,801.02563,806.26373,813.1135,804.65204,825.6044,-0.40570068359375,0.017333984375,0.910888671875,4.725341796875,-4.246826171875,0.127105712890625,1,1.0,1.0,1.0,1.0,45.00
2021-04-24 08:53:17.020,-0.06945652,0.0,0.21001533,0.08917441,0.18604259,0.0,-0.41945985,-0.013276276,0.4085373,0.0,0.10737233,0.53126097,0.3539594,0.0,-0.10199351,0.589901,0.28761953,0.0,-0.33728212,0.510782,802.23444,853.4066,808.2784,791.75824,724.4689,-0.42950439453125,0.0455322265625,0.92724609375,5.8319091796875,0.478515625,5.809478759765625,1,1.0,4.0,1.0,1.0,45.00
2021-04-24 08:53:17.528,-0.028362973,0.0,0.3271548,0.10943388,0.27208564,0.0,-0.4307675,-0.06594407,0.44830835,0.0,0.054190315,0.45240563,0.36741763,0.0,-0.13068612,0.6081135,0.28887898,0.0,-0.39157757,0.54089683,790.54944,816.337,801.02563,777.25275,660.40295,-0.33856201171875,0.01446533203125,0.94085693359375,11.97784423828125,-8.23944091796875,3.2000732421875,1,1.0,4.0,1.0,1.0,45.00
2021-04-24 08:53:18.038,0.117658846,0.0,0.51828426,0.18199036,0.3573797,0.0,0.06725119,0.018964352,0.4446417,0.0,0.29596823,0.45240563,0.46271423,0.0,-0.0721591,0.6448291,0.26512107,0.0,-0.26493567,0.49424028,811.50183,841.7216,810.293,815.5311,718.4249,-0.31195068359375,0.128662109375,0.9500732421875,9.099273681640625,4.433746337890625,2.699127197265625,1,1.0,1.0,1.0,1.0,45.00
2021-04-24 08:53:18.547,0.18721849,0.0,0.6000898,0.247402,0.31533933,0.0,0.15866852,-0.08162873,0.4446417,0.0,0.26993775,0.23286249,0.42617714,0.0,0.009915206,0.5492264,0.36316848,0.0,-0.14869766,0.42029354,821.5751,838.9011,816.337,814.7253,734.5421,-0.403564453125,0.0205078125,0.90234375,-1.697235107421875,0.351409912109375,-11.84326171875,1,1.0,4.0,1.0,1.0,45.00
2021-04-24 08:53:19.049,0.18721849,0.0,0.5498603,0.60098416,0.31533933,0.0,0.11929211,0.17398334,0.4446417,0.0,0.2764118,0.4068689,0.42617714,0.0,0.040559538,0.69434196,0.36316848,0.0,-0.06648307,0.54505795,825.2015,679.34064,797.3993,812.71063,1027.4725,-0.43292236328125,0.0352783203125,0.90301513671875,3.66363525390625,-4.882354736328125,4.17205810546875,1,1.0,1.0,1.0,1.0,45.00
2021-04-24 08:53:19.566,0.7052059,0.0,0.30294436,0.6560093,0.14197922,0.0,-0.24346973,0.35069752,0.16932702,0.0,0.052812643,0.5806117,0.23625585,0.0,6.921097E-4,0.5675912,0.29067916,0.0,-0.15395418,0.45277488,806.6667,842.52747,805.8608,806.26373,792.1612,-0.42926025390625,0.0115966796875,0.9095458984375,4.20196533203125,-5.854339599609375,2.235565185546875,1,1.0,1.0,1.0,1.0,45.00
2021-04-24 08:53:20.078,0.74875826,0.0,-0.029373694,0.67736757,0.3911205,0.0,-0.29343638,0.4157355,0.50684017,0.0,-0.10206114,0.63393414,0.33372176,0.0,-0.031857897,0.5240855,0.13347135,0.0,-0.20239139,0.36805156,809.89014,830.4396,821.1722,811.9048,707.9487,-0.41082763671875,0.00701904296875,0.9124755859375,4.299163818359375,-5.465545654296875,2.04864501953125,1,1.0,1.0,1.0,1.0,45.00
2021-04-24 08:53:20.580,0.6443681,0.0,0.24899204,0.64139056,0.27117133,0.0,-0.05448141,0.43413803,0.58307564,0.0,0.0969801,0.612365,0.33722743,0.0,-0.043309733,0.4381226,0.17271692,0.0,-0.29031155,0.27386737,816.7399,823.1868,807.0696,801.4286,788.1319,-0.4136962890625,0.0135498046875,0.91058349609375,4.6356201171875,-5.360870361328125,1.293487548828125,1,1.0,1.0,1.0,1.0,45.00
2021-04-24 08:53:21.088,0.4678281,0.0,0.30203277,0.59153146,0.25515455,0.0,0.06798245,0.3721023,0.629164,0.0,0.35264322,0.535652,0.37766552,0.0,-0.02731738,0.42664203,0.13846172,0.0,-0.21966171,0.2440675,801.02563,851.39197,809.0842,797.3993,697.47253,-0.4176025390625,0.00299072265625,0.90771484375,4.807586669921875,-1.368255615234375,-2.355194091796875,1,1.0,1.0,1.0,1.0,45.00
2021-04-24 08:53:21.611,0.28671208,0.0,0.277773,0.4728865,0.101972446,0.0,0.038059518,0.20730303,0.45845383,0.0,0.3660321,0.41388497,0.3524429,0.0,0.055016544,0.43313855,0.24491741,0.0,-0.06316978,0.40229064,805.4579,823.5897,814.3223,821.978,821.5751,-0.42584228515625,0.0234375,0.90411376953125,4.538421630859375,-5.203857421875,3.75335693359375,1,1.0,1.0,1.0,1.0,45.00
2021-04-24 08:53:22.123,0.24952416,0.0,-0.07122938,0.7804134,0.17550218,0.0,-0.14970466,0.19800319,0.39261082,0.0,0.34829545,0.44948205,0.35686213,0.0,0.06050078,0.4060215,0.2495522,0.0,-0.05972268,0.46432897,768.7912,839.707,824.7985,767.5824,773.6264,-0.41668701171875,0.0218505859375,0.909912109375,4.897308349609375,-4.972076416015625,1.24114990234375,1,1.0,1.0,1.0,1.0,45.00
2021-04-24 08:53:22.652,0.48163605,0.0,0.41990066,0.86209095,0.23451068,0.0,0.017838094,0.17259991,0.27916443,0.0,0.5633315,0.40643927,0.32206932,0.0,0.05910221,0.41182655,0.30782956,0.0,-0.1488366,0.5323288,794.57874,888.86444,807.0696,791.3553,692.23444,-0.44549560546875,0.01287841796875,0.90313720703125,3.970184326171875,-2.639312744140625,5.42816162109375,1,1.0,1.0,1.0,1.0,45.00
2021-04-24 08:53:23.177,0.5504422,0.0,0.7709536,1.0860121,0.2679426,0.0,0.22712798,0.29022828,0.26645464,0.0,0.59100944,0.3007359,0.3532361,0.0,0.04702727,0.36792246,0.30608255,0.0,-0.4718777,0.4873389,819.5604,702.3077,797.3993,829.6337,962.6007,-0.4248046875,0.0189208984375,0.9080810546875,4.4561767578125,-5.973968505859375,-0.545806884765625,1,1.0,1.0,1.0,1.0,45.00
2021-04-24 08:53:23.698,0.5504422,0.0,0.8091514,1.1387043,0.2679426,0.0,0.3784771,0.3065564,0.26645464,0.0,0.6089773,0.28048423,0.3532361,0.0,0.028489226,0.36206335,0.30608255,0.0,-0.42540509,0.47758764,805.8608,851.39197,810.293,811.0989,869.12085,-0.41400146484375,0.016357421875,0.908935546875,4.47113037109375,-4.6356201171875,1.353302001953125,1,1.0,1.0,1.0,1.0,45.00
2021-04-24 08:53:24.206,0.48801467,0.0,0.65770996,0.51518255,0.109817214,0.0,0.30883154,0.33042243,0.5185184,0.0,0.58838284,0.6503702,0.5568673,0.0,-0.014152084,0.58343226,0.023192573,0.0,-0.3360587,0.224469,818.7546,866.7033,817.9487,807.0696,700.293,-0.4197998046875,0.0155029296875,0.90496826171875,4.673004150390625,-5.345916748046875,0.6280517578125,1,1.0,1.0,1.0,1.0,45.00
2021-04-24 08:53:24.739,0.86863357,0.0,0.07946201,0.83010465,0.23409225,0.0,0.1399222,0.41431534,0.5455459,0.0,0.517047,0.6752117,0.46083957,0.0,-0.03227521,0.5929451,0.038449306,0.0,-0.28047305,0.23418996,810.696,858.6447,811.0989,803.0403,680.54944,-0.41876220703125,0.016357421875,0.9046630859375,4.44122314453125,-4.358978271484375,1.4056396484375,1,1.0,1.0,1.0,1.0,45.00
2021-04-24 08:53:25.265,0.8372749,0.0,0.2579103,0.8058569,0.18354003,0.0,-0.02413566,0.49822125,0.5315797,0.0,0.47537956,0.6717763,0.41933554,0.0,-0.078454666,0.5796327,0.13958317,0.0,-0.35173506,0.28503183,778.46155,827.2161,769.19415,779.67035,747.8388,-0.42401123046875,0.009765625,0.9058837890625,4.164581298828125,-5.360870361328125,1.24114990234375,1,1.0,1.0,1.0,1.0,45.00
2021-04-24 08:53:25.766,0.95051616,0.0,0.8300801,0.9032245,0.18662755,0.0,0.025059583,0.5109677,0.3371132,0.0,0.31254265,0.516988,0.30580083,0.0,0.011132106,0.56820357,0.21098652,0.0,-0.47128037,0.34093916,720.0366,861.8681,758.315,708.3516,712.381,-0.4248046875,0.01568603515625,0.9046630859375,4.403839111328125,-4.344024658203125,1.218719482421875,1,1.0,1.0,1.0,1.0,45.00
2021-04-24 08:53:26.275,0.751336,0.0,0.96315634,0.59805304,-0.062045906,0.0,0.21836245,0.5349239,-0.1437248,0.0,0.37973058,0.34136185,0.3058166,0.0,0.05791988,0.5278819,0.3092957,0.0,-0.49644434,0.40011278,793.7729,822.381,784.10254,786.52014,769.59705,-0.4302978515625,0.01043701171875,0.90252685546875,5.435638427734375,-5.443115234375,0.9869384765625,1,1.0,1.0,1.0,1.0,45.00
2021-04-24 08:53:26.778,0.751336,0.0,1.06913,0.59805304,-0.062045906,0.0,0.3138214,0.5349239,-0.1437248,0.0,0.3357822,0.34136185,0.3058166,0.0,0.107016265,0.5278819,0.3092957,0.0,-0.42008084,0.40011278,825.6044,782.8938,806.26373,823.1868,824.3956,-0.434326171875,0.01153564453125,0.90679931640625,4.762725830078125,-4.62066650390625,0.829925537109375,1,1.0,1.0,1.0,1.0,45.00
2021-04-24 08:53:27.279,0.751336,0.0,1.0507176,0.59805304,-0.062045906,0.0,0.2908243,0.5349239,-0.1437248,0.0,0.32748654,0.34136185,0.3058166,0.0,0.0574491,0.5278819,0.3092957,0.0,-0.36736542,0.40011278,808.2784,830.84247,811.50183,795.38464,649.5238,-0.43621826171875,0.01397705078125,0.89794921875,4.568328857421875,-3.985137939453125,1.79443359375,1,1.0,1.0,1.0,1.0,70.00
2021-04-24 08:53:27.786,0.14391638,0.0,0.9435032,0.59805304,0.08496241,0.0,0.17294365,0.5349239,0.464352,0.0,0.397047,0.34136185,0.37760606,0.0,0.05180038,0.5278819,-0.19785525,0.0,-0.37098473,0.40011278,825.2015,782.49084,819.5604,827.2161,792.5641,-0.43646240234375,0.0174560546875,0.89971923828125,4.8748779296875,-5.301055908203125,2.190704345703125,1,1.0,1.0,1.0,1.0,70.00
2021-04-24 08:53:28.297,-0.01170284,0.0,0.71753573,-0.03219581,0.15648246,0.0,0.0010614672,0.2237837,0.4825068,0.0,0.39941978,0.4169672,0.36701575,0.0,0.027951939,0.70261425,-0.0863601,0.0,-0.4292739,0.30740657,807.8755,844.1392,817.1429,801.8315,792.1612,-0.43768310546875,0.02215576171875,0.8997802734375,4.807586669921875,-4.29168701171875,1.51031494140625,1,1.0,1.0,1.0,1.0,70.00
2021-04-24 08:53:28.798,0.15169305,0.0,0.08596699,0.28855112,0.19571938,0.0,-0.006941412,0.2868473,0.5495363,0.0,0.3108571,0.5412033,0.3675278,0.0,0.025951363,0.6495643,0.025671167,0.0,-0.41720375,0.28597927,809.0842,834.0659,814.3223,811.9048,737.3626,-0.43817138671875,0.01776123046875,0.901123046875,4.71038818359375,-4.8150634765625,0.964508056640625,1,1.0,1.0,1.0,1.0,70.00
2021-04-24 08:53:29.309,0.20173189,0.0,0.08035353,0.40785295,0.3180854,0.0,0.027410764,0.33625185,0.71637505,0.0,0.20228578,0.6253219,0.33763266,0.0,-0.08657823,0.5886812,0.14088279,0.0,-0.39063907,0.31290433,811.50183,799.41394,817.5458,811.50183,794.57874,-0.4366455078125,0.0244140625,0.90399169921875,4.3365478515625,-5.87677001953125,2.8411865234375,1,1.0,1.0,1.0,1.0,70.00
2021-04-24 08:53:29.836,0.30106282,0.0,0.1225378,0.47602773,0.36166602,0.0,0.10686194,0.2716808,0.7427253,0.0,0.060386892,0.5910292,0.34461665,0.0,-0.118823946,0.5129121,0.12879835,0.0,-0.28337845,0.28482595,809.0842,837.6923,819.9634,791.75824,723.663,-0.43011474609375,0.02099609375,0.90545654296875,4.56085205078125,-4.598236083984375,1.861724853515625,1,1.0,1.0,1.0,1.0,70.00
2021-04-24 08:53:30.338,0.13279608,0.0,0.15150233,0.3245618,0.2713754,0.0,0.08879729,0.07934047,0.7430998,0.0,0.17272115,0.57727,0.3881207,0.0,-0.16642027,0.54108375,0.053787842,0.0,-0.24265006,0.28850424,804.65204,858.24176,821.1722,800.6227,630.989,-0.42828369140625,0.01495361328125,0.904296875,4.38140869140625,-4.77020263671875,1.248626708984375,1,1.0,1.0,1.0,1.0,70.00
2021-04-24 08:53:30.855,0.1479652,0.0,0.19448355,0.19678316,0.26301312,0.0,0.065617085,0.020186761,0.7222899,0.0,0.19272485,0.52528876,0.40625238,0.0,-0.17177188,0.57628113,-0.016576255,0.0,-0.23541988,0.197771,802.6374,784.10254,828.022,803.8461,784.10254,-0.42987060546875,0.0169677734375,0.905029296875,4.5458984375,-5.884246826171875,0.7476806640625,1,1.0,1.0,1.0,1.0,70.00
2021-04-24 08:53:31.380,0.05992162,0.0,0.3193811,0.12331756,0.22823063,0.0,-0.094311304,0.073245555,0.6182411,0.0,0.1866641,0.45419416,0.4159758,0.0,-0.15235437,0.58270776,0.06616511,0.0,-0.27862188,0.13279301,806.6667,848.97437,815.9341,800.2198,782.8938,-0.4320068359375,0.0084228515625,0.9034423828125,4.344024658203125,-4.209442138671875,1.054229736328125,1,1.0,1.0,1.0,1.0,70.00
2021-04-24 08:53:31.884,0.09547434,0.0,0.43163913,0.070833616,0.25901625,0.0,-0.18151793,0.12593724,0.53947407,0.0,0.097829856,0.35075364,0.2853687,0.0,-0.1376492,0.5298769,0.06968524,0.0,-0.38466343,0.013415593,794.9817,821.1722,814.3223,797.3993,705.12823,-0.430419921875,0.01123046875,0.90472412109375,4.717864990234375,-4.5758056640625,1.084136962890625,1,1.0,1.0,1.0,1.0,70.00
2021-04-24 08:53:32.394,0.07267634,0.0,0.35253245,0.11979508,0.20113786,0.0,-0.28501084,0.15099074,0.34544715,0.0,0.14943108,0.31046975,0.239661,0.0,-0.12292628,0.5156943,0.06663806,0.0,-0.39931357,-0.026016647,793.36993,676.9231,807.8755,806.6667,1183.0037,-0.4219970703125,0.01129150390625,0.904296875,4.732818603515625,-4.88983154296875,0.441131591796875,1,1.0,1.0,1.0,1.0,70.00
2021-04-24 08:53:32.912,0.11119296,0.0,0.23106956,0.10036406,0.14698917,0.0,-0.030680073,0.077580966,0.2425429,0.0,0.14778902,0.299393,0.08927315,0.0,-0.07717143,0.4852543,-0.018369716,0.0,-0.45231444,-0.10198979,793.7729,809.0842,821.978,804.65204,891.28204,-0.426513671875,0.01397705078125,0.9031982421875,4.837493896484375,-5.36834716796875,1.0467529296875,1,1.0,1.0,1.0,1.0,70.00
2021-04-24 08:53:33.413,0.2495361,0.0,0.31941345,0.08995159,0.1514559,0.0,0.033712223,0.07372194,0.2448533,0.0,0.19873567,0.2854817,0.122090794,0.0,-0.09918782,0.5698933,-0.0121309925,0.0,-0.39026603,-0.10514198,801.02563,834.4689,798.20514,787.326,786.1172,-0.42449951171875,0.01123046875,0.903564453125,4.6954345703125,-4.344024658203125,1.016845703125,1,1.0,1.0,1.0,1.0,70.00
2021-04-24 08:53:33.928,0.4501228,0.0,0.832449,0.67334926,0.075703196,0.0,0.1003843,0.25349396,0.2847367,0.0,0.4547902,0.54105663,0.40376827,0.0,0.0792825,0.5053863,0.05893105,0.0,-0.38351044,0.20822492,814.7253,815.12823,804.2491,798.60803,744.21246,-0.4188232421875,0.01214599609375,0.90557861328125,4.687957763671875,-3.970184326171875,1.697235107421875,1,1.0,1.0,1.0,1.0,70.00
2021-04-24 08:53:34.457,0.556009,0.0,0.857447,0.57388604,0.27091017,0.0,0.04690632,0.22854787,0.5006088,0.0,0.46150255,0.5797925,0.37904596,0.0,0.10900247,0.50829005,0.046903588,0.0,-0.38350382,0.22752796,811.9048,865.89746,808.68134,801.4286,757.9121,-0.424560546875,0.00714111328125,0.90478515625,4.523468017578125,-4.822540283203125,1.016845703125,1,1.0,1.0,1.0,1.0,70.00
2021-04-24 08:53:34.958,0.4987168,0.0,0.70730466,0.48747933,0.19831662,0.0,0.0013237575,0.17679739,0.49750435,0.0,0.44501895,0.56784034,0.36935425,0.0,0.09004469,0.49773386,-0.00505361,0.0,-0.45228425,0.12329513,811.50183,813.91943,809.0842,799.81683,765.9707,-0.42156982421875,0.0101318359375,0.90625,4.344024658203125,-4.747772216796875,0.037384033203125,1,1.0,1.0,1.0,1.0,70.00
2021-04-24 08:53:35.479,0.4263592,0.0,0.22204556,0.305249,0.1942629,0.0,0.0071309847,0.18384546,0.49750435,0.0,0.35659596,0.54672277,0.31065536,0.0,-0.030664293,0.46418998,-0.036952253,0.0,-0.4470331,0.0599895,803.0403,816.7399,802.23444,790.9524,752.674,-0.4158935546875,0.00494384765625,0.90753173828125,4.628143310546875,-5.390777587890625,1.06170654296875,1,1.0,1.0,1.0,1.0,70.00
2021-04-24 08:53:36.002,0.23605146,0.0,0.11951811,0.27377984,-0.030988606,0.0,-0.11672989,0.15302722,0.4270922,0.0,0.1015971,0.42455503,0.26696813,0.0,-0.08172722,0.4030043,-0.070191376,0.0,-0.49225223,-0.07374821,799.011,875.9707,810.293,792.5641,675.31134,-0.41558837890625,0.01239013671875,0.91162109375,4.747772216796875,-4.598236083984375,1.592559814453125,1,1.0,1.0,1.0,1.0,70.00
2021-04-24 08:53:36.504,0.112213105,0.0,0.04802078,0.20064338,0.0991284,0.0,-0.21743137,0.1763806,0.5083294,0.0,0.1098136,0.36571145,0.20309363,0.0,-0.01858725,0.33864075,-0.16414112,0.0,-0.44345808,-0.020925619,815.9341,687.8022,809.0842,820.7692,1026.2638,-0.4052734375,0.01397705078125,0.912841796875,5.211334228515625,-5.181427001953125,1.3458251953125,1,1.0,1.0,1.0,1.0,70.00
2021-04-24 08:53:37.007,0.034525074,0.0,-0.034731764,0.16666372,0.07222599,0.0,-0.19263107,0.04310625,0.5752697,0.0,0.07213789,0.26066193,0.122674644,0.0,-0.02340498,0.29305637,-0.19384323,0.0,-0.41925424,0.03555317,787.326,855.0183,816.337,789.34064,700.293,-0.407958984375,0.0135498046875,0.9156494140625,4.852447509765625,-4.56085205078125,1.5252685546875,1,1.0,1.0,1.0,1.0,70.00
2021-04-24 08:53:37.507,-0.0040108683,0.0,-0.043617614,0.20680988,0.10565295,0.0,-3.5018745E-4,-0.021745358,0.5505651,0.0,0.2697631,0.32538494,0.09978038,0.0,-0.045833968,0.29954857,-0.24741346,0.0,-0.4007648,0.045175675,813.5165,828.4249,819.5604,806.26373,604.3956,-0.409912109375,0.02191162109375,0.91326904296875,4.94964599609375,-4.9346923828125,1.308441162109375,1,1.0,1.0,1.0,1.0,45.00
2021-04-24 08:53:38.022,0.09132976,0.0,0.19557215,0.2948025,-0.03646201,0.0,0.1604733,-0.16897614,0.29320994,0.0,0.29015997,0.18806003,0.10784777,0.0,-0.082914256,0.29326895,-0.16482016,0.0,-0.38935956,0.06220452,804.65204,784.90845,814.7253,805.8608,739.3773,-0.41162109375,0.01153564453125,0.9083251953125,4.463653564453125,-3.521575927734375,0.897216796875,1,1.0,1.0,1.0,1.0,45.00
2021-04-24 08:53:38.551,-0.005551594,0.0,0.23691502,0.49085018,-0.11670945,0.0,0.097169705,-0.08759874,0.2078968,0.0,0.2966978,0.16861248,0.13244605,0.0,-0.080537684,0.38427788,-0.11345862,0.0,-0.44463024,0.020038798,799.81683,804.65204,817.1429,794.17584,776.04395,-0.4144287109375,0.0076904296875,0.914306640625,4.68048095703125,-4.074859619140625,0.919647216796875,1,1.0,1.0,1.0,1.0,45.00
2021-04-24 08:53:39.068,0.84271574,0.0,0.22443141,0.7459606,0.7049743,0.0,-0.022796242,0.6903499,0.41858372,0.0,0.2172061,0.681458,0.380566,0.0,-0.10149774,0.37536144,0.07207551,0.0,-0.36876914,0.30615628,828.022,804.65204,809.4872,811.50183,755.89746,-0.4197998046875,0.0052490234375,0.90789794921875,4.9346923828125,-3.93280029296875,1.2261962890625,1,1.0,1.0,1.0,1.0,45.00
2021-04-24 08:53:39.569,0.6218277,0.0,-0.06760606,0.58792686,0.4981677,0.0,-0.32060328,0.5878777,0.4319877,0.0,0.0389177,0.70837873,0.35386747,0.0,-0.07240874,0.521613,0.23942065,0.0,-0.41102493,0.36145234,822.381,801.8315,818.7546,822.381,786.9231,-0.42364501953125,0.01031494140625,0.9063720703125,4.85992431640625,-3.656158447265625,1.12152099609375,1,1.0,1.0,1.0,1.0,45.00
2021-04-24 08:53:40.099,0.5206444,0.0,-0.23768182,0.459764,0.3742284,0.0,-0.32295975,0.4994917,0.5080702,0.0,0.018078448,0.8703419,0.26543283,0.0,-0.022753745,0.4895476,0.24699478,0.0,-0.44734088,0.34480834,800.6227,887.25275,818.7546,793.7729,660.0,-0.42236328125,0.014892578125,0.90435791015625,4.9346923828125,-4.246826171875,0.91217041015625,1,1.0,1.0,1.0,1.0,45.00
2021-04-24 08:53:40.619,0.38684946,0.0,-0.07269676,0.348354,0.21598837,0.0,-0.4167721,0.4828512,0.43463075,0.0,-6.2709773E-4,0.86696154,0.15638393,0.0,-0.044654727,0.526486,0.23171024,0.0,-0.3305515,0.26176327,803.0403,811.50183,811.50183,804.65204,737.3626,-0.4271240234375,0.00885009765625,0.90362548828125,4.463653564453125,-4.11224365234375,0.097198486328125,1,1.0,1.0,1.0,1.0,45.00
2021-04-24 08:53:41.124,0.39771417,0.0,-1.2525765E-4,0.33620954,0.23561256,0.0,-0.43731162,0.40128332,0.58656466,0.0,-0.005678274,0.81680673,0.1993208,0.0,-0.09187421,0.44744578,0.13243501,0.0,-0.27640027,0.16299713,804.2491,832.8571,809.4872,801.02563,795.78754,-0.43353271484375,0.0023193359375,0.904296875,4.538421630859375,-4.882354736328125,1.256103515625,1,1.0,1.0,1.0,1.0,45.00
2021-04-24 08:53:41.647,0.4363582,0.0,0.122824416,0.4315403,0.38366365,0.0,-0.2925848,0.37591305,0.6319309,0.0,-0.06339242,0.7715568,0.33068028,0.0,-0.15090984,0.50986516,0.0901439,0.0,-0.26244476,0.18795155,805.8608,875.9707,817.9487,798.60803,748.6447,-0.4425048828125,0.03497314453125,0.90228271484375,8.314208984375,-2.34771728515625,5.001983642578125,1,1.0,1.0,1.0,1.0,45.00
2021-04-24 08:53:42.155,0.27790886,0.0,0.02099835,0.23262401,0.311319,0.0,-0.331305,-0.030297974,0.59805876,0.0,-0.06917879,0.5903209,0.3771948,0.0,-0.05222404,0.491238,0.14599954,0.0,-0.34629774,0.25389066,811.50183,803.44324,803.0403,799.81683,736.55676,-0.43048095703125,0.0654296875,0.88818359375,5.42816162109375,-6.975860595703125,-2.714080810546875,1,1.0,1.0,1.0,1.0,45.00
2021-04-24 08:53:42.662,0.35234565,0.0,-0.01827563,0.25713545,0.39686048,0.0,-0.07609354,0.07852215,0.5229743,0.0,0.054315727,0.58697397,0.32254174,0.0,-0.0022702962,0.446921,0.08809299,0.0,-0.33494788,0.18741317,801.02563,824.3956,807.8755,801.4286,661.2088,-0.42742919921875,0.12835693359375,0.903564453125,8.725433349609375,-8.2843017578125,5.001983642578125,1,1.0,1.0,1.0,1.0,45.00
2021-04-24 08:53:43.169,0.32388645,0.0,0.0076501397,0.2525147,0.2696913,0.0,-0.09162176,0.057057086,0.27982375,0.0,0.072085336,0.48534822,0.29649484,0.0,0.028055081,0.39643633,0.06471507,0.0,-0.31185418,0.052217286,806.26373,805.4579,808.2784,819.9634,808.68134,-0.3902587890625,0.06890869140625,0.92156982421875,-1.472930908203125,-4.77020263671875,-3.671112060546875,1,1.0,1.0,1.0,1.0,45.00
2021-04-24 08:53:43.673,0.36380035,0.0,-0.005254045,0.39450142,0.27762276,0.0,-0.09428845,0.17658992,0.21624126,0.0,0.07456746,0.46131566,0.31216586,0.0,0.05993284,0.41957772,0.015162324,0.0,-0.36303067,0.052331988,778.46155,793.7729,818.7546,789.7436,836.8865,-0.4151611328125,0.0494384765625,0.90667724609375,4.486083984375,-3.297271728515625,-0.291595458984375,1,1.0,1.0,1.0,1.0,45.00
2021-04-24 08:53:44.184,0.65630627,0.0,0.41804215,0.6894484,0.49187526,0.0,-0.12837975,0.5295544,0.69101244,0.0,0.3287549,0.8691394,0.3102034,0.0,0.08751645,0.41920352,0.06904711,0.0,-0.45765242,0.07275254,794.57874,869.12085,814.3223,793.36993,774.43225,-0.41204833984375,0.0438232421875,0.910400390625,4.32159423828125,-5.38330078125,1.00189208984375,1,1.0,1.0,1.0,1.0,45.00
2021-04-24 08:53:44.704,1.0100268,0.0,0.50424796,0.9609935,0.7522274,0.0,-0.019493438,0.7402313,0.70150405,0.0,0.33812955,0.8022967,0.20863055,0.0,0.1322844,0.358653,-0.062958576,0.0,-0.32262692,0.050117318,816.7399,774.0293,807.0696,817.1429,792.5641,-0.4130859375,0.03497314453125,0.90869140625,4.314117431640625,-3.87298583984375,0.6280517578125,1,1.0,1.0,1.0,1.0,45.00
2021-04-24 08:53:45.229,0.89927626,0.0,0.5064551,0.9456709,0.66371167,0.0,-0.030312411,0.7177634,0.7259498,0.0,0.33960372,0.85598445,0.22586408,0.0,0.09929707,0.2949924,-0.03467647,0.0,-0.27515635,-0.022506569,792.5641,793.36993,786.52014,782.0879,852.1978,-0.41278076171875,0.036376953125,0.91070556640625,4.65057373046875,-4.568328857421875,0.49346923828125,1,1.0,1.0,1.0,1.0,45.00
2021-04-24 08:53:45.733,0.7384706,0.0,0.4822234,0.8948052,0.30959165,0.0,-0.12557234,0.4434027,0.69043326,0.0,0.12676026,0.67903304,0.23043242,0.0,0.068581715,0.39322716,-0.05151736,0.0,-0.24337843,0.08597955,766.3736,828.8278,757.9121,754.2857,708.7546,-0.4146728515625,0.036865234375,0.90826416015625,4.897308349609375,-4.209442138671875,0.55328369140625,1,1.0,1.0,1.0,1.0,45.00
2021-04-24 08:53:46.246,0.7132717,0.0,0.61762893,0.82345587,0.20090932,0.0,-0.28734735,0.38106027,0.70565903,0.0,0.07186473,0.66145873,0.24579813,0.0,-0.015183983,0.46503565,-0.030741906,0.0,-0.26917243,0.08548905,742.1978,764.35895,748.24176,747.8388,876.3736,-0.42156982421875,0.037353515625,0.90679931640625,4.80010986328125,-5.2337646484375,1.00189208984375,1,1.0,1.0,1.0,1.0,45.00
2021-04-24 08:53:46.764,0.8066559,0.0,0.8506351,0.971327,0.2217193,0.0,0.07577914,0.47493917,0.66551036,0.0,0.25591093,0.63002396,0.2428874,0.0,-0.095904134,0.47157508,-0.053534176,0.0,-0.25768536,0.1074874,779.67035,822.7839,790.9524,786.52014,811.0989,-0.4129638671875,0.03485107421875,0.90899658203125,4.882354736328125,-4.478607177734375,1.517791748046875,1,1.0,1.0,1.0,1.0,45.00
2021-04-24 08:53:47.251,,,,,,,,,,,,,,,,,,,,,,,,,,,,,,,,,,,,,,/muse/elements/blink
2021-04-24 08:53:47.280,0.93187296,0.0,0.96980387,0.9850631,0.26408568,0.0,0.26039404,0.42404318,0.6201794,0.0,0.23492512,0.60251045,0.29183564,0.0,-0.08274996,0.54889673,-0.0052967477,0.0,-0.16371436,0.12953098,812.71063,857.8388,815.9341,802.6374,684.9817,-0.41162109375,0.04119873046875,0.91326904296875,5.03936767578125,-5.450592041015625,1.51031494140625,1,1.0,1.0,1.0,1.0,45.00
2021-04-24 08:53:47.811,0.93187296,0.0,1.0857602,0.9850631,0.26408568,0.0,0.44782728,0.42404318,0.6201794,0.0,0.22037333,0.60251045,0.29183564,0.0,-0.107886106,0.54889673,-0.0052967477,0.0,-0.19234207,0.12953098,829.2308,791.3553,824.7985,812.3077,848.97437,-0.4012451171875,0.0115966796875,0.933837890625,4.538421630859375,-3.342132568359375,-2.803802490234375,1,1.0,1.0,1.0,1.0,40.00
2021-04-24 08:53:48.335,0.93187296,0.0,1.2227464,0.9850631,0.26408568,0.0,0.61379915,0.42404318,0.6201794,0.0,0.22037333,0.60251045,0.29183564,0.0,0.0014887305,0.54889673,-0.0052967477,0.0,-0.080658525,0.12953098,816.337,860.2564,826.0073,793.7729,788.5348,-0.4180908203125,0.00360107421875,0.906005859375,8.14971923828125,-3.828125,4.90478515625,1,1.0,1.0,1.0,1.0,40.00
2021-04-24 08:53:48.838,0.9477296,0.0,0.7726086,0.9850631,0.52029586,0.0,0.6666179,0.42404318,0.4453455,0.0,0.21518187,0.60251045,0.43705556,0.0,-0.006006107,0.54889673,0.0154273715,0.0,-0.2622512,0.12953098,809.0842,813.91943,798.60803,801.8315,722.0513,-0.43994140625,0.0628662109375,0.8963623046875,4.2169189453125,-3.39447021484375,4.29168701171875,1,1.0,1.0,1.0,1.0,40.00
2021-04-24 08:53:49.342,0.993741,0.0,0.9351199,1.1330873,0.4902207,0.0,0.5452657,0.5038137,0.49506614,0.0,0.3371701,0.6473531,0.41545022,0.0,-0.058354687,0.5159145,-0.01521584,0.0,-0.30640566,-0.015693592,805.05493,834.87177,807.0696,806.26373,730.5128,-0.44085693359375,0.04534912109375,0.89593505859375,4.149627685546875,-6.08612060546875,0.052337646484375,1,1.0,1.0,1.0,1.0,40.00
2021-04-24 08:53:49.851,1.0162977,0.0,1.1009034,1.082182,0.40482393,0.0,0.49181366,0.35510406,0.3895455,0.0,0.33213785,0.7119861,0.35479647,0.0,-0.088858955,0.49636883,-0.116766326,0.0,-0.36552134,-0.013577805,814.3223,853.8095,819.15753,807.0696,696.26373,-0.4200439453125,0.03369140625,0.90338134765625,3.72344970703125,-6.639404296875,-0.67291259765625,1,1.0,1.0,1.0,1.0,40.00
2021-04-24 08:53:50.366,1.0422592,0.0,1.027638,1.033722,0.18426163,0.0,0.12936088,0.33390835,-0.03684741,0.0,0.22752602,0.7559074,0.19818218,0.0,-0.039591562,0.48385897,-0.21358937,0.0,-0.44363067,-0.019407721,807.8755,775.64105,807.0696,818.7546,873.1502,-0.41705322265625,0.0330810546875,0.9102783203125,4.366455078125,-5.6524658203125,0.897216796875,1,1.0,1.0,1.0,1.0,40.00
2021-04-24 08:53:50.882,0.80360466,0.0,0.8710976,0.6567247,0.07326368,0.0,0.04972343,0.12941459,0.4696671,0.0,0.14385538,0.6220736,0.21012847,0.0,0.038189515,0.45544255,-0.121132545,0.0,-0.43595627,-0.03334869,802.6374,824.3956,809.89014,785.31134,777.6557,-0.40997314453125,0.0328369140625,0.91302490234375,4.35150146484375,-5.271148681640625,1.069183349609375,1,1.0,1.0,1.0,1.0,40.00
2021-04-24 08:53:51.387,0.49804607,0.0,0.42465883,0.2849297,0.18039753,0.0,0.11192584,0.1639174,0.68136775,0.0,0.14386928,0.48818976,0.17460108,0.0,0.026935289,0.37237766,0.0847607,0.0,-0.39709225,0.031235404,778.0586,859.45056,826.4103,778.0586,692.23444,-0.4002685546875,0.02685546875,0.91845703125,4.83001708984375,-3.99261474609375,1.203765869140625,1,1.0,1.0,1.0,1.0,40.00
2021-04-24 08:53:51.891,0.64680964,0.0,0.5015143,0.51865757,0.19353294,0.0,0.19900231,0.30223072,0.80667454,0.0,0.24028268,0.55421454,0.22907129,0.0,0.0037222127,0.3669582,0.10238541,0.0,-0.39611918,0.09144852,824.7985,811.0989,820.3663,808.68134,776.4469,-0.40850830078125,0.025390625,0.91693115234375,4.844970703125,-4.822540283203125,1.42059326171875,1,1.0,4.0,1.0,1.0,40.00
2021-04-24 08:53:52.407,0.686983,0.0,0.5052333,0.6342026,0.2628128,0.0,0.13925605,0.40139943,0.80667454,0.0,0.24623767,0.4846834,0.22788373,0.0,-0.053744547,0.32859832,0.16783734,0.0,-0.46848056,0.16134422,818.7546,841.7216,823.5897,809.4872,784.5055,-0.4166259765625,0.02392578125,0.90997314453125,4.987030029296875,-3.850555419921875,1.353302001953125,1,1.0,1.0,1.0,1.0,40.00
2021-04-24 08:53:52.926,0.81098336,0.0,0.5593154,1.0192956,0.22615466,0.0,0.0017636772,0.42098722,0.6822962,0.0,0.36083367,0.51096153,0.32651645,0.0,0.0087262485,0.5021355,0.047768097,0.0,-0.4114189,0.21117666,832.4542,821.5751,815.5311,822.381,686.99634,-0.4228515625,0.02447509765625,0.9075927734375,4.388885498046875,-4.0374755859375,0.9869384765625,1,1.0,4.0,1.0,1.0,40.00
2021-04-24 08:53:53.438,0.6099793,0.0,0.5459116,0.8971441,0.066177234,0.0,-0.038278967,0.35912266,0.6205862,0.0,0.3302889,0.778922,0.23385678,0.0,0.0063455715,0.46611708,0.09305725,0.0,-0.37547332,0.2564712,824.7985,696.6667,812.71063,828.8278,1015.78754,-0.42529296875,0.02349853515625,0.9090576171875,4.448699951171875,-4.26177978515625,1.054229736328125,1,1.0,4.0,1.0,1.0,40.00
2021-04-24 08:53:53.950,0.54461926,0.0,0.46833527,0.77456963,-0.03256226,0.0,-0.11314901,0.22802438,0.6205862,0.0,0.32335162,0.7852219,0.2585193,0.0,-0.035371352,0.40605652,0.07933679,0.0,-0.3067627,0.21289559,793.7729,866.7033,805.05493,793.36993,763.95605,-0.42498779296875,0.026123046875,0.90643310546875,4.44122314453125,-4.867401123046875,1.00189208984375,1,1.0,4.0,1.0,1.0,40.00
2021-04-24 08:53:54.486,0.37288293,0.0,0.25179723,0.40190622,-0.20662923,0.0,-0.15616073,0.11082861,0.55732346,0.0,0.06291204,0.8076019,0.3296191,0.0,-0.05428684,0.28724852,0.14368227,0.0,-0.418309,0.23600951,826.0073,799.011,811.50183,811.50183,793.36993,-0.436279296875,0.01959228515625,0.903076171875,4.807586669921875,-4.11224365234375,1.727142333984375,1,1.0,1.0,1.0,1.0,40.00
2021-04-24 08:53:54.995,0.33662254,0.0,-0.064810105,0.27704358,0.05739316,0.0,-0.1953252,-0.010307641,0.38189557,0.0,0.2783218,0.4775137,0.3923605,0.0,-0.031390518,0.3188425,0.0711499,0.0,-0.49020532,0.21598652,805.8608,752.27106,812.71063,805.05493,981.9414,-0.43768310546875,0.01971435546875,0.9031982421875,5.001983642578125,-3.42437744140625,1.614990234375,1,1.0,1.0,1.0,1.0,40.00
2021-04-24 08:53:55.499,0.43570882,0.0,0.063853554,0.39212883,0.28958032,0.0,-0.19000389,0.10560467,0.4026741,0.0,0.2841567,0.343089,0.43107706,0.0,-0.027878815,0.49885496,0.044976216,0.0,-0.5239523,0.26182556,800.2198,844.5421,815.9341,801.02563,757.1062,-0.43212890625,0.0283203125,0.9024658203125,4.957122802734375,-5.450592041015625,1.80938720703125,1,1.0,1.0,1.0,1.0,40.00
2021-04-24 08:53:56.004,0.49112743,0.0,0.05510268,0.3729254,0.38833398,0.0,-0.36713442,0.15784606,0.41270092,0.0,0.27937454,0.35472736,0.29488564,0.0,-0.106596045,0.47774783,-0.01523405,0.0,-0.47270694,0.26110184,809.4872,782.0879,812.71063,808.68134,670.07324,-0.43560791015625,0.0177001953125,0.90594482421875,4.486083984375,-4.897308349609375,1.09161376953125,1,1.0,1.0,1.0,1.0,40.00
2021-04-24 08:53:56.516,0.41150618,0.0,0.09912038,0.30388045,0.28005224,0.0,-0.4992038,0.047397554,0.4108372,0.0,0.23344585,0.30397463,0.21113773,0.0,-0.16093172,0.45564625,-0.0130912615,0.0,-0.40595266,0.19458398,802.23444,837.28937,811.9048,798.60803,793.7729,-0.42254638671875,0.02642822265625,0.9111328125,4.486083984375,-4.523468017578125,1.256103515625,1,1.0,1.0,1.0,1.0,40.00
2021-04-24 08:53:57.029,0.22659683,0.0,0.05493657,0.12382503,0.09428796,0.0,-0.4738519,0.029209265,0.14933579,0.0,0.18844515,0.4598559,0.1573454,0.0,-0.08877633,0.3645387,0.08395848,0.0,-0.3468934,0.16318378,779.2674,859.0476,814.7253,777.6557,782.0879,-0.4273681640625,0.02288818359375,0.904296875,4.725341796875,-4.583282470703125,0.95703125,1,1.0,1.0,1.0,1.0,40.00
2021-04-24 08:53:57.545,-0.10018241,0.0,0.23827876,0.45328856,-0.07187219,0.0,-0.21500988,-0.030638382,0.07000302,0.0,0.24252641,0.47320756,0.20658839,0.0,-0.014280211,0.4124131,0.11672834,0.0,-0.32384562,0.18167092,809.4872,758.71796,817.9487,808.2784,870.7326,-0.4288330078125,0.02117919921875,0.90167236328125,4.448699951171875,-4.478607177734375,0.8673095703125,1,1.0,2.0,1.0,1.0,40.00
2021-04-24 08:53:58.068,0.019727128,0.0,0.34860215,0.6110142,0.016876541,0.0,-0.15939374,0.11213919,-0.03776336,0.0,0.23132019,0.45930198,0.28102344,0.0,0.0071661095,0.462829,0.21835332,0.0,-0.3451078,0.25996563,811.9048,834.0659,806.6667,800.6227,785.31134,-0.42877197265625,0.023681640625,0.905517578125,4.5159912109375,-4.433746337890625,1.039276123046875,1,1.0,1.0,1.0,1.0,45.00
2021-04-24 08:53:58.596,0.94057864,0.0,0.36191124,0.7509745,0.56194365,0.0,-0.115566455,0.2569577,0.63175374,0.0,0.24081619,0.65127856,0.23219219,0.0,-0.010396949,0.47536987,-0.09943198,0.0,-0.4188124,0.2772793,803.0403,838.9011,816.7399,799.011,711.978,-0.42645263671875,0.02239990234375,0.90087890625,4.74029541015625,-4.53094482421875,1.233673095703125,1,1.0,1.0,1.0,1.0,45.00
2021-04-24 08:53:59.099,0.8314945,0.0,0.6055154,0.39991176,0.4121857,0.0,-0.052951626,0.14155185,0.632125,0.0,0.42126375,0.6038406,0.19183646,0.0,-0.05827566,0.4441709,-0.016560875,0.0,-0.49674213,0.22571763,810.696,822.381,807.8755,805.4579,832.4542,-0.4263916015625,0.0267333984375,0.9022216796875,4.777679443359375,-4.366455078125,1.2860107421875,1,1.0,1.0,1.0,1.0,45.00
2021-04-24 08:53:59.607,0.772041,0.0,0.80205554,0.38816026,0.33748764,0.0,0.1843278,0.08323489,0.6479015,0.0,0.4688183,0.6333571,0.21457143,0.0,-0.0012978138,0.45955855,-0.0024189658,0.0,-0.52984846,0.217002,805.8608,855.42126,813.91943,805.8608,701.50183,-0.42950439453125,0.01947021484375,0.9034423828125,4.493560791015625,-4.3963623046875,0.9271240234375,1,1.0,1.0,1.0,1.0,45.00
2021-04-24 08:54:00.143,0.4593758,0.0,0.7941506,0.406409,-0.07982715,0.0,0.16947588,0.22516116,0.20518944,0.0,0.46353814,0.43529895,0.25538802,0.0,-0.07161395,0.4119834,-0.011983457,0.0,-0.5589404,0.1639198,804.2491,792.1612,809.4872,796.99634,806.26373,-0.42822265625,0.02178955078125,0.90252685546875,5.046844482421875,-5.570220947265625,-0.46356201171875,1,1.0,1.0,1.0,1.0,45.00
2021-04-24 08:54:00.646,0.41533935,0.0,0.5540769,0.36792496,-0.19488397,0.0,0.04012231,0.30159897,0.15711719,0.0,0.43261692,0.40110382,0.2673076,0.0,-0.02838838,0.3655645,-0.006928291,0.0,-0.53404194,0.113274015,805.05493,731.7216,796.99634,824.7985,1066.5568,-0.43798828125,0.02276611328125,0.90869140625,4.9346923828125,-4.0374755859375,1.757049560546875,1,1.0,1.0,1.0,1.0,45.00
2021-04-24 08:54:01.154,0.4248205,0.0,0.07495838,0.32970908,-0.026287124,0.0,-0.22592454,0.39993912,0.3958586,0.0,0.006609216,0.6787417,0.26713267,0.0,-0.04697696,0.3025232,0.0060862224,0.0,-0.4690096,0.07947597,809.4872,868.315,812.3077,797.8022,697.8755,-0.41741943359375,0.01953125,0.91156005859375,4.94964599609375,-5.48797607421875,1.51031494140625,1,1.0,1.0,1.0,1.0,45.00
2021-04-24 08:54:01.671,0.40345755,0.0,0.16233167,0.18428318,0.044309005,0.0,-0.059311785,0.2667079,0.41913456,0.0,0.051604778,0.67826414,0.22606912,0.0,-0.06804832,0.33162478,0.058200005,0.0,-0.45325616,0.1126669,816.7399,782.8938,805.4579,809.89014,883.22345,-0.41986083984375,0.0,0.9136962890625,4.47113037109375,-5.21881103515625,1.338348388671875,1,1.0,1.0,1.0,1.0,45.00
2021-04-24 08:54:02.199,0.30963525,0.0,0.18438452,0.0069925305,0.008717358,0.0,0.00885941,0.14986144,0.40369958,0.0,0.05659739,0.690576,0.2284417,0.0,-0.14865324,0.43699795,0.036478702,0.0,-0.4020933,0.13699569,814.7253,824.7985,809.89014,806.26373,855.42126,-0.4127197265625,0.0206298828125,0.90869140625,3.880462646484375,-4.53094482421875,1.12152099609375,1,1.0,1.0,1.0,1.0,45.00
2021-04-24 08:54:02.723,0.2795436,0.0,-0.017272633,0.110495284,-0.0055949283,0.0,-0.13061386,0.13310464,0.41157722,0.0,0.061167914,0.7415356,0.1742069,0.0,-0.1604192,0.46675605,0.049290936,0.0,-0.3801006,0.09116558,808.68134,818.7546,801.8315,804.2491,803.8461,-0.41351318359375,0.01702880859375,0.91094970703125,4.62066650390625,-4.2767333984375,1.136474609375,1,1.0,1.0,1.0,1.0,45.00
2021-04-24 08:54:03.225,0.2472424,0.0,-0.2712257,0.13580637,0.015017357,0.0,-0.21575923,0.11956237,0.3372265,0.0,0.01601526,0.7568586,0.24368478,0.0,-0.08177263,0.4743581,0.055079713,0.0,-0.38304356,0.06666784,817.5458,810.696,811.50183,814.7253,821.978,-0.41748046875,0.0101318359375,0.90582275390625,4.538421630859375,-4.912261962890625,1.278533935546875,1,1.0,1.0,1.0,1.0,45.00
2021-04-24 08:54:03.741,0.1875884,0.0,-0.264826,0.31091073,0.29524928,0.0,-0.15876897,0.34036523,0.46974763,0.0,-0.027061077,0.75475675,0.24498336,0.0,-0.11680704,0.44762868,0.05786271,0.0,-0.49837357,-0.011015313,800.2198,872.74725,806.6667,789.7436,704.3223,-0.41339111328125,0.0098876953125,0.9111328125,4.41131591796875,-3.72344970703125,0.61309814453125,1,1.0,1.0,1.0,1.0,45.00
2021-04-24 08:54:04.244,0.4587485,0.0,0.102883056,0.31127498,0.31906796,0.0,-0.05338999,0.35552612,0.6943076,0.0,-0.049062174,0.7040493,0.26032057,0.0,-0.12629029,0.3963271,0.06643343,0.0,-0.62545526,0.0025846993,815.12823,795.78754,803.8461,821.1722,691.4286,-0.4085693359375,0.01324462890625,0.91192626953125,4.7552490234375,-4.044952392578125,1.383209228515625,1,1.0,1.0,1.0,1.0,45.00
2021-04-24 08:54:04.752,0.9531362,0.0,0.57971066,0.43580252,0.56666493,0.0,0.08756219,0.5013609,0.82003516,0.0,-0.015275159,0.5034357,0.21206689,0.0,-0.15753211,0.35385612,0.09770349,0.0,-0.60717076,-0.025813952,784.5055,825.6044,784.10254,767.5824,755.89746,-0.40673828125,0.00640869140625,0.9136962890625,4.8748779296875,-3.21502685546875,1.383209228515625,1,1.0,1.0,1.0,1.0,45.00
2021-04-24 08:54:05.266,1.0601807,0.0,0.77196103,0.36858502,0.6992098,0.0,0.1485665,0.37182125,0.9967668,0.0,0.19962825,0.38649443,0.2218927,0.0,-0.06461521,0.19808446,0.11087486,0.0,-0.5497802,0.076404005,800.2198,848.5714,802.6374,786.9231,720.0366,-0.42034912109375,0.0069580078125,0.907958984375,4.85992431640625,-5.03936767578125,0.979461669921875,1,1.0,1.0,1.0,1.0,45.00
2021-04-24 08:54:05.783,1.1222634,0.0,0.8879479,0.36858502,0.82218736,0.0,0.21696986,0.37182125,1.0350416,0.0,0.2563339,0.38649443,0.32806894,0.0,-0.06440358,0.19808446,0.035747916,0.0,-0.42263,0.076404005,809.0842,786.52014,793.7729,810.293,746.2271,-0.41827392578125,0.0081787109375,0.91082763671875,4.8150634765625,-4.089813232421875,1.592559814453125,1,1.0,1.0,1.0,1.0,45.00
2021-04-24 08:54:06.307,0.9595068,0.0,0.8146226,0.61472416,0.74929845,0.0,0.22814463,0.6530241,1.0271431,0.0,0.3089401,0.6671616,0.32918873,0.0,-0.00633299,0.5285661,-0.03154615,0.0,-0.38174188,0.17207094,805.4579,794.9817,807.0696,798.60803,836.08057,-0.41448974609375,0.0126953125,0.91278076171875,5.084228515625,-4.912261962890625,1.03179931640625,1,1.0,1.0,1.0,1.0,45.00
2021-04-24 08:54:06.834,0.90982485,0.0,0.6580532,0.56369543,0.5851845,0.0,0.16721614,0.50142974,0.8426307,0.0,0.35083005,0.6969405,0.3656551,0.0,0.050661597,0.6694703,-0.028897732,0.0,-0.3624547,0.2688312,811.0989,832.4542,808.2784,798.20514,651.53845,-0.41424560546875,0.0107421875,0.90521240234375,4.777679443359375,-5.1141357421875,1.1962890625,1,1.0,1.0,1.0,1.0,45.00
2021-04-24 08:54:07.346,0.6636062,0.0,0.51098955,0.3863127,0.4844091,0.0,0.07374956,0.38004184,0.7977702,0.0,0.34824532,0.68209827,0.45095015,0.0,0.1024234,0.70877784,0.094379045,0.0,-0.4765663,0.29473516,824.3956,746.63007,801.02563,819.9634,1022.6374,-0.41619873046875,0.01214599609375,0.91204833984375,4.6356201171875,-4.358978271484375,0.61309814453125,1,1.0,1.0,1.0,1.0,45.00
2021-04-24 08:54:07.859,0.42576662,0.0,0.41016054,0.35930496,0.3124737,0.0,-0.0912321,0.13669433,0.7927543,0.0,0.3346144,0.64155084,0.5037072,0.0,0.13431206,0.74502605,0.14616278,0.0,-0.5798568,0.31294262,809.89014,842.1245,801.4286,805.8608,713.5897,-0.42218017578125,0.01116943359375,0.9083251953125,5.15899658203125,-4.164581298828125,1.495361328125,1,1.0,1.0,1.0,1.0,45.00
2021-04-24 08:54:08.364,0.640002,0.0,0.5266582,0.30697992,0.35197052,0.0,-0.04897635,0.13742375,0.92292327,0.0,0.12939101,0.62374395,0.49711072,0.0,0.10618572,0.718205,0.14298142,0.0,-0.4834082,0.31516376,798.60803,763.95605,809.4872,806.6667,793.36993,-0.42291259765625,0.005615234375,0.90850830078125,4.7552490234375,-5.1141357421875,1.375732421875,1,1.0,1.0,1.0,1.0,45.00
2021-04-24 08:54:08.870,0.91388637,0.0,0.70187706,0.44900218,0.38864246,0.0,-0.0071353735,-0.020212147,1.0377489,0.0,0.26302654,0.76400626,0.38077885,0.0,0.11036454,0.64578706,0.099249676,0.0,-0.39309806,0.27671784,805.05493,807.47253,801.02563,802.6374,734.94507,-0.4134521484375,0.0172119140625,0.91339111328125,5.001983642578125,-4.538421630859375,2.026214599609375,1,1.0,1.0,1.0,1.0,45.00
2021-04-24 08:54:09.375,1.1196647,0.0,0.87037486,0.6190386,0.42794123,0.0,-0.010789025,0.119322136,1.0422115,0.0,0.22243285,0.7388246,0.210993,0.0,0.030741384,0.45547718,-0.010805505,0.0,-0.32722664,0.01038036,806.6667,834.87177,800.2198,806.6667,711.5751,-0.4068603515625,0.0140380859375,0.91082763671875,4.089813232421875,-4.5758056640625,2.714080810546875,1,1.0,1.0,1.0,1.0,45.00
2021-04-24 08:54:09.882,0.9809369,0.0,0.8118673,0.5798897,0.26862937,0.0,-0.079048984,0.12185233,1.034295,0.0,0.28260404,0.7429626,0.20007418,0.0,0.037187558,0.4673821,0.05117657,0.0,-0.37637776,-0.020963483,818.3516,770.80585,806.26373,811.0989,854.61536,-0.40899658203125,0.0194091796875,0.91326904296875,5.30853271484375,-4.62066650390625,2.071075439453125,1,1.0,1.0,1.0,1.0,45.00
2021-04-24 08:54:10.388,0.85867125,0.0,0.6018065,0.6002174,0.072593585,0.0,-0.025704853,0.1785952,0.67983365,0.0,0.39861035,0.51186883,0.24426536,0.0,-0.007066423,0.41095576,0.082215875,0.0,-0.41817227,5.8893593E-6,792.1612,810.293,783.69965,792.1612,759.92676,-0.412353515625,0.0162353515625,0.914306640625,4.777679443359375,-5.106658935546875,1.2860107421875,1,1.0,1.0,1.0,1.0,45.00
2021-04-24 08:54:10.911,0.72986716,0.0,0.6144395,0.52272016,0.060725983,0.0,-0.029022124,0.19273603,0.58264637,0.0,0.41019982,0.48119152,0.3014026,0.0,-0.020104174,0.2982296,0.09574055,0.0,-0.4455556,0.028526364,796.99634,859.45056,785.7143,786.9231,728.9011,-0.40228271484375,0.018798828125,0.91864013671875,4.8748779296875,-4.403839111328125,0.186920166015625,1,1.0,1.0,1.0,1.0,45.00
2021-04-24 08:54:11.429,0.7588133,0.0,0.59449637,0.6546078,0.39222112,0.0,-0.1491731,0.25150648,0.46952,0.0,0.44465882,0.49404523,0.32093206,0.0,-0.10312362,0.24906547,0.03455881,0.0,-0.43689892,-0.016377682,804.65204,695.05493,783.69965,811.0989,965.42126,-0.4073486328125,0.01751708984375,0.915283203125,4.942169189453125,-3.985137939453125,1.39068603515625,1,1.0,1.0,1.0,1.0,45.00
2021-04-24 08:54:11.939,0.7741088,0.0,0.6341513,0.77891594,0.51291996,0.0,-0.15957005,0.400132,0.3361994,0.0,0.36561018,0.6048576,0.29978144,0.0,-0.15737216,0.35247502,0.042818673,0.0,-0.4818866,-0.06361246,802.23444,830.84247,805.8608,804.2491,740.58606,-0.40850830078125,0.0120849609375,0.9127197265625,4.658050537109375,-5.2935791015625,1.2261962890625,1,1.0,1.0,1.0,1.0,45.00
2021-04-24 08:54:12.450,0.61474234,0.0,0.41364545,0.8067662,0.29640007,0.0,-0.1599727,0.39853773,0.3649659,0.0,0.30491367,0.6280472,0.29633203,0.0,-0.14481857,0.49312356,0.12122536,0.0,-0.440281,0.042131804,804.2491,871.53845,818.3516,795.38464,684.57874,-0.40301513671875,0.00848388671875,0.91790771484375,4.486083984375,-5.301055908203125,0.695343017578125,1,1.0,1.0,1.0,1.0,45.00
2021-04-24 08:54:12.988,0.3243642,0.0,0.42077905,0.6758475,-0.03274337,0.0,-0.0045099384,0.44603115,0.3872776,0.0,0.16727905,0.63855815,0.5083344,0.0,-0.14317374,0.5914892,0.097786374,0.0,-0.42168725,0.115106605,792.5641,808.2784,811.9048,790.9524,793.36993,-0.39556884765625,0.01373291015625,0.9097900390625,5.271148681640625,-3.36456298828125,1.966400146484375,1,1.0,1.0,1.0,1.0,45.00
2021-04-24 08:54:13.505,0.28310445,0.0,0.4202471,0.47497392,-0.08680739,0.0,0.15212554,0.38076594,0.38471168,0.0,0.23270428,0.4898113,0.52877945,0.0,-0.03747098,0.6435212,0.09906354,0.0,-0.38781568,0.19651738,788.5348,848.5714,796.99634,783.69965,630.58606,-0.39666748046875,0.03680419921875,0.9190673828125,5.4132080078125,-3.491668701171875,2.85614013671875,1,1.0,1.0,1.0,1.0,45.00
2021-04-24 08:54:14.022,1.0597621,0.0,0.9475451,0.25587097,0.8226021,0.0,0.30666724,0.4413324,0.8955347,0.0,0.35921854,0.367991,0.7003362,0.0,-0.054245498,0.67496455,0.20214239,0.0,-0.43060553,0.14013158,773.6264,768.7912,809.89014,782.49084,802.23444,-0.40460205078125,0.02349853515625,0.91412353515625,3.297271728515625,-2.75146484375,0.650482177734375,1,1.0,1.0,1.0,1.0,45.00
2021-04-24 08:54:14.526,1.3951743,0.0,1.0586156,0.13998283,1.1044649,0.0,0.28119698,0.43553534,0.9019244,0.0,0.38506496,0.346348,0.6857439,0.0,-0.13382247,0.6850335,0.32517746,0.0,-0.45282513,0.12754554,819.15753,854.21246,784.5055,790.9524,796.1905,-0.41693115234375,0.02508544921875,0.9072265625,4.329071044921875,-4.523468017578125,2.265472412109375,1,1.0,1.0,1.0,1.0,45.00
2021-04-24 08:54:15.060,1.3951743,0.0,1.1587764,0.13998283,1.1044649,0.0,0.22379585,0.43553534,0.9019244,0.0,0.3936234,0.346348,0.6857439,0.0,-0.26130298,0.6850335,0.32517746,0.0,-0.4474771,0.12754554,815.5311,841.7216,801.4286,819.5604,698.2784,-0.4259033203125,0.014404296875,0.9105224609375,4.44122314453125,-4.38140869140625,0.64300537109375,1,1.0,1.0,1.0,1.0,45.00
2021-04-24 08:54:15.565,1.0770108,0.0,1.1720802,0.13998283,0.5858501,0.0,0.069494806,0.43553534,0.57871044,0.0,0.21534115,0.346348,0.26010936,0.0,-0.24521166,0.6850335,-0.07208688,0.0,-0.43195817,0.12754554,816.7399,765.16486,799.81683,825.6044,919.4872,-0.41314697265625,0.01959228515625,0.90777587890625,4.493560791015625,-5.749664306640625,0.814971923828125,1,1.0,1.0,1.0,1.0,45.00
2021-04-24 08:54:16.073,0.6621478,0.0,1.0834496,0.26239312,0.3686179,0.0,0.070529975,-0.16479762,0.66205,0.0,-0.020487424,0.3093408,0.08526944,0.0,-0.1620289,0.33995244,0.044359706,0.0,-0.4639028,0.029195258,815.12823,799.011,800.6227,808.68134,719.6337,-0.4146728515625,0.01507568359375,0.9193115234375,4.403839111328125,-4.104766845703125,0.61309814453125,1,1.0,1.0,1.0,1.0,45.00
2021-04-24 08:54:16.584,0.53542966,0.0,0.9311945,0.12975445,0.31971774,0.0,-0.0817816,0.10567046,0.69162637,0.0,-0.06890908,0.4504507,0.13827212,0.0,-0.07018938,0.3599729,0.08611233,0.0,-0.39899713,0.057711497,816.337,853.8095,807.8755,810.696,584.2491,-0.410888671875,0.02001953125,0.9110107421875,4.717864990234375,-4.44122314453125,1.00189208984375,1,1.0,1.0,1.0,1.0,45.00
2021-04-24 08:54:17.097,0.0766534,0.0,0.25365126,0.08851767,0.1327385,0.0,-0.1792365,0.15755878,0.65194833,0.0,0.00656882,0.5784011,0.20306554,0.0,0.010636571,0.5087587,0.07777029,0.0,-0.28441364,0.115209706,817.5458,820.3663,803.44324,812.71063,795.78754,-0.41693115234375,0.025634765625,0.906982421875,4.463653564453125,-2.250518798828125,0.874786376953125,1,1.0,1.0,1.0,1.0,45.00
2021-04-24 08:54:17.599,0.14143877,0.0,0.37892348,0.055924904,0.1279364,0.0,-0.1900713,0.3110451,0.6722604,0.0,0.105123,0.6438815,0.33534187,0.0,0.04015642,0.6275449,0.0040435423,0.0,-0.22441909,0.16700943,772.4176,825.6044,780.87915,770.40295,707.5458,-0.4228515625,0.01885986328125,0.905029296875,4.747772216796875,-4.91973876953125,1.77947998046875,1,1.0,1.0,1.0,1.0,45.00
2021-04-24 08:54:18.104,0.4619962,0.0,0.72439104,0.33459976,0.18191113,0.0,-0.21889767,0.35134795,0.66460884,0.0,0.15085481,0.70436406,0.3881823,0.0,0.020067733,0.7100956,-0.112879574,0.0,-0.24233873,0.21667495,764.7619,771.2088,772.8205,750.65936,794.57874,-0.42523193359375,0.015869140625,0.90179443359375,4.972076416015625,-4.18701171875,1.03179931640625,1,1.0,1.0,1.0,1.0,45.00
2021-04-24 08:54:18.611,0.6158549,0.0,0.91583294,0.49454227,0.2527812,0.0,-0.17726679,0.4275671,0.66460884,0.0,0.19531305,0.5737515,0.41633654,0.0,-0.029647792,0.72522914,-0.14210498,0.0,-0.35408083,0.22797878,803.44324,789.34064,778.46155,798.60803,801.8315,-0.4271240234375,0.01690673828125,0.90301513671875,4.613189697265625,-4.209442138671875,0.9869384765625,1,1.0,4.0,1.0,1.0,45.00
2021-04-24 08:54:19.135,0.7920197,0.0,0.9522372,0.63265675,0.34013784,0.0,-0.0014114002,0.39487115,0.65841705,0.0,0.20139788,0.5446315,0.39564827,0.0,0.026622219,0.6933678,-0.1444601,0.0,-0.4180642,0.21352416,818.7546,801.02563,803.8461,824.3956,822.381,-0.43548583984375,0.0177001953125,0.8990478515625,4.8150634765625,-3.72344970703125,1.016845703125,1,1.0,4.0,1.0,1.0,45.00
2021-04-24 08:54:19.642,0.7920197,0.0,0.9789769,0.63265675,0.34013784,0.0,0.038689338,0.39487115,0.65841705,0.0,0.20429812,0.5446315,0.39564827,0.0,0.13468161,0.6933678,-0.1444601,0.0,-0.43478876,0.21352416,822.381,816.337,820.7692,817.5458,761.9414,-0.43719482421875,0.022705078125,0.90380859375,5.271148681640625,-4.643096923828125,0.55328369140625,1,1.0,4.0,1.0,1.0,45.00
2021-04-24 08:54:20.152,0.46461925,0.0,0.88425493,0.63265675,-0.15703467,0.0,0.04876203,0.39487115,0.28049102,0.0,0.08969612,0.5446315,0.29766706,0.0,0.13689731,0.6933678,0.14380373,0.0,-0.32619244,0.21352416,811.9048,825.2015,806.26373,799.41394,766.77655,-0.43682861328125,0.0172119140625,0.9027099609375,4.3963623046875,-4.83001708984375,0.97198486328125,1,1.0,4.0,1.0,1.0,45.00
2021-04-24 08:54:20.682,0.4298699,0.0,0.78565425,0.5402993,0.26777232,0.0,-0.068920046,0.43893266,0.7766394,0.0,0.066300444,0.81348366,0.39640126,0.0,-0.036549717,0.5462194,0.16528906,0.0,-0.34571996,0.32765374,815.12823,829.6337,807.8755,813.5165,672.8938,-0.43121337890625,0.022216796875,0.90411376953125,4.5458984375,-4.747772216796875,2.370147705078125,1,1.0,1.0,1.0,1.0,45.00
2021-04-24 08:54:21.189,0.3748352,0.0,0.22705539,0.5689933,0.47332826,0.0,-0.083329216,0.6038225,0.87549156,0.0,0.17705747,0.8915276,0.41852665,0.0,-0.1861493,0.52349603,0.11665516,0.0,-0.31174186,0.2925997,830.4396,745.82416,816.7399,829.6337,885.64105,-0.43414306640625,0.01739501953125,0.900634765625,4.5458984375,-5.016937255859375,1.854248046875,1,1.0,1.0,1.0,1.0,45.00
2021-04-24 08:54:21.708,0.26378095,0.0,0.36913192,0.5258959,0.5719434,0.0,-0.108368166,0.59632295,0.87549156,0.0,0.24426448,0.8915276,0.44117352,0.0,-0.18815681,0.47219652,0.10202551,0.0,-0.3634689,0.22375037,824.7985,695.05493,813.91943,819.9634,1351.4286,-0.432373046875,0.0137939453125,0.90191650390625,4.493560791015625,-4.3365478515625,1.1962890625,1,1.0,1.0,1.0,1.0,45.00
2021-04-24 08:54:22.218,0.053314317,0.0,0.49526447,0.41981894,0.51261574,0.0,-0.034431294,0.63575333,0.8766594,0.0,0.23910113,0.88707805,0.36903033,0.0,-0.15726724,0.44896466,0.117806025,0.0,-0.37751892,0.19748303,811.9048,858.24176,809.4872,790.9524,744.21246,-0.4398193359375,0.0130615234375,0.89923095703125,4.643096923828125,-6.0113525390625,1.338348388671875,1,1.0,1.0,1.0,1.0,45.00
2021-04-24 08:54:22.728,0.17850801,0.0,0.5017486,0.4127083,0.37739608,0.0,0.0031839646,0.5218351,0.60429174,0.0,0.2912352,0.45708612,0.2920652,0.0,-0.23549391,0.39614692,0.1643592,0.0,-0.46591392,0.21428496,812.71063,779.67035,821.978,805.4579,921.9048,-0.43939208984375,0.01776123046875,0.90277099609375,4.4561767578125,-4.777679443359375,0.9869384765625,1,1.0,1.0,1.0,1.0,45.00
2021-04-24 08:54:23.232,0.60421234,0.0,0.38802436,0.53797346,0.36449188,0.0,0.015781492,0.5727856,0.5141304,0.0,0.19199505,0.55367744,0.3382894,0.0,-0.16318506,0.442532,0.26016703,0.0,-0.4095583,0.26101205,809.0842,828.8278,808.68134,797.3993,748.6447,-0.42950439453125,0.0181884765625,0.9036865234375,5.0244140625,-4.91973876953125,1.532745361328125,1,1.0,1.0,1.0,1.0,45.00
2021-04-24 08:54:23.739,0.71683013,0.0,0.43217537,0.72404987,0.32316384,0.0,-0.017424753,0.40463406,0.68665767,0.0,0.2867765,0.6249967,0.38555905,0.0,-0.07166943,0.5125816,0.28811282,0.0,-0.40303466,0.22100207,789.34064,855.82416,812.71063,784.90845,744.61536,-0.4246826171875,0.01397705078125,0.9078369140625,4.8748779296875,-5.682373046875,0.441131591796875,1,1.0,1.0,1.0,1.0,45.00
2021-04-24 08:54:24.248,0.6588105,0.0,0.46780786,0.69014513,0.32183453,0.0,0.075085774,0.32054305,0.7489904,0.0,0.25058103,0.70652604,0.42475125,0.0,-0.018950487,0.5781787,0.3204567,0.0,-0.40120736,0.22330199,817.9487,820.3663,808.68134,808.2784,741.79486,-0.43194580078125,0.017578125,0.90325927734375,4.553375244140625,-4.78515625,0.650482177734375,1,1.0,1.0,1.0,1.0,45.00
2021-04-24 08:54:24.754,0.47385544,0.0,0.45025957,0.5663783,0.16916667,0.0,0.1410159,0.24289621,0.7923678,0.0,0.29353705,0.7007003,0.36132446,0.0,-0.048600197,0.5889609,0.2359053,0.0,-0.43197396,0.18219237,815.5311,836.8865,811.50183,814.3223,694.65204,-0.427001953125,0.01171875,0.9051513671875,4.732818603515625,-4.538421630859375,1.428070068359375,1,1.0,1.0,1.0,1.0,45.00
2021-04-24 08:54:25.273,0.31650364,0.0,0.2855984,0.3699934,0.09650702,0.0,0.10576781,0.29610705,0.75892687,0.0,0.27155206,0.67286867,0.2545467,0.0,-0.039006393,0.5458104,0.12673372,0.0,-0.44449395,0.14548455,814.3223,857.4359,804.65204,811.9048,718.8278,-0.42608642578125,0.0146484375,0.9068603515625,4.8748779296875,-3.745880126953125,1.39068603515625,1,1.0,1.0,1.0,1.0,45.00
2021-04-24 08:54:25.778,0.26427346,0.0,0.14923081,0.17437433,-0.108513504,0.0,0.020237291,0.29597312,0.58841914,0.0,0.11933877,0.7584913,0.1659926,0.0,0.009113199,0.44123164,-0.055982426,0.0,-0.37056088,0.0035703748,811.50183,818.7546,804.2491,810.696,755.4945,-0.4254150390625,0.00909423828125,0.90277099609375,4.239349365234375,-4.3963623046875,0.9869384765625,1,1.0,1.0,1.0,1.0,45.00
2021-04-24 08:54:26.282,0.50522345,0.0,0.30616996,0.1384482,-0.033893403,0.0,-0.039859213,0.39444748,0.3971782,0.0,0.07600813,0.7793209,0.20508014,0.0,0.016887046,0.3436266,-0.15266849,0.0,-0.3404783,-0.06289555,763.5531,840.10986,819.15753,761.13556,676.52014,-0.42742919921875,0.02484130859375,0.90167236328125,5.24871826171875,-3.42437744140625,0.19439697265625,1,1.0,1.0,1.0,1.0,45.00
2021-04-24 08:54:26.789,0.64912605,0.0,0.87867063,0.10859083,0.04004994,0.0,0.085038684,0.36620536,0.39605194,0.0,0.10086324,0.77190495,0.2822508,0.0,-0.04808703,0.21675645,-0.20208889,0.0,-0.36565205,-0.1696436,810.293,798.60803,805.8608,807.8755,825.2015,-0.430908203125,0.01617431640625,0.904296875,4.88983154296875,-3.476715087890625,1.532745361328125,1,1.0,1.0,1.0,1.0,45.00
2021-04-24 08:54:27.307,0.8463393,0.0,1.0487959,0.15544738,0.14073731,0.0,0.013475016,0.4562371,0.36433384,0.0,0.09139905,0.5139333,0.36565277,0.0,-0.023469849,0.32485616,-0.28098282,0.0,-0.39379606,-0.24392357,825.6044,814.7253,816.7399,817.5458,799.41394,-0.43115234375,0.01654052734375,0.90704345703125,4.852447509765625,-5.682373046875,0.874786376953125,1,1.0,1.0,1.0,1.0,45.00
2021-04-24 08:54:27.836,0.91893363,0.0,1.0253854,0.15544738,0.1672906,0.0,0.022158679,0.4562371,0.36197567,0.0,0.17469797,0.5139333,0.36594296,0.0,-0.008575843,0.32485616,-0.25972316,0.0,-0.37653404,-0.24392357,806.26373,832.4542,812.3077,807.0696,954.5421,-0.419189453125,0.01446533203125,0.90869140625,4.5758056640625,-5.30853271484375,0.919647216796875,1,1.0,1.0,1.0,1.0,45.00
2021-04-24 08:54:28.346,0.91893363,0.0,0.71015024,0.15544738,0.1672906,0.0,-0.21500626,0.4562371,0.36197567,0.0,0.17712547,0.5139333,0.36594296,0.0,-0.0538842,0.32485616,-0.25972316,0.0,-0.38382027,-0.24392357,821.5751,778.86444,812.3077,829.6337,801.02563,-0.41400146484375,0.00811767578125,0.90960693359375,4.807586669921875,-5.06927490234375,0.800018310546875,1,1.0,1.0,1.0,1.0,45.00
2021-04-24 08:54:28.855,0.11415851,0.0,0.18115091,-0.102030545,0.021326162,0.0,-0.13917503,0.20429443,0.50724,0.0,0.17299095,0.22077617,0.30515063,0.0,-0.15357281,0.30694222,-0.06952343,0.0,-0.3707316,0.13930011,823.9927,832.8571,815.5311,817.9487,755.4945,-0.421142578125,0.00994873046875,0.91107177734375,4.702911376953125,-3.93280029296875,0.411224365234375,1,1.0,1.0,1.0,1.0,45.00
2021-04-24 08:54:29.362,0.07101123,0.0,0.12686546,-0.100840375,-0.016583428,0.0,-0.23578103,0.14046678,0.5148509,0.0,0.2819499,0.24905287,0.30679566,0.0,-0.1573526,0.3766987,-0.13144417,0.0,-0.40989766,0.1686263,813.91943,881.2088,796.99634,796.1905,653.95605,-0.4161376953125,0.01324462890625,0.89892578125,4.605712890625,-4.56085205078125,1.42059326171875,1,1.0,1.0,1.0,1.0,45.00
2021-04-24 08:54:29.873,0.46235693,0.0,0.2706784,0.32625848,0.109166786,0.0,-0.1779281,0.22982666,0.5727526,0.0,0.32171178,0.38173732,0.2534764,0.0,-0.028838689,0.38730043,-0.07878676,0.0,-0.39329353,0.1625314,785.31134,773.6264,766.77655,786.9231,720.0366,-0.42156982421875,0.0125732421875,0.90997314453125,5.323486328125,-3.9776611328125,1.173858642578125,1,1.0,1.0,1.0,1.0,45.00
2021-04-24 08:54:30.376,0.83338076,0.0,0.67484736,0.4596829,0.28411087,0.0,-0.23234986,0.18275048,0.6653604,0.0,0.33720055,0.33784097,0.27203327,0.0,0.05957469,0.4318785,0.0064657764,0.0,-0.40814808,0.15093051,749.85345,807.0696,751.8681,746.2271,730.5128,-0.42578125,0.01043701171875,0.905517578125,4.7552490234375,-3.820648193359375,1.577606201171875,1,1.0,1.0,1.0,1.0,45.00
2021-04-24 08:54:30.883,1.0194981,0.0,0.84236956,0.69618356,0.41697875,0.0,-0.28054973,0.29463592,0.6653604,0.0,0.33166978,0.28655162,0.24692266,0.0,0.12919904,0.40332317,0.11421604,0.0,-0.45271128,0.08703964,783.2967,867.9121,780.4762,773.6264,645.09155,-0.4326171875,0.01171875,0.9085693359375,4.85992431640625,-4.83001708984375,1.21124267578125,1,1.0,4.0,1.0,1.0,45.00
2021-04-24 08:54:31.390,1.2146842,0.0,1.0401764,0.76684594,0.55745363,0.0,-0.4123069,0.36717898,0.6058064,0.0,0.097550444,0.25226763,0.3049784,0.0,0.15548007,0.39416713,0.22032192,0.0,-0.4020347,0.10975281,809.0842,829.6337,794.57874,801.02563,813.1135,-0.42999267578125,0.01153564453125,0.9073486328125,4.837493896484375,-4.029998779296875,1.0467529296875,1,1.0,1.0,1.0,1.0,45.00
2021-04-24 08:54:31.897,1.2146842,0.0,1.2059476,0.76684594,0.55745363,0.0,0.30222416,0.36717898,0.6058064,0.0,0.47901928,0.25226763,0.3049784,0.0,0.072983846,0.39416713,0.22032192,0.0,-0.55324954,0.10975281,803.8461,842.52747,813.1135,793.7729,770.40295,-0.4345703125,0.0145263671875,0.90240478515625,4.658050537109375,-4.5458984375,1.1962890625,1,1.0,1.0,1.0,1.0,45.00
2021-04-24 08:54:32.413,1.2146842,0.0,1.0010889,1.2077174,0.55745363,0.0,0.25487632,0.62262124,0.6058064,0.0,0.5625092,0.33322415,0.3049784,0.0,-0.0029505866,0.4733674,0.22032192,0.0,-0.55996805,0.13200812,823.1868,775.64105,836.08057,826.8132,868.315,-0.4361572265625,0.01092529296875,0.9024658203125,4.732818603515625,-4.0972900390625,1.173858642578125,1,1.0,1.0,1.0,1.0,45.00
2021-04-24 08:54:32.921,1.2146842,0.0,0.93625945,1.2077174,0.55745363,0.0,0.25036368,0.62262124,0.6058064,0.0,0.5754965,0.33322415,0.3049784,0.0,0.05443167,0.4733674,0.22032192,0.0,-0.55951476,0.13200812,824.7985,809.89014,811.9048,811.9048,785.31134,-0.438232421875,0.0130615234375,0.901123046875,4.35150146484375,-5.316009521484375,0.95703125,1,1.0,4.0,1.0,1.0,45.00
2021-04-24 08:54:33.428,1.2146842,0.0,0.9307423,1.2077174,0.55745363,0.0,0.17869736,0.62262124,0.6058064,0.0,0.4589298,0.33322415,0.3049784,0.0,0.07128538,0.4733674,0.22032192,0.0,-0.44751102,0.13200812,820.3663,852.1978,822.7839,815.5311,753.47986,-0.44171142578125,0.0111083984375,0.89703369140625,4.5458984375,-4.029998779296875,1.188812255859375,1,1.0,1.0,1.0,1.0,45.00
2021-04-24 08:54:33.940,1.2146842,0.0,0.95885235,0.93193054,0.55745363,0.0,0.15150936,0.4355003,0.6058064,0.0,0.27131286,0.46202832,0.3049784,0.0,0.1466153,0.6849503,0.22032192,0.0,-0.36209124,0.26713344,824.7985,787.72894,817.9487,823.1868,788.93774,-0.43890380859375,0.01776123046875,0.9017333984375,5.12908935546875,-5.809478759765625,1.114044189453125,1,1.0,1.0,1.0,1.0,45.00
2021-04-24 08:54:34.447,0.678376,0.0,0.9569902,0.7693353,0.31719083,0.0,0.1416294,0.24662788,0.5331051,0.0,0.2293743,0.47534832,0.3513341,0.0,0.08860601,0.66597885,0.07332834,0.0,-0.31271815,0.26792964,812.3077,807.0696,814.7253,817.5458,855.42126,-0.44744873046875,0.00238037109375,0.89508056640625,4.77020263671875,-4.11224365234375,0.70281982421875,1,1.0,1.0,1.0,1.0,45.00
2021-04-24 08:54:34.974,0.54699534,0.0,0.747727,0.807987,0.41560313,0.0,0.1965801,0.530009,0.24254228,0.0,0.06620365,0.6546819,0.29504952,0.0,0.040333543,0.59367585,-0.057804827,0.0,-0.3392987,0.26532662,823.1868,848.1685,823.9927,808.68134,734.5421,-0.44464111328125,0.00653076171875,0.894287109375,4.91973876953125,-4.844970703125,1.143951416015625,1,1.0,1.0,1.0,1.0,45.00
2021-04-24 08:54:35.478,0.3362398,0.0,0.5256051,0.57537454,0.33967793,0.0,0.070005834,0.47905603,0.3380595,0.0,0.09225391,0.6224675,0.20597531,0.0,-0.06017549,0.48288155,-0.1608309,0.0,-0.3987023,0.2151369,818.7546,809.0842,813.1135,822.7839,751.8681,-0.44427490234375,0.01055908203125,0.89898681640625,4.8748779296875,-6.452484130859375,1.39068603515625,1,1.0,1.0,1.0,1.0,45.00
2021-04-24 08:54:35.987,0.18013012,0.0,0.2915792,0.4201243,0.22410768,0.0,-0.16287933,0.43820438,0.3380595,0.0,0.036345467,0.626202,0.16951452,0.0,-0.009857067,0.34486273,-0.20350781,0.0,-0.47314918,0.2395888,812.71063,841.31866,819.9634,805.8608,744.21246,-0.43731689453125,0.01361083984375,0.9010009765625,4.41131591796875,-4.852447509765625,0.829925537109375,1,1.0,1.0,1.0,1.0,45.00
2021-04-24 08:54:36.503,-0.08961747,0.0,0.05902907,0.004377516,-0.07805622,0.0,-0.52229035,-0.14258459,0.2582751,0.0,-0.017721072,0.37368113,0.2255755,0.0,-0.052176263,0.2662436,-0.06956833,0.0,-0.5043915,0.26921144,819.15753,843.3333,814.3223,811.0989,725.6777,-0.4132080078125,-0.003173828125,0.91265869140625,3.686065673828125,-8.23944091796875,-1.21124267578125,1,1.0,1.0,1.0,1.0,45.00
2021-04-24 08:54:37.009,0.040443856,0.0,-0.028262796,0.034216486,-0.11491614,0.0,-0.45250818,-0.23006374,0.24538288,0.0,-0.054159883,0.31767085,0.37420547,0.0,-0.118770555,0.20133159,-0.00475631,0.0,-0.47914022,0.25302076,811.0989,730.10986,815.5311,803.8461,979.92676,-0.34442138671875,0.0643310546875,0.9464111328125,9.82452392578125,-15.71624755859375,4.927215576171875,1,1.0,1.0,1.0,1.0,45.00
2021-04-24 08:54:37.513,0.6710035,0.0,-0.13267596,0.4092155,0.20929123,0.0,-0.37774253,-0.28329155,0.5690867,0.0,-0.028724624,0.4669857,0.5211553,0.0,-0.22631444,0.3263994,0.053771287,0.0,-0.45175388,0.19604538,816.337,715.6044,808.2784,801.8315,1060.9158,-0.359375,0.03094482421875,0.931396484375,0.381317138671875,-0.949554443359375,-2.9010009765625,1,1.0,1.0,1.0,1.0,45.00
2021-04-24 08:54:38.029,0.83487123,0.0,0.028638916,0.59318256,0.33990756,0.0,-0.3509813,-0.3178143,0.75172603,0.0,0.011526097,0.48539582,0.56748384,0.0,-0.2015072,0.5447065,0.029130293,0.0,-0.39121705,0.15183969,813.91943,822.7839,802.6374,812.71063,735.7509,-0.37335205078125,0.02667236328125,0.9219970703125,4.658050537109375,2.0037841796875,2.280426025390625,1,1.0,1.0,1.0,1.0,45.00
2021-04-24 08:54:38.541,1.0349905,0.0,0.22588567,0.7601397,0.67146075,0.0,-0.111796476,-0.35773525,0.7488762,0.0,0.39051718,0.48539582,0.47730565,0.0,-0.0605896,0.6477277,0.15533735,0.0,-0.33828932,0.18821113,815.5311,801.8315,807.0696,807.47253,785.7143,-0.45465087890625,0.01446533203125,0.88897705078125,2.55706787109375,3.51409912109375,-1.457977294921875,1,1.0,1.0,1.0,1.0,45.00
2021-04-24 08:54:39.069,0.9483392,0.0,0.36901194,0.69956833,0.7294952,0.0,-0.12701908,-0.32918555,0.638292,0.0,0.38973328,0.45743868,0.124068476,0.0,-0.020375945,0.7168376,0.16417071,0.0,-0.26994103,0.20455001,801.02563,833.663,821.978,794.9817,732.9304,-0.45526123046875,0.03594970703125,0.8759765625,4.538421630859375,-8.366546630859375,-1.5850830078125,1,1.0,4.0,1.0,1.0,45.00
2021-04-24 08:54:39.572,1.0211475,0.0,0.4915793,0.69956833,0.821612,0.0,0.107054755,-0.32918555,0.46791556,0.0,0.3990858,0.45743868,0.10973961,0.0,0.040776085,0.7168376,0.23903486,0.0,-0.2821736,0.20455001,823.9927,842.52747,810.293,818.3516,778.46155,-0.4468994140625,0.0460205078125,0.90582275390625,3.491668701171875,-4.418792724609375,2.22808837890625,1,1.0,1.0,1.0,1.0,45.00
2021-04-24 08:54:40.081,1.0211475,0.0,0.5411404,0.69956833,0.821612,0.0,0.16398436,-0.32918555,0.46791556,0.0,0.33291322,0.45743868,0.10973961,0.0,0.020218177,0.7168376,0.23903486,0.0,-0.28862572,0.20455001,821.5751,726.8865,813.1135,834.87177,1066.5568,-0.441650390625,0.00213623046875,0.88909912109375,3.925323486328125,-4.0374755859375,-1.009368896484375,1,1.0,1.0,1.0,1.0,45.00
2021-04-24 08:54:40.591,0.9180876,0.0,0.4731621,0.69956833,0.30649874,0.0,0.21386857,-0.32918555,0.6638263,0.0,0.0027505038,0.45743868,0.39464283,0.0,-0.047031198,0.7168376,0.1346771,0.0,-0.30737504,0.20455001,805.4579,829.2308,807.8755,796.1905,766.3736,-0.4393310546875,0.0177001953125,0.90045166015625,4.538421630859375,-6.20574951171875,1.15142822265625,1,1.0,1.0,1.0,1.0,45.00
2021-04-24 08:54:41.111,0.8743791,0.0,0.34560922,0.69956833,0.26744673,0.0,0.11709583,-0.32918555,0.7602501,0.0,0.2945168,0.45743868,0.419709,0.0,-0.05811611,0.7168376,0.08631694,0.0,-0.32460263,0.20455001,809.0842,808.2784,806.26373,804.2491,760.7326,-0.441650390625,0.01104736328125,0.90643310546875,4.224395751953125,-3.461761474609375,0.88226318359375,1,1.0,1.0,1.0,1.0,45.00
2021-04-24 08:54:41.612,0.8930252,0.0,0.42342907,0.93320864,0.51246876,0.0,0.12350866,0.58327883,0.8142325,0.0,0.3027504,0.52973175,0.44329762,0.0,-0.051408634,0.58584434,-0.017624956,0.0,-0.351806,0.2723055,800.6227,828.8278,809.4872,812.71063,761.53845,-0.4417724609375,0.01324462890625,0.89776611328125,5.15899658203125,-4.089813232421875,1.786956787109375,1,1.0,1.0,1.0,1.0,45.00
2021-04-24 08:54:42.121,0.86698174,0.0,0.5090685,1.0995377,0.6300434,0.0,0.14858375,0.7417939,0.7499296,0.0,0.4724862,0.6142691,0.38591775,0.0,-0.020463137,0.5708784,-0.036558602,0.0,-0.41421193,0.26278827,808.2784,814.7253,811.50183,808.2784,753.47986,-0.44873046875,0.0135498046875,0.89459228515625,4.6954345703125,-3.596343994140625,1.136474609375,1,1.0,1.0,1.0,1.0,45.00
2021-04-24 08:54:42.656,0.89597535,0.0,0.67921805,1.1047205,0.68507016,0.0,0.14704268,0.7676999,0.78682536,0.0,0.5106049,0.7226505,0.33507103,0.0,0.052934162,0.53995895,-0.06588466,0.0,-0.35015678,0.23224965,793.36993,816.7399,806.26373,793.7729,854.61536,-0.44757080078125,0.01593017578125,0.8922119140625,4.71038818359375,-4.94964599609375,2.011260986328125,1,1.0,1.0,1.0,1.0,45.00
