TimeStamp,Delta_TP9,Delta_AF7,Delta_AF8,Delta_TP10,Theta_TP9,Theta_AF7,Theta_AF8,Theta_TP10,Alpha_TP9,Alpha_AF7,Alpha_AF8,Alpha_TP10,Beta_TP9,Beta_AF7,Beta_AF8,Beta_TP10,Gamma_TP9,Gamma_AF7,Gamma_AF8,Gamma_TP10,RAW_TP9,RAW_AF7,RAW_AF8,RAW_TP10,AUX_RIGHT,Accelerometer_X,Accelerometer_Y,Accelerometer_Z,Gyro_X,Gyro_Y,Gyro_Z,HeadBandOn,HSI_TP9,HSI_AF7,HSI_AF8,HSI_TP10,Battery,Elements
2021-04-29 08:54:13.521,1.1227818,-0.072251305,0.539314,0.96356106,0.47946784,-0.23197147,-0.11291928,0.28755015,0.47055432,-0.17789194,0.35474843,0.46966243,0.5986736,0.5852104,0.32894683,0.61753315,0.4436907,0.41950926,0.37367445,0.5413249,801.8315,786.52014,800.2198,801.4286,806.26373,0.0416259765625,0.0716552734375,0.99951171875,5.42816162109375,-3.15521240234375,1.577606201171875,1,2.0,1.0,1.0,2.0,65.00
2021-04-29 08:54:14.028,1.1227818,-0.072251305,0.34692425,0.96356106,0.47946784,-0.23197147,-0.3090742,0.28755015,0.47055432,-0.17789194,0.07707925,0.46966243,0.5986736,0.5852104,0.3443318,0.61753315,0.4436907,0.41950926,0.36352718,0.5413249,797.8022,803.8461,804.2491,798.60803,747.03296,0.0390625,0.08233642578125,1.00250244140625,5.076751708984375,-7.379608154296875,-8.314208984375,1,2.0,1.0,1.0,2.0,65.00
2021-04-29 08:54:14.536,1.1227818,0.3549481,0.27045715,0.96356106,0.47946784,0.24294282,-0.3674126,0.28755015,0.47055432,0.20711799,0.034013916,0.46966243,0.5986736,0.8390739,0.37896222,0.61753315,0.4436907,0.54160905,0.23284876,0.5413249,822.381,800.2198,801.4286,819.9634,773.22345,0.10693359375,0.0633544921875,0.98834228515625,2.803802490234375,-12.104949951171875,-3.45428466796875,1,2.0,1.0,1.0,2.0,65.00
2021-04-29 08:54:15.038,0.053281475,0.3549481,0.13618566,0.33579305,-0.0831017,0.24294282,-0.3692104,-0.29128754,0.062542334,0.20711799,0.23589532,0.21797614,0.4377259,0.8390739,0.34052098,0.54920894,0.09344102,0.54160905,0.22375475,0.20086105,809.89014,773.22345,810.293,796.1905,937.619,0.147705078125,0.0997314453125,0.97882080078125,5.443115234375,-3.880462646484375,7.409515380859375,1,1.0,1.0,1.0,1.0,65.00
2021-04-29 08:54:15.550,0.053281475,0.08023462,0.25359902,0.6030657,-0.0831017,-0.094860524,-0.045302633,-0.22396418,0.062542334,0.08615858,0.45871177,0.4627283,0.4377259,0.78307766,0.27681446,0.5547153,0.09344102,0.60700333,0.0670861,0.22317441,477.47253,790.14655,792.5641,454.10257,743.4066,0.0977783203125,0.1239013671875,1.00738525390625,4.284210205078125,-1.9439697265625,-8.23944091796875,1,1.0,1.0,1.0,1.0,65.00
2021-04-29 08:54:15.756,,,,,,,,,,,,,,,,,,,,,,,,,,,,,,,,,,,,,,/muse/elements/blink
2021-04-29 08:54:16.060,0.101308644,0.08023462,1.0931227,0.75762194,-0.15971453,-0.094860524,0.6436846,-0.13101493,0.003373813,0.08615858,1.0126703,0.4627283,0.44912377,0.78307766,0.20504434,0.5637115,0.11882347,0.60700333,-0.1595889,0.2738877,824.3956,815.9341,819.15753,824.3956,826.0073,0.0560302734375,0.2083740234375,0.93572998046875,7.8057861328125,4.3365478515625,20.568695068359375,1,1.0,1.0,1.0,1.0,65.00
2021-04-29 08:54:16.373,,,,,,,,,,,,,,,,,,,,,,,,,,,,,,,,,,,,,,/muse/elements/blink
2021-04-29 08:54:16.568,0.101308644,0.08023462,1.2569374,0.88617927,-0.15971453,-0.094860524,0.80658776,-0.11431812,0.003373813,0.08615858,1.0057566,0.42985606,0.44912377,0.78307766,0.15420379,0.5655229,0.11882347,0.60700333,-0.38738802,0.2646309,823.9927,869.92676,839.707,825.2015,777.25275,0.11468505859375,0.13623046875,0.98712158203125,11.207733154296875,-3.820648193359375,13.03955078125,1,1.0,1.0,1.0,1.0,65.00
2021-04-29 08:54:16.897,,,,,,,,,,,,,,,,,,,,,,,,,,,,,,,,,,,,,,/muse/elements/blink
2021-04-29 08:54:17.076,0.101308644,0.08023462,1.3332983,0.88617927,-0.15971453,-0.094860524,0.83317584,-0.11431812,0.003373813,0.08615858,0.9760186,0.42985606,0.44912377,0.78307766,0.05333662,0.5655229,0.11882347,0.60700333,-0.3660161,0.2646309,834.0659,786.9231,819.9634,843.3333,719.6337,0.12982177734375,0.04052734375,1.0072021484375,-4.5758056640625,-8.53851318359375,9.031982421875,1,1.0,1.0,1.0,1.0,65.00
2021-04-29 08:54:17.581,0.101308644,0.08023462,1.1466938,0.88617927,-0.15971453,-0.094860524,0.5893678,-0.11431812,0.003373813,0.08615858,0.6578158,0.42985606,0.44912377,0.78307766,-0.06829336,0.5655229,0.11882347,0.60700333,-0.19788343,0.2646309,823.5897,813.5165,804.65204,818.3516,760.32965,0.12677001953125,0.0699462890625,0.97265625,2.691650390625,-9.233856201171875,7.76092529296875,1,1.0,1.0,1.0,1.0,65.00
2021-04-29 08:54:17.892,,,,,,,,,,,,,,,,,,,,,,,,,,,,,,,,,,,,,,/muse/elements/blink
2021-04-29 08:54:18.087,0.101308644,0.08023462,1.1646496,0.88617927,-0.15971453,-0.094860524,0.67543834,-0.11431812,0.003373813,0.08615858,0.7021001,0.42985606,0.44912377,0.78307766,-0.0478434,0.5655229,0.11882347,0.60700333,-0.23768282,0.2646309,890.4762,840.5128,798.20514,871.9414,724.87177,0.22308349609375,0.029541015625,0.98291015625,5.854339599609375,-5.046844482421875,-0.171966552734375,1,1.0,1.0,1.0,1.0,65.00
2021-04-29 08:54:18.596,0.101308644,0.08023462,1.1059927,0.88617927,-0.15971453,-0.094860524,0.6234362,-0.11431812,0.003373813,0.08615858,0.7021001,0.42985606,0.44912377,0.78307766,-0.03784053,0.5655229,0.11882347,0.60700333,-0.3033867,0.2646309,801.4286,802.23444,801.8315,792.5641,713.9927,0.2515869140625,0.07305908203125,0.9825439453125,5.203857421875,-10.09368896484375,-2.76641845703125,1,2.0,1.0,1.0,2.0,65.00
2021-04-29 08:54:19.092,,,,,,,,,,,,,,,,,,,,,,,,,,,,,,,,,,,,,,/muse/elements/blink
2021-04-29 08:54:19.120,0.101308644,0.08023462,0.87780935,0.88617927,-0.15971453,-0.094860524,0.38615772,-0.11431812,0.003373813,0.08615858,0.5595241,0.42985606,0.44912377,0.78307766,-0.07247619,0.5655229,0.11882347,0.60700333,-0.4062116,0.2646309,942.0513,821.1722,796.1905,951.31866,840.9158,0.1961669921875,0.09356689453125,0.99517822265625,7.902984619140625,-1.854248046875,4.358978271484375,1,2.0,1.0,1.0,2.0,65.00
2021-04-29 08:54:19.646,0.101308644,0.08023462,0.79069823,0.88617927,-0.15971453,-0.094860524,0.39158997,-0.11431812,0.003373813,0.08615858,0.26839843,0.42985606,0.44912377,0.78307766,-0.099742405,0.5655229,0.11882347,0.60700333,-0.42405787,0.2646309,813.91943,803.0403,813.1135,816.337,755.09155,0.15533447265625,0.07122802734375,0.99029541015625,6.317901611328125,-4.05242919921875,9.40582275390625,1,2.0,1.0,1.0,2.0,65.00
2021-04-29 08:54:20.151,0.101308644,0.08023462,0.95089227,0.88617927,-0.15971453,-0.094860524,0.56478465,-0.11431812,0.003373813,0.08615858,0.33794755,0.42985606,0.44912377,0.78307766,-0.026459904,0.5655229,0.11882347,0.60700333,-0.3040703,0.2646309,825.6044,798.20514,809.4872,804.2491,776.04395,0.150146484375,0.0662841796875,0.98797607421875,2.310333251953125,-0.4486083984375,8.56842041015625,1,2.0,1.0,1.0,2.0,65.00
2021-04-29 08:54:20.667,0.101308644,0.08023462,0.9900498,0.88617927,-0.15971453,-0.094860524,0.58746713,-0.11431812,0.003373813,0.08615858,0.31263736,0.42985606,0.44912377,0.78307766,-0.031213881,0.5655229,0.11882347,0.60700333,-0.29017472,0.2646309,804.2491,799.41394,811.0989,807.47253,817.1429,0.14129638671875,0.06689453125,0.98077392578125,8.912353515625,-5.465545654296875,4.837493896484375,1,2.0,1.0,1.0,2.0,65.00
2021-04-29 08:54:21.187,0.11405043,0.53245366,0.812829,-0.11302951,0.29568806,0.14970192,0.39469948,0.3587506,0.2457527,0.13295987,0.3251589,0.44009116,0.40933558,0.6668746,-0.028125206,0.47052214,0.6023258,0.36520708,-0.27865696,0.30305624,793.36993,813.91943,810.293,789.7436,722.8571,0.117431640625,0.050537109375,0.99688720703125,4.6356201171875,-3.850555419921875,8.53851318359375,1,2.0,1.0,1.0,2.0,60.00
2021-04-29 08:54:21.697,0.7628442,0.53245366,0.6821234,-0.0014490964,0.68589145,0.14970192,0.17254968,0.23883736,0.6666835,0.13295987,0.22778265,0.5900108,0.506241,0.6668746,0.057534177,0.55808526,0.5332344,0.36520708,-0.3610903,0.32628483,806.6667,795.78754,803.8461,803.8461,788.93774,0.12939453125,0.0587158203125,0.97479248046875,5.345916748046875,-7.723541259765625,4.284210205078125,1,1.0,1.0,1.0,1.0,60.00
2021-04-29 08:54:22.052,,,,,,,,,,,,,,,,,,,,,,,,,,,,,,,,,,,,,,/muse/elements/blink
2021-04-29 08:54:22.216,0.7288421,0.5632227,0.7100407,0.050160334,0.64198315,0.191178,0.23016475,0.19501121,0.6736329,0.1204125,0.273356,0.6096118,0.5411575,0.67854196,0.11107769,0.6048296,0.511083,0.3833998,-0.36213905,0.31046757,797.3993,810.696,800.2198,794.9817,787.326,0.1292724609375,0.04119873046875,0.98577880859375,2.5421142578125,-7.215118408203125,-8.11981201171875,1,1.0,1.0,1.0,1.0,60.00
2021-04-29 08:54:22.738,0.9063252,0.5632227,1.1321965,0.12167031,0.77753764,0.191178,0.5302956,0.06325614,0.6734931,0.1204125,0.3916479,0.5762,0.6110211,0.67854196,0.18223904,0.66628337,0.43749604,0.3833998,-0.40357253,0.3146465,816.7399,812.71063,811.9048,811.0989,761.53845,0.15728759765625,0.05072021484375,0.99462890625,4.80010986328125,-4.94964599609375,3.289794921875,1,1.0,1.0,1.0,1.0,60.00
2021-04-29 08:54:23.248,0.8347555,0.5632227,1.1069636,0.24293858,0.72446394,0.191178,0.48343647,-0.05321729,0.6723119,0.1204125,0.33334097,0.5480907,0.61837816,0.67854196,0.13538611,0.7462754,0.46681452,0.3833998,-0.42167535,0.26021168,814.3223,769.59705,807.0696,831.6484,926.337,0.1328125,0.0501708984375,0.9881591796875,2.9608154296875,-6.826324462890625,-0.46356201171875,1,1.0,1.0,1.0,1.0,60.00
2021-04-29 08:54:23.757,1.1878798,0.35505745,1.0756012,0.24293858,0.3461556,-0.088647455,0.41625023,-0.05321729,0.6385275,0.15420961,0.31463167,0.5480907,0.7341165,0.70338506,0.06462823,0.7462754,0.39689642,0.3035847,-0.48262376,0.26021168,809.89014,815.5311,816.337,809.4872,759.5238,0.1497802734375,0.045654296875,1.00189208984375,4.358978271484375,-4.777679443359375,5.779571533203125,1,1.0,1.0,1.0,1.0,60.00
2021-04-29 08:54:24.258,1.0032917,0.26231372,0.5333152,0.24293858,0.2842367,-0.19147125,-0.14407273,-0.05321729,0.6385275,0.16338645,0.09024633,0.5480907,0.6521595,0.676828,-0.09728076,0.7462754,0.36027125,0.29917297,-0.45338172,0.26021168,807.8755,811.50183,820.7692,807.0696,723.663,0.16290283203125,0.02081298828125,0.9808349609375,5.45806884765625,-9.58526611328125,3.087921142578125,1,1.0,1.0,1.0,1.0,60.00
2021-04-29 08:54:24.769,0.9837439,0.16847222,0.699796,0.7189454,0.29744053,-0.23457043,0.32369125,0.2887502,0.7372249,0.14716701,0.6333749,0.6600079,0.64699763,0.6684178,-0.11924003,0.72239476,0.36897418,0.2830938,-0.4572583,0.44919893,799.41394,803.8461,803.8461,807.8755,786.9231,0.13214111328125,0.0189208984375,0.98455810546875,3.87298583984375,-1.18133544921875,1.173858642578125,1,1.0,1.0,1.0,1.0,60.00
2021-04-29 08:54:25.287,0.87528694,0.07045799,0.88634884,0.55156726,0.34331736,-0.41383165,0.4303259,0.2888863,0.69434917,-0.048581067,0.63189864,0.6600079,0.57725686,0.6336746,-0.053135708,0.70913154,0.32279196,0.29247016,-0.4396937,0.47813138,805.4579,806.26373,801.8315,796.1905,948.0952,0.0887451171875,-0.00341796875,0.98175048828125,6.0113525390625,-1.682281494140625,-0.4486083984375,1,1.0,1.0,1.0,1.0,60.00
2021-04-29 08:54:25.793,0.83118826,-0.039210487,0.8749019,0.44549388,0.35026056,-0.103639044,0.44179732,0.23125787,0.7025783,-0.15300065,0.63189864,0.7685824,0.5138265,0.6620543,-0.030766807,0.7199843,0.1951729,0.2147629,-0.49421242,0.37103906,812.3077,803.44324,812.3077,818.3516,739.7802,0.09765625,0.0380859375,0.9949951171875,7.37213134765625,-5.241241455078125,2.49725341796875,1,1.0,1.0,1.0,1.0,60.00
2021-04-29 08:54:26.322,0.6113373,-0.076753415,0.59817886,0.44855464,0.14890102,-0.14336552,0.10600421,0.18504107,0.5169885,-0.025966968,0.30847982,0.74174976,0.42342013,0.62918425,-0.11425483,0.694884,0.17855404,0.22716768,-0.5225018,0.24207278,805.4579,810.293,805.05493,796.1905,852.1978,0.1195068359375,0.0606689453125,0.9967041015625,6.65435791015625,-6.53472900390625,0.874786376953125,1,1.0,1.0,1.0,1.0,60.00
2021-04-29 08:54:26.521,,,,,,,,,,,,,,,,,,,,,,,,,,,,,,,,,,,,,,/muse/elements/blink
2021-04-29 08:54:26.826,0.41633457,0.008754149,0.6234885,0.37664342,0.10991774,-0.2056597,0.004415854,0.12796114,0.2524185,0.0040509403,0.033312812,0.7164748,0.4007306,0.62206244,-0.005448619,0.6528162,0.15736918,0.22614574,-0.54741716,0.15739405,838.9011,824.3956,805.4579,824.3956,672.49084,0.06829833984375,0.08929443359375,1.0103759765625,9.4805908203125,-2.52716064453125,-2.572021484375,1,1.0,1.0,1.0,1.0,60.00
2021-04-29 08:54:27.337,0.5285855,0.008075198,0.75228924,0.4741746,-0.032801658,-0.2878223,0.04346884,0.062173914,0.030789439,-0.078563705,-0.060911004,0.6912905,0.3993594,0.59044784,0.069792636,0.6483738,0.24028435,0.25296748,-0.5620389,0.09491772,686.5934,805.05493,809.0842,693.44324,736.9597,0.0699462890625,0.12750244140625,0.99542236328125,6.80389404296875,-3.54400634765625,-2.52716064453125,1,1.0,1.0,1.0,1.0,60.00
2021-04-29 08:54:27.367,,,,,,,,,,,,,,,,,,,,,,,,,,,,,,,,,,,,,,/muse/elements/blink
2021-04-29 08:54:27.543,,,,,,,,,,,,,,,,,,,,,,,,,,,,,,,,,,,,,,/muse/elements/blink
2021-04-29 08:54:27.843,0.5276783,0.16578925,1.1856623,0.47388583,-0.10020162,-0.37551865,0.52767575,0.0110323755,0.024149459,-0.08804572,0.66667384,0.61792254,0.42373303,0.59539133,0.200614,0.667785,0.2523553,0.23503911,-0.5092638,0.087661214,792.96704,829.6337,816.337,802.23444,831.2454,0.10015869140625,0.13916015625,0.9805908203125,5.48797607421875,-6.482391357421875,-2.10845947265625,1,1.0,1.0,1.0,1.0,60.00
2021-04-29 08:54:28.348,0.5276783,0.16578925,1.3626889,0.47388583,-0.10020162,-0.37551865,0.76983553,0.0110323755,0.024149459,-0.08804572,0.69499046,0.61792254,0.42373303,0.59539133,0.056432877,0.667785,0.2523553,0.23503911,-0.335759,0.087661214,794.57874,828.8278,799.41394,779.2674,711.978,0.0701904296875,0.1263427734375,0.9595947265625,0.530853271484375,-0.7177734375,7.304840087890625,1,1.0,1.0,1.0,1.0,60.00
2021-04-29 08:54:28.756,,,,,,,,,,,,,,,,,,,,,,,,,,,,,,,,,,,,,,/muse/elements/blink
2021-04-29 08:54:28.857,0.5276783,0.16578925,1.3283778,0.47388583,-0.10020162,-0.37551865,0.8174289,0.0110323755,0.024149459,-0.08804572,0.75469095,0.61792254,0.42373303,0.59539133,0.04546164,0.667785,0.2523553,0.23503911,-0.41602975,0.087661214,817.1429,794.57874,806.6667,816.337,933.1868,0.05029296875,0.0792236328125,1.00201416015625,0.306549072265625,-1.786956787109375,8.695526123046875,1,1.0,1.0,1.0,1.0,60.00
2021-04-29 08:54:29.359,0.5276783,0.16578925,1.1981611,0.47388583,-0.10020162,-0.37551865,0.61865795,0.0110323755,0.024149459,-0.08804572,0.6392683,0.61792254,0.42373303,0.59539133,0.04893147,0.667785,0.2523553,0.23503911,-0.41621858,0.087661214,805.4579,808.2784,817.1429,810.696,745.42126,0.0247802734375,0.045654296875,0.99896240234375,2.55706787109375,-3.42437744140625,0.777587890625,1,2.0,1.0,1.0,2.0,60.00
2021-04-29 08:54:29.861,0.5276783,0.16578925,1.0780759,0.47388583,-0.10020162,-0.37551865,0.51503396,0.0110323755,0.024149459,-0.08804572,0.5755272,0.61792254,0.42373303,0.59539133,0.016007457,0.667785,0.2523553,0.23503911,-0.46626496,0.087661214,869.92676,837.6923,812.3077,865.09155,739.7802,0.01873779296875,0.0283203125,1.00579833984375,5.929107666015625,-5.1739501953125,7.813262939453125,1,2.0,1.0,1.0,2.0,60.00
2021-04-29 08:54:30.366,0.5276783,0.49587175,0.76723677,0.47388583,-0.10020162,0.31611532,-0.0778772,0.0110323755,0.024149459,0.31481272,0.10218054,0.61792254,0.42373303,0.61269134,-0.044643674,0.667785,0.2523553,0.41956732,-0.49489304,0.087661214,787.326,792.96704,809.0842,795.38464,789.34064,0.0545654296875,0.0040283203125,0.9996337890625,5.076751708984375,-2.811279296875,5.480499267578125,1,2.0,1.0,1.0,2.0,60.00
2021-04-29 08:54:30.869,0.5276783,0.69091725,0.48217493,0.47388583,-0.10020162,0.41458714,-0.12752123,0.0110323755,0.024149459,0.32767242,0.11948286,0.61792254,0.42373303,0.6302298,-0.020921724,0.667785,0.2523553,0.4047781,-0.507188,0.087661214,836.8865,812.71063,811.50183,834.0659,752.674,0.0755615234375,0.0501708984375,1.0009765625,6.220703125,-5.5328369140625,8.934783935546875,1,2.0,1.0,1.0,2.0,60.00
2021-04-29 08:54:31.376,0.5276783,0.69593513,0.20508757,0.47388583,-0.10020162,0.36837956,-0.16582836,0.0110323755,0.024149459,0.3676227,0.13911112,0.61792254,0.42373303,0.59816104,-0.045787033,0.667785,0.2523553,0.41070423,-0.4443454,0.087661214,797.3993,805.8608,804.65204,796.99634,765.56775,0.06396484375,0.04388427734375,1.0045166015625,4.433746337890625,-4.65057373046875,2.415008544921875,1,2.0,1.0,1.0,2.0,70.00
2021-04-29 08:54:31.900,0.5276783,0.66630125,0.23673885,0.47388583,-0.10020162,0.18305957,-0.13711138,0.0110323755,0.024149459,0.36651826,0.12267664,0.61792254,0.42373303,0.57190984,-0.04674497,0.667785,0.2523553,0.36413527,-0.4779427,0.087661214,808.68134,813.1135,795.78754,801.8315,800.6227,0.03424072265625,0.037353515625,1.00030517578125,6.11602783203125,-0.88226318359375,-2.803802490234375,1,2.0,1.0,1.0,2.0,70.00
2021-04-29 08:54:32.414,0.60026735,0.5343162,0.33469805,0.5227273,0.30576152,-0.062194776,-0.10722846,0.20072854,0.0019444097,0.3763258,-0.11661368,0.23062783,0.456887,0.52818495,-0.18404953,0.4420265,0.28854832,0.28496966,-0.5454919,0.13942665,793.7729,816.7399,799.81683,780.87915,743.8095,0.06256103515625,0.05303955078125,1.005126953125,6.3104248046875,-5.301055908203125,-2.160797119140625,1,1.0,1.0,1.0,1.0,70.00
2021-04-29 08:54:32.919,0.59324,0.58670884,0.43521765,0.34296432,0.36703154,-0.01764522,-0.110115334,0.031450152,0.4886495,0.33652523,-0.102147624,0.6761802,0.41966993,0.51226574,-0.21963368,0.4981532,0.282833,0.2953327,-0.6661116,0.1782984,787.72894,823.1868,798.20514,785.31134,763.95605,0.06103515625,0.052001953125,1.0035400390625,5.75714111328125,-4.269256591796875,3.850555419921875,1,1.0,1.0,1.0,1.0,70.00
2021-04-29 08:54:33.442,0.49415386,0.6155309,0.40218484,0.35849148,0.32499814,0.07777636,-0.13609762,-0.017090669,0.4886495,-0.014865243,-0.13496237,0.6761802,0.37352538,0.5264342,-0.2670252,0.5089367,0.23637164,0.12179906,-0.67908293,0.16967154,808.2784,809.4872,782.49084,790.9524,780.07324,0.0859375,0.05218505859375,1.00628662109375,4.448699951171875,-5.7122802734375,2.75146484375,1,1.0,1.0,1.0,1.0,70.00
2021-04-29 08:54:33.968,0.48393402,0.694083,0.35068235,0.40144482,0.2644484,0.04912427,-0.14789046,-0.009587117,0.48981103,0.15091705,-0.11332273,0.68612623,0.38237053,0.59249765,-0.17376693,0.613271,0.21130817,0.2033664,-0.73396796,0.15520824,807.47253,819.15753,800.2198,798.60803,791.3553,0.0408935546875,0.05224609375,0.99884033203125,2.7813720703125,-3.170166015625,-3.94775390625,1,1.0,1.0,1.0,1.0,70.00
2021-04-29 08:54:34.497,0.38284492,0.91288614,0.668094,0.5525835,0.048249174,0.67236286,-0.18501309,0.12133179,0.28266233,0.7004291,0.056453038,0.48238343,0.398448,0.707761,-0.100469634,0.68906593,0.15607527,0.20898366,-0.65036964,0.13044006,807.47253,801.8315,791.3553,799.41394,749.45056,0.0638427734375,0.05181884765625,0.99371337890625,2.579498291015625,-5.869293212890625,-0.8074951171875,1,1.0,1.0,1.0,1.0,70.00
2021-04-29 08:54:35.007,0.90334606,0.98089564,0.95035493,0.7640814,0.44617742,0.72086257,-0.02964225,0.6371429,0.64237356,0.7092525,0.118320405,0.5221399,0.57859784,0.71531487,-0.031335887,0.7531489,0.21017085,0.20663704,-0.5994004,0.15660071,804.65204,803.8461,798.20514,801.8315,684.17584,0.0533447265625,0.025634765625,1.00335693359375,2.579498291015625,-7.798309326171875,-4.882354736328125,1,1.0,1.0,1.0,1.0,70.00
2021-04-29 08:54:35.530,0.90334606,0.8501162,0.96279854,0.9181422,0.44617742,0.65699446,-0.019101342,0.84704,0.64237356,0.7092525,0.1227842,0.4640237,0.57859784,0.66095024,-0.054101225,0.66702855,0.21017085,0.18038508,-0.5612824,0.24530135,804.65204,805.4579,801.02563,782.8938,669.67035,0.04010009765625,0.04315185546875,0.998291015625,5.8917236328125,-3.24493408203125,4.77020263671875,1,1.0,1.0,1.0,1.0,70.00
2021-04-29 08:54:36.057,0.90334606,0.5973131,0.77820754,0.9181422,0.44617742,0.46463415,-0.06800806,0.84704,0.64237356,0.66493607,0.08084662,0.4640237,0.57859784,0.56989735,-0.056484073,0.66702855,0.21017085,0.11690313,-0.55741686,0.24530135,811.9048,800.6227,803.44324,809.89014,880.80585,0.07086181640625,0.0736083984375,0.99969482421875,5.555267333984375,-2.250518798828125,1.652374267578125,1,1.0,1.0,1.0,1.0,70.00
2021-04-29 08:54:36.093,,,,,,,,,,,,,,,,,,,,,,,,,,,,,,,,,,,,,,/muse/elements/blink
2021-04-29 08:54:36.562,0.90334606,0.6139239,0.3600353,0.95100117,0.44617742,0.45147094,-0.14869457,0.840268,0.64237356,0.6258359,-0.11066902,0.34907842,0.57859784,0.5559737,-0.15743425,0.6934329,0.21017085,0.17901087,-0.50304997,0.25011265,938.4249,817.5458,800.6227,931.978,728.0952,0.05902099609375,0.034912109375,0.991455078125,0.28411865234375,-5.24871826171875,-5.121612548828125,1,1.0,1.0,1.0,1.0,70.00
2021-04-29 08:54:36.634,,,,,,,,,,,,,,,,,,,,,,,,,,,,,,,,,,,,,,/muse/elements/blink
2021-04-29 08:54:36.864,,,,,,,,,,,,,,,,,,,,,,,,,,,,,,,,,,,,,,/muse/elements/blink
2021-04-29 08:54:37.065,0.90334606,0.70107985,0.650595,0.95100117,0.44617742,0.5390615,0.49139878,0.840268,0.64237356,0.6258359,0.5401124,0.34907842,0.57859784,0.56724185,-0.1669611,0.6934329,0.21017085,0.15722392,-0.44064987,0.25011265,836.08057,805.4579,813.5165,841.31866,755.4945,0.10943603515625,0.09832763671875,0.9595947265625,0.85235595703125,-17.877044677734375,-5.78704833984375,1,1.0,1.0,1.0,1.0,70.00
2021-04-29 08:54:37.569,0.90334606,0.8579181,0.7588633,0.95100117,0.44617742,0.5792596,0.59267944,0.840268,0.64237356,0.6258359,0.5401124,0.34907842,0.57859784,0.582259,-0.028142279,0.6934329,0.21017085,0.29643646,-0.44680685,0.25011265,777.6557,765.9707,803.0403,810.696,998.46155,0.29876708984375,-0.01824951171875,0.8929443359375,0.179443359375,-15.43212890625,8.516082763671875,1,1.0,1.0,1.0,1.0,70.00
2021-04-29 08:54:38.078,0.90334606,0.8579181,0.7285512,0.95100117,0.44617742,0.5792596,0.577806,0.840268,0.64237356,0.6258359,0.5401124,0.34907842,0.57859784,0.582259,0.12363636,0.6934329,0.21017085,0.29643646,-0.47086477,0.25011265,776.8498,810.293,796.99634,768.3883,682.5641,0.40924072265625,-0.0045166015625,0.97705078125,1.7047119140625,-17.705078125,-1.1065673828125,1,2.0,1.0,1.0,2.0,70.00
2021-04-29 08:54:38.582,0.90334606,0.5546432,0.35868445,0.95100117,0.44617742,-0.11081615,0.09751295,0.840268,0.64237356,0.15094411,0.100871824,0.34907842,0.57859784,0.624681,0.12323958,0.6934329,0.21017085,-0.04549721,-0.50499696,0.25011265,793.7729,792.5641,799.011,813.1135,870.32965,0.53717041015625,0.13800048828125,1.00738525390625,24.636077880859375,5.54779052734375,8.351593017578125,1,2.0,1.0,1.0,2.0,70.00
2021-04-29 08:54:39.090,0.90334606,0.5546432,0.25133196,0.95100117,0.44617742,-0.11081615,-0.09313782,0.840268,0.64237356,0.15094411,0.11068393,0.34907842,0.57859784,0.624681,0.04529202,0.6934329,0.21017085,-0.04549721,-0.47788343,0.25011265,826.8132,830.4396,807.0696,820.3663,738.1685,0.16009521484375,0.05572509765625,0.89697265625,0.25421142578125,19.619140625,2.474822998046875,1,2.0,1.0,1.0,2.0,70.00
2021-04-29 08:54:39.599,1.0611866,0.5914251,0.5409335,0.95100117,0.5443131,-0.07937759,0.23187922,0.840268,0.49402955,0.14776011,0.23160656,0.34907842,0.75391376,0.6263464,0.028158788,0.6934329,0.46919852,-0.035307053,-0.40088335,0.25011265,803.0403,824.3956,810.293,777.25275,713.5897,0.0560302734375,0.09112548828125,0.97357177734375,5.375823974609375,2.833709716796875,0.471038818359375,1,1.0,1.0,1.0,1.0,70.00
2021-04-29 08:54:40.117,1.3721404,0.6506737,0.6550094,0.95100117,1.339588,-0.023651652,0.32667458,0.840268,1.1408473,0.14776011,0.29010388,0.34907842,0.6655999,0.63133925,0.015664952,0.6934329,0.38704523,-0.015437393,-0.31336415,0.25011265,806.26373,795.38464,805.4579,803.0403,729.707,0.1102294921875,0.1815185546875,1.00762939453125,12.6806640625,-8.4637451171875,0.157012939453125,1,1.0,1.0,1.0,1.0,70.00
2021-04-29 08:54:40.618,1.378041,0.6506737,0.6625703,1.2733282,1.405534,-0.023651652,0.36702186,1.2420264,1.1329563,0.14776011,0.30816,0.9887438,0.62815744,0.63133925,0.06197123,0.7686543,0.30955496,-0.015437393,-0.30511174,0.34280103,819.15753,813.5165,793.36993,801.4286,776.04395,0.08148193359375,0.13885498046875,0.99224853515625,1.293487548828125,-1.218719482421875,4.0972900390625,1,1.0,1.0,1.0,1.0,70.00
2021-04-29 08:54:41.121,1.4276513,0.6506737,0.70243835,1.2733282,1.4571072,-0.023651652,0.26252198,1.2420264,1.1322778,0.14776011,0.31781733,0.9887438,0.6322185,0.63133925,0.03170807,0.7686543,0.24241088,-0.015437393,-0.3773204,0.34280103,795.38464,831.6484,812.71063,789.7436,762.3443,0.03497314453125,0.197998046875,0.9862060546875,6.721649169921875,-3.69354248046875,2.594451904296875,1,1.0,1.0,1.0,1.0,70.00
2021-04-29 08:54:41.622,1.2547355,0.6506737,0.9308077,1.2733282,1.231679,-0.023651652,0.33478346,1.2420264,1.0311527,0.14776011,0.2662042,0.9887438,0.6271148,0.63133925,0.030550806,0.7686543,0.2940288,-0.015437393,-0.49607098,0.34280103,808.68134,803.44324,802.23444,801.02563,763.5531,-0.02325439453125,0.14556884765625,1.00421142578125,-5.301055908203125,-0.770111083984375,7.888031005859375,1,1.0,1.0,1.0,1.0,65.00
2021-04-29 08:54:42.078,,,,,,,,,,,,,,,,,,,,,,,,,,,,,,,,,,,,,,/muse/elements/blink
2021-04-29 08:54:42.140,1.2547355,0.6506737,1.0836924,1.2733282,1.231679,-0.023651652,0.61189216,1.2420264,1.0311527,0.14776011,0.46544576,0.9887438,0.6271148,0.63133925,0.05690518,0.7686543,0.2940288,-0.015437393,-0.48127782,0.34280103,820.3663,790.54944,805.05493,812.71063,1074.6154,0.19061279296875,0.0390625,1.1156005859375,3.072967529296875,-32.397003173828125,2.6617431640625,1,1.0,1.0,1.0,1.0,65.00
2021-04-29 08:54:42.644,1.4182698,0.6506737,1.104245,1.2733282,1.146178,-0.023651652,0.66604036,1.2420264,1.1624424,0.14776011,0.5304667,0.9887438,0.8591465,0.63133925,0.12614143,0.7686543,0.3092718,-0.015437393,-0.393188,0.34280103,804.65204,805.8608,794.9817,790.54944,864.68866,0.26226806640625,0.1361083984375,1.16326904296875,10.833892822265625,29.30908203125,5.390777587890625,1,1.0,1.0,1.0,1.0,65.00
2021-04-29 08:54:43.157,1.5604687,0.6506737,1.2103505,1.2733282,1.2649994,-0.023651652,0.8134746,1.2420264,1.1770133,0.14776011,0.5343436,0.9887438,0.91988677,0.63133925,0.11687848,0.7686543,0.3526975,-0.015437393,-0.31400108,0.34280103,515.34796,815.9341,809.89014,512.1245,789.34064,-0.131591796875,0.06427001953125,0.95391845703125,0.49346923828125,18.4527587890625,-8.4039306640625,1,1.0,1.0,1.0,1.0,65.00
2021-04-29 08:54:43.291,,,,,,,,,,,,,,,,,,,,,,,,,,,,,,,,,,,,,,/muse/elements/blink
2021-04-29 08:54:43.684,1.5604687,0.6506737,1.3387539,1.2733282,1.2649994,-0.023651652,0.897157,1.2420264,1.1770133,0.14776011,0.5498678,0.9887438,0.91988677,0.63133925,0.12841143,0.7686543,0.3526975,-0.015437393,-0.27848256,0.34280103,806.6667,775.2381,811.9048,809.89014,1075.8242,-0.13922119140625,0.121337890625,0.989990234375,4.852447509765625,4.254302978515625,-2.0635986328125,1,1.0,1.0,1.0,1.0,65.00
2021-04-29 08:54:44.189,1.6246817,0.6506737,1.382417,1.2733282,1.3387096,-0.023651652,0.83304816,1.2420264,1.0317138,0.14776011,0.4787725,0.9887438,0.9164393,0.63133925,0.24473953,0.7686543,0.4194237,-0.015437393,-0.21428505,0.34280103,845.7509,880.80585,774.43225,804.2491,714.7985,-0.278564453125,0.15814208984375,0.95318603515625,3.2000732421875,0.695343017578125,-0.40374755859375,1,1.0,1.0,1.0,1.0,65.00
2021-04-29 08:54:44.705,1.6246817,0.6506737,1.2876254,1.2733282,1.3387096,-0.023651652,0.70492923,1.2420264,1.0317138,0.14776011,0.4548048,0.9887438,0.9164393,0.63133925,0.28561887,0.7686543,0.4194237,-0.015437393,-0.16977574,0.34280103,782.49084,793.36993,798.60803,799.011,790.9524,-0.15374755859375,0.05181884765625,0.9937744140625,3.0206298828125,1.00189208984375,-0.61309814453125,1,1.0,1.0,1.0,1.0,65.00
2021-04-29 08:54:45.221,1.6246817,0.6506737,1.0056846,1.0866535,1.3387096,-0.023651652,0.094158575,0.6847315,1.0317138,0.14776011,0.24595807,0.75090206,0.9164393,0.63133925,0.32754222,0.8030851,0.4194237,-0.015437393,-0.15583496,0.7333501,804.65204,833.2601,818.3516,796.5934,800.6227,-0.29107666015625,0.0196533203125,0.971435546875,4.964599609375,0.770111083984375,2.340240478515625,1,1.0,1.0,1.0,1.0,65.00
2021-04-29 08:54:45.745,1.6246817,0.6506737,0.6512009,1.0103749,1.3387096,-0.023651652,0.17481416,0.61369497,1.0317138,0.14776011,0.23380499,0.81720376,0.9164393,0.63133925,0.10612428,0.75656545,0.4194237,-0.015437393,-0.1630639,0.7803988,797.8022,801.4286,793.7729,782.0879,777.6557,-0.2979736328125,0.0421142578125,0.96990966796875,1.57012939453125,-1.323394775390625,6.273040771484375,1,1.0,1.0,1.0,1.0,65.00
2021-04-29 08:54:46.249,1.6246817,0.6506737,0.74765277,1.0103749,1.3387096,-0.023651652,0.535215,0.61369497,1.0317138,0.14776011,0.37635866,0.81720376,0.9164393,0.63133925,0.18231553,0.75656545,0.4194237,-0.015437393,-0.07958955,0.7803988,827.2161,827.2161,795.38464,813.1135,755.4945,-0.321044921875,3.662109375E-4,0.93768310546875,4.029998779296875,-7.4468994140625,0.67291259765625,1,1.0,1.0,1.0,1.0,65.00
2021-04-29 08:54:46.755,1.6246817,0.6506737,0.73182404,1.0056076,1.3387096,-0.023651652,0.4160356,0.48244426,1.0317138,0.14776011,0.47148678,0.7860043,0.9164393,0.63133925,0.20325884,0.7731399,0.4194237,-0.015437393,-0.007434959,0.7594534,793.7729,809.4872,799.81683,808.68134,695.05493,-0.338134765625,-0.009765625,0.94598388671875,5.345916748046875,-4.673004150390625,-1.682281494140625,1,1.0,1.0,1.0,1.0,65.00
2021-04-29 08:54:47.268,1.6246817,0.6506737,0.97483164,1.0056076,1.3387096,-0.023651652,0.6874673,0.48244426,1.0317138,0.14776011,0.5529366,0.7860043,0.9164393,0.63133925,0.18885568,0.7731399,0.4194237,-0.015437393,-0.004407953,0.7594534,803.8461,807.0696,798.60803,798.20514,772.4176,-0.30419921875,0.0,0.953369140625,5.749664306640625,-3.342132568359375,1.637420654296875,1,1.0,1.0,1.0,1.0,65.00
2021-04-29 08:54:47.791,1.6246817,0.6506737,1.0392514,1.3129549,1.3387096,-0.023651652,0.7039211,0.93316424,1.0317138,0.14776011,0.5144598,0.503598,0.9164393,0.63133925,0.16362059,0.50961524,0.4194237,-0.015437393,0.00522438,0.33035794,814.3223,813.91943,814.7253,805.05493,747.8388,-0.28533935546875,0.01751708984375,0.958740234375,5.63751220703125,-7.52166748046875,2.43743896484375,1,1.0,1.0,1.0,1.0,65.00
2021-04-29 08:54:48.318,1.6246817,0.6506737,1.1399719,1.3129549,1.3387096,-0.023651652,0.7932674,0.93316424,1.0317138,0.14776011,0.5905426,0.503598,0.9164393,0.63133925,0.18371637,0.50961524,0.4194237,-0.015437393,-0.201279,0.33035794,796.1905,803.0403,799.81683,794.9817,792.96704,-0.268310546875,0.0340576171875,0.96051025390625,4.77020263671875,-5.061798095703125,1.637420654296875,1,1.0,1.0,1.0,1.0,65.00
2021-04-29 08:54:48.830,1.6246817,-0.028735051,0.812439,1.2099587,1.3387096,-0.11283183,0.35749498,0.8848584,1.0317138,0.09214276,0.5238719,0.77144533,0.9164393,0.5401425,0.16463317,0.5436706,0.4194237,0.121030286,-0.3805279,0.19393003,793.36993,804.65204,799.81683,792.96704,745.0183,-0.2611083984375,0.01849365234375,0.943115234375,12.93487548828125,-14.273223876953125,1.293487548828125,1,1.0,1.0,1.0,1.0,65.00
2021-04-29 08:54:49.339,1.6246817,0.1519816,0.6697452,0.791841,1.3387096,-0.12140336,0.22243835,0.691833,1.0317138,0.10639001,0.53333294,0.847716,0.9164393,0.524389,0.108574964,0.63591206,0.4194237,0.3666546,-0.35740808,0.27765706,806.26373,815.12823,797.8022,796.5934,787.326,-0.2342529296875,0.09307861328125,0.94921875,1.9140625,-2.85614013671875,-3.491668701171875,1,1.0,1.0,1.0,1.0,65.00
2021-04-29 08:54:49.847,0.7159121,0.512577,0.20264985,0.75194675,0.7658075,-0.15461965,-0.09098526,0.71666807,0.98017526,0.23488425,0.17886849,0.9826435,0.6463464,0.4649188,-0.052028242,0.5985412,0.32991028,0.45259023,-0.37568498,0.368618,805.05493,815.9341,802.23444,788.93774,749.45056,-0.216796875,0.07586669921875,0.95233154296875,3.461761474609375,-5.316009521484375,-1.854248046875,1,1.0,1.0,1.0,1.0,65.00
2021-04-29 08:54:50.354,0.6243053,0.757592,0.38726407,0.81277,0.82971406,0.122226804,0.034934413,0.79146,0.98813194,0.37274665,0.20323037,0.98493356,0.61377984,0.44135645,0.01393849,0.58506787,0.3410424,0.4724378,-0.37933213,0.44046807,997.25275,827.2161,784.5055,987.5824,712.7839,-0.18658447265625,0.1070556640625,0.966796875,6.32537841796875,-6.62445068359375,0.680389404296875,1,1.0,1.0,1.0,1.0,65.00
2021-04-29 08:54:50.461,,,,,,,,,,,,,,,,,,,,,,,,,,,,,,,,,,,,,,/muse/elements/blink
2021-04-29 08:54:50.680,,,,,,,,,,,,,,,,,,,,,,,,,,,,,,,,,,,,,,/muse/elements/blink
2021-04-29 08:54:50.861,0.6528446,0.8762473,0.6029712,0.8574541,0.84101874,0.19010575,0.03963322,0.830555,0.9846157,0.33340278,0.17848113,0.9620304,0.629287,0.42129016,0.054904975,0.5606797,0.3450373,0.4287682,-0.41277814,0.42130974,795.38464,809.0842,801.4286,802.23444,643.0769,-0.07623291015625,0.1051025390625,1.009765625,0.657958984375,-11.85821533203125,5.72723388671875,1,1.0,1.0,1.0,1.0,65.00
2021-04-29 08:54:51.371,0.68236053,0.9038824,0.85316753,0.94440526,0.8754922,0.37093255,0.28914914,0.9054101,0.9420942,0.33340278,0.39074588,0.95242125,0.64757115,0.49404457,0.09690057,0.51908225,0.29151422,0.23286033,-0.48388058,0.41554463,848.5714,804.2491,799.011,860.2564,764.7619,-6.103515625E-4,0.08673095703125,0.998779296875,4.42626953125,-10.011444091796875,3.372039794921875,1,1.0,1.0,1.0,1.0,65.00
2021-04-29 08:54:51.504,,,,,,,,,,,,,,,,,,,,,,,,,,,,,,,,,,,,,,/muse/elements/blink
2021-04-29 08:54:51.895,0.68236053,0.875067,0.8043035,0.94440526,0.8754922,0.30227518,0.17913097,0.9054101,0.9420942,0.27125767,0.37929663,0.95242125,0.64757115,0.53275096,0.018406825,0.51908225,0.29151422,0.1403884,-0.50630873,0.41554463,773.22345,803.0403,809.4872,789.7436,703.91943,0.0377197265625,0.07177734375,1.00311279296875,4.5458984375,-5.8319091796875,3.342132568359375,1,1.0,1.0,1.0,1.0,65.00
2021-04-29 08:54:52.407,0.68236053,0.94334954,0.78716326,0.94440526,0.8754922,0.43710032,0.32379118,0.9054101,0.9420942,0.61999696,0.37929663,0.95242125,0.64757115,0.65436125,0.033098042,0.51908225,0.29151422,0.3202895,-0.5626733,0.41554463,829.6337,809.89014,805.8608,817.1429,691.8315,0.03662109375,0.0789794921875,0.9947509765625,5.084228515625,-7.0880126953125,-0.35888671875,1,1.0,1.0,1.0,1.0,65.00
2021-04-29 08:54:52.918,0.68236053,0.8434693,0.54351544,0.94440526,0.8754922,0.29331335,0.11812438,0.9054101,0.9420942,0.6229158,-0.10011859,0.95242125,0.64757115,0.57815427,0.03182862,0.51908225,0.29151422,0.3130499,-0.5269431,0.41554463,498.82785,774.0293,800.6227,496.00732,865.4945,0.06036376953125,0.10040283203125,1.000732421875,4.32159423828125,1.398162841796875,-1.158905029296875,1,2.0,1.0,1.0,2.0,65.00
2021-04-29 08:54:53.133,,,,,,,,,,,,,,,,,,,,,,,,,,,,,,,,,,,,,,/muse/elements/blink
2021-04-29 08:54:53.427,0.68236053,0.8158568,0.5629691,0.94440526,0.8754922,0.25633734,0.28404015,0.9054101,0.9420942,0.6229158,-0.11128063,0.95242125,0.64757115,0.5746736,0.028089404,0.51908225,0.29151422,0.29668403,-0.49006492,0.41554463,805.05493,813.5165,807.0696,803.44324,722.4542,-0.03045654296875,0.087158203125,0.99139404296875,6.0711669921875,-3.327178955078125,-1.293487548828125,1,2.0,1.0,1.0,2.0,65.00
2021-04-29 08:54:53.749,,,,,,,,,,,,,,,,,,,,,,,,,,,,,,,,,,,,,,/muse/elements/blink
2021-04-29 08:54:53.946,0.68236053,0.67056894,0.6480446,0.94440526,0.8754922,0.012070849,0.28426504,0.9054101,0.9420942,0.47803771,0.117332555,0.95242125,0.64757115,0.49488387,-0.08119754,0.51908225,0.29151422,0.27598274,-0.38148168,0.41554463,846.9597,812.71063,806.6667,840.5128,721.6484,0.129150390625,0.1109619140625,0.99029541015625,6.1907958984375,-12.045135498046875,-12.209625244140625,1,2.0,1.0,1.0,2.0,65.00
2021-04-29 08:54:54.454,0.68236053,0.32108462,0.88799846,0.94440526,0.8754922,-0.50525737,0.38475123,0.9054101,0.9420942,-0.03897483,0.2922156,0.95242125,0.64757115,0.47093165,-0.10099606,0.51908225,0.29151422,0.19163796,-0.28545344,0.41554463,697.47253,756.30035,836.08057,713.5897,747.8388,0.14996337890625,0.11566162109375,0.9774169921875,4.35150146484375,1.7047119140625,10.706787109375,1,2.0,1.0,1.0,2.0,65.00
2021-04-29 08:54:54.670,,,,,,,,,,,,,,,,,,,,,,,,,,,,,,,,,,,,,,/muse/elements/blink
2021-04-29 08:54:54.968,0.68236053,0.32108462,1.069815,0.94440526,0.8754922,-0.50525737,0.5131091,0.9054101,0.9420942,-0.03897483,0.3285899,0.95242125,0.64757115,0.47093165,-0.09263096,0.51908225,0.29151422,0.19163796,-0.2313525,0.41554463,810.696,802.23444,805.4579,821.1722,663.22345,0.09979248046875,0.12908935546875,0.9874267578125,8.426361083984375,1.727142333984375,8.95721435546875,1,2.0,1.0,1.0,2.0,65.00
2021-04-29 08:54:55.059,,,,,,,,,,,,,,,,,,,,,,,,,,,,,,,,,,,,,,/muse/elements/blink
2021-04-29 08:54:55.472,0.68236053,0.32108462,1.079525,0.94440526,0.8754922,-0.50525737,0.63664305,0.9054101,0.9420942,-0.03897483,0.31320283,0.95242125,0.64757115,0.47093165,-0.041715425,0.51908225,0.29151422,0.19163796,-0.34831798,0.41554463,821.978,811.0989,799.011,826.8132,871.13556,0.02935791015625,0.15911865234375,1.00250244140625,6.243133544921875,5.75714111328125,10.5572509765625,1,2.0,1.0,1.0,2.0,65.00
2021-04-29 08:54:55.889,,,,,,,,,,,,,,,,,,,,,,,,,,,,,,,,,,,,,,/muse/elements/blink
2021-04-29 08:54:55.988,0.68236053,0.32108462,0.991678,0.94440526,0.8754922,-0.50525737,0.5647877,0.9054101,0.9420942,-0.03897483,0.35118207,0.95242125,0.64757115,0.47093165,-0.061082873,0.51908225,0.29151422,0.19163796,-0.38703093,0.41554463,686.5934,808.68134,797.3993,697.8755,772.8205,-0.062255859375,0.10418701171875,0.998291015625,2.983245849609375,7.8955078125,16.38916015625,1,2.0,1.0,1.0,2.0,65.00
2021-04-29 08:54:56.275,,,,,,,,,,,,,,,,,,,,,,,,,,,,,,,,,,,,,,/muse/elements/blink
2021-04-29 08:54:56.510,0.68236053,0.32108462,1.0626858,0.94440526,0.8754922,-0.50525737,0.6236601,0.9054101,0.9420942,-0.03897483,0.46890342,0.95242125,0.64757115,0.47093165,-0.029169284,0.51908225,0.29151422,0.19163796,-0.48785922,0.41554463,810.293,804.2491,801.02563,799.81683,676.1172,-0.118896484375,0.148193359375,0.97564697265625,8.770294189453125,-2.145843505859375,-6.631927490234375,1,2.0,1.0,1.0,2.0,65.00
2021-04-29 08:54:57.019,0.68236053,0.32108462,0.93967485,0.94440526,0.8754922,-0.50525737,0.43262985,0.9054101,0.9420942,-0.03897483,0.46882215,0.95242125,0.64757115,0.47093165,0.021141391,0.51908225,0.29151422,0.19163796,-0.44884694,0.41554463,785.7143,803.8461,805.4579,785.7143,724.87177,-0.24462890625,0.07421875,0.9688720703125,-3.03558349609375,4.583282470703125,7.932891845703125,1,2.0,1.0,1.0,2.0,65.00
2021-04-29 08:54:57.521,0.68236053,1.3041883,0.88430744,0.94440526,0.8754922,1.0068486,0.37035242,0.9054101,0.9420942,0.73850507,0.49128544,0.95242125,0.64757115,0.49803856,0.09918784,0.51908225,0.29151422,0.12488272,-0.18024853,0.41554463,803.44324,807.47253,796.1905,800.2198,702.71063,-0.3375244140625,0.061279296875,0.94317626953125,5.7421875,0.500946044921875,-2.85614013671875,1,2.0,1.0,1.0,2.0,65.00
2021-04-29 08:54:58.040,0.85515857,0.3237422,0.39784768,0.94440526,0.33379215,-0.11057692,-0.1542856,0.9054101,0.25182012,0.38598177,0.5194676,0.95242125,0.7057938,0.37778628,0.104543254,0.51908225,0.40181062,0.12547591,-0.037583876,0.41554463,792.1612,816.7399,797.8022,801.4286,686.5934,-0.292236328125,0.03759765625,0.95953369140625,3.84307861328125,-8.187103271484375,-1.016845703125,1,2.0,1.0,1.0,2.0,65.00
2021-04-29 08:54:58.553,0.8409578,0.16883253,0.3637475,0.84213763,0.22244638,-0.11750253,-0.23562823,0.4690395,0.37825477,0.38598177,0.48099306,0.40058774,0.6428577,0.3920245,0.035386212,0.561352,0.3885212,0.19709224,-0.0122554945,0.32165232,814.3223,812.3077,805.05493,816.7399,713.1868,-0.30035400390625,0.0166015625,0.95257568359375,2.489776611328125,-4.05242919921875,-1.114044189453125,1,1.0,1.0,1.0,1.0,65.00
2021-04-29 08:54:59.057,0.8773527,-0.025837194,0.22813408,0.9585457,0.14884664,-0.07359468,-0.29426798,0.41460305,0.40292686,0.34704515,0.3308795,0.49614358,0.5840559,0.45574227,-0.04897683,0.5745449,0.3198129,0.26515245,-0.18894431,0.244817,799.81683,821.5751,796.99634,797.3993,734.5421,-0.28948974609375,0.01788330078125,0.96484375,5.57769775390625,-6.50482177734375,1.68975830078125,1,1.0,1.0,1.0,1.0,65.00
2021-04-29 08:54:59.585,0.7428318,-0.26893044,0.15733847,0.8651405,-0.038428772,-0.052678388,-0.24304116,0.30291626,0.46022817,0.14579965,-0.046783037,0.58131033,0.488536,0.5221642,-0.015544526,0.4973654,0.27883536,0.2616705,-0.43705463,0.18905652,807.0696,809.89014,798.20514,808.68134,708.3516,-0.27288818359375,0.028076171875,0.95721435546875,4.732818603515625,-4.538421630859375,0.575714111328125,1,1.0,1.0,1.0,1.0,65.00
2021-04-29 08:55:00.088,0.59212494,0.21913804,0.5454888,0.79905665,-0.057500258,0.100843854,-0.10697422,0.22607872,0.55539936,0.24779876,0.2013279,0.46796027,0.41611436,0.53169066,0.06094067,0.43617952,0.24926868,0.16116124,-0.56479025,0.07308322,790.14655,806.6667,783.2967,776.8498,734.94507,-0.2906494140625,0.02728271484375,0.95294189453125,5.12908935546875,-3.60382080078125,0.770111083984375,1,1.0,1.0,1.0,1.0,65.00
2021-04-29 08:55:00.602,0.56568676,0.6723765,0.7724689,0.60282975,0.26970303,0.09297681,0.35417226,0.3012918,0.6225802,0.44976568,0.27333787,0.51354116,0.41425776,0.50266755,0.102588564,0.37318438,0.32153273,0.06062397,-0.541287,0.13341928,813.1135,810.696,788.1319,822.381,679.34064,-0.3046875,0.029052734375,0.951171875,5.1141357421875,-4.089813232421875,1.57012939453125,1,1.0,1.0,1.0,1.0,65.00
2021-04-29 08:55:01.107,0.7030981,0.7144142,0.78919166,0.6679696,0.41530514,0.027147109,0.36464515,0.38213146,0.56083614,0.45704418,0.27333787,0.37905577,0.41776386,0.4893352,0.068188235,0.40603754,0.34670535,0.099601164,-0.4594543,0.15104324,825.6044,797.3993,794.57874,820.3663,787.326,-0.29974365234375,0.03411865234375,0.9552001953125,4.6954345703125,-4.0374755859375,1.143951416015625,1,1.0,1.0,1.0,1.0,65.00
2021-04-29 08:55:01.613,0.80438364,0.6255326,0.59942794,0.7130648,0.45484138,-0.18050481,0.3078539,0.4987403,0.5720381,0.47349966,0.24487093,0.39513382,0.4211367,0.50173277,0.011761993,0.46227846,0.3629529,0.14071076,-0.42690784,0.33895013,799.41394,806.6667,806.26373,805.05493,778.86444,-0.30950927734375,0.02325439453125,0.952880859375,3.476715087890625,-3.835601806640625,0.545806884765625,1,1.0,1.0,1.0,1.0,65.00
2021-04-29 08:55:02.130,0.24119425,0.18971863,0.17682931,0.28020868,-0.058010064,-0.1560236,-0.20468031,0.10955125,0.29531306,0.3656882,-0.08245394,0.51261854,0.4492723,0.49716756,-0.037456695,0.46081442,0.3679027,0.15814738,-0.482419,0.4334886,789.7436,821.978,807.8755,790.54944,749.0476,-0.30731201171875,0.02484130859375,0.95086669921875,5.09918212890625,-4.486083984375,1.069183349609375,1,1.0,1.0,1.0,1.0,65.00
2021-04-29 08:55:02.664,0.16783653,0.3723372,0.17674536,0.09652656,-0.036600657,-0.05904211,-0.29650173,-0.015144672,0.29531306,0.23902549,0.018606309,0.55439955,0.498263,0.4308927,-0.063961335,0.45027617,0.3324511,0.10047003,-0.55694896,0.27750477,808.2784,804.65204,796.1905,812.3077,810.696,-0.31365966796875,0.0238037109375,0.94635009765625,4.089813232421875,-4.792633056640625,0.381317138671875,1,1.0,1.0,1.0,1.0,65.00
2021-04-29 08:55:03.172,0.040786784,0.4563939,0.23263034,-0.00792156,0.080050394,-0.07258091,-0.34651372,-0.0020672078,0.24281888,0.2713144,0.017720945,0.53941804,0.5147935,0.38783583,-0.07437586,0.41863257,0.2563184,0.10815102,-0.569282,0.23341115,742.1978,811.9048,807.0696,733.3333,739.3773,-0.3067626953125,0.023681640625,0.95135498046875,4.26177978515625,-4.209442138671875,1.5850830078125,1,1.0,1.0,1.0,1.0,65.00
2021-04-29 08:55:03.693,0.043394875,0.7408952,0.65398186,-0.24528682,0.1540984,0.052247748,-0.3795896,-0.04727848,0.1693793,0.38686723,-0.033900287,0.44484895,0.5240685,0.34088972,-0.028352153,0.35572824,0.11864618,0.056884985,-0.4623817,0.07532378,804.2491,812.3077,817.1429,790.9524,670.07324,-0.355224609375,0.03704833984375,0.93499755859375,4.844970703125,2.43743896484375,10.48248291015625,1,1.0,1.0,1.0,1.0,65.00
2021-04-29 08:55:04.222,0.109531045,0.7510801,0.769926,-0.11249702,0.20128,0.09633288,-0.41152903,0.029851295,0.15133737,0.38299674,0.18879172,0.07390879,0.48220673,0.3751717,0.03523819,0.35723865,0.03658405,0.042161684,-0.37173134,0.20373324,816.7399,787.72894,813.91943,826.8132,1052.4542,-0.36895751953125,0.03985595703125,0.9248046875,7.798309326171875,-7.8057861328125,0.83740234375,1,1.0,1.0,1.0,1.0,65.00
2021-04-29 08:55:04.748,0.109531045,0.8169943,0.77602065,-0.11249702,0.20128,0.2295744,-0.3537046,0.029851295,0.15133737,0.37175888,0.19010155,0.07390879,0.48220673,0.43710932,0.037975516,0.35723865,0.03658405,0.06423923,-0.38330257,0.20373324,797.8022,812.3077,800.6227,793.36993,812.3077,-0.31646728515625,0.10125732421875,0.94610595703125,7.633819580078125,-11.790924072265625,3.506622314453125,1,1.0,1.0,1.0,1.0,65.00
2021-04-29 08:55:05.269,0.109531045,0.5688775,0.80091214,-0.11249702,0.20128,0.16135651,-0.075899854,0.029851295,0.15133737,0.0374244,0.19431116,0.07390879,0.48220673,0.4842063,0.056766476,0.35723865,0.03658405,0.072690666,-0.32108846,0.20373324,844.94507,815.5311,802.6374,824.3956,737.3626,-0.32366943359375,0.10943603515625,0.9315185546875,-3.357086181640625,-11.20025634765625,-3.282318115234375,1,1.0,1.0,1.0,1.0,65.00
2021-04-29 08:55:05.804,0.109531045,0.5688775,0.7515587,-0.11249702,0.20128,0.16135651,-0.08580714,0.029851295,0.15133737,0.0374244,0.026312474,0.07390879,0.48220673,0.4842063,0.0067138686,0.35723865,0.03658405,0.072690666,-0.27259022,0.20373324,824.7985,814.7253,800.6227,828.022,726.4835,-0.36053466796875,0.0633544921875,0.932373046875,4.844970703125,-3.715972900390625,-0.291595458984375,1,1.0,1.0,1.0,1.0,65.00
2021-04-29 08:55:06.306,1.1270913,0.69480026,0.7328368,0.64155775,0.44418877,0.19115493,-0.11758906,0.32363993,1.1027828,0.0055306978,-0.14982463,0.56162137,0.68989676,0.4422858,0.00432318,0.4320058,0.41566283,0.04034817,-0.23146269,0.0777176,800.6227,818.7546,799.81683,798.20514,672.0879,-0.360595703125,0.02935791015625,0.9326171875,4.366455078125,-4.732818603515625,0.261688232421875,1,1.0,1.0,1.0,1.0,65.00
2021-04-29 08:55:06.821,0.9687418,0.39042303,0.41349784,0.7444707,0.27581906,-0.1514185,-0.50270617,0.26383173,1.0591059,-3.965172E-4,-0.07771861,0.6360441,0.6318464,0.4003778,-0.094860666,0.47332937,0.36102,0.1707495,-0.26502505,-0.0060214996,816.337,804.2491,801.4286,807.0696,669.2674,-0.3648681640625,0.04669189453125,0.92950439453125,4.7552490234375,-3.626251220703125,1.15142822265625,1,1.0,1.0,1.0,1.0,65.00
2021-04-29 08:55:07.323,0.5921109,0.30870757,0.24087527,0.6626262,-0.044446975,-0.21100205,-0.39509988,0.17859231,0.42018703,-3.965172E-4,0.0032068738,0.6393306,0.56727785,0.36244327,-0.072105035,0.485064,0.2202425,0.21749267,-0.39675826,0.050449405,809.4872,793.7729,799.41394,803.0403,702.71063,-0.3558349609375,0.02886962890625,0.93621826171875,4.583282470703125,-6.093597412109375,0.9271240234375,1,1.0,1.0,1.0,1.0,65.00
2021-04-29 08:55:07.836,0.36190948,0.27891374,0.009621363,0.5324573,-0.12911475,-0.29424408,-0.46412706,-0.0054216865,0.37321305,0.038767293,3.041515E-4,0.638482,0.5590618,0.33637646,-0.042906012,0.5244896,0.26437828,0.19024147,-0.54830086,0.06211376,815.5311,815.9341,796.5934,816.7399,737.76556,-0.36175537109375,0.037109375,0.9365234375,4.486083984375,-3.581390380859375,1.218719482421875,1,1.0,1.0,1.0,1.0,65.00
2021-04-29 08:55:08.352,0.18370345,0.5341416,-0.032784827,0.34984416,-0.17196059,-0.31056598,-0.4342744,-0.21268062,0.2298072,-0.0022879012,0.0069099767,0.24937728,0.56822664,0.35519445,0.035305135,0.5284338,0.2573967,0.10474796,-0.7293611,0.114010006,749.85345,792.5641,809.89014,753.8828,861.4652,-0.34454345703125,0.044189453125,0.94207763671875,5.5328369140625,-4.605712890625,2.086029052734375,1,1.0,1.0,1.0,1.0,65.00
2021-04-29 08:55:08.855,0.26286516,0.75344086,0.07871834,0.24989603,-0.16462232,-0.11256319,-0.4129893,-0.4050131,0.19318031,0.22151364,0.0076985736,0.09014105,0.62299204,0.46285757,0.08960695,0.54415685,0.3642018,0.053517796,-0.6705958,0.09710596,790.14655,815.12823,797.3993,799.41394,755.89746,-0.35369873046875,0.03033447265625,0.93267822265625,5.1739501953125,-4.987030029296875,1.622467041015625,1,1.0,1.0,1.0,1.0,65.00
2021-04-29 08:55:09.374,0.4293225,0.79149705,0.16990417,0.38788834,-0.15739094,-8.8885525E-4,-0.36525154,-0.4952686,0.067277096,0.37386885,0.056668606,0.07454735,0.7049053,0.5324664,0.106380425,0.55209166,0.37953776,0.14863919,-0.48482075,0.075330496,813.5165,796.5934,801.4286,818.3516,734.94507,-0.34747314453125,0.03887939453125,0.9364013671875,5.0543212890625,-5.84686279296875,-1.143951416015625,1,1.0,1.0,1.0,1.0,65.00
2021-04-29 08:55:09.879,0.4293225,0.64012575,0.25268665,0.38788834,-0.15739094,0.02591384,-0.1298999,-0.4952686,0.067277096,0.37386885,0.18640007,0.07454735,0.7049053,0.48980302,0.08792945,0.55209166,0.37953776,0.22253177,-0.3464468,0.075330496,805.8608,780.07324,812.71063,811.50183,903.36993,-0.34149169921875,0.03118896484375,0.94268798828125,4.6356201171875,-4.366455078125,-0.186920166015625,1,1.0,1.0,1.0,1.0,65.00
2021-04-29 08:55:10.407,0.4293225,0.52269906,0.8117605,0.38788834,-0.15739094,0.07678972,0.4502903,-0.4952686,0.067277096,0.41675413,0.41715732,0.07454735,0.7049053,0.42687663,0.049389694,0.55209166,0.37953776,0.25529563,-0.314879,0.075330496,795.38464,800.6227,799.81683,792.1612,737.3626,-0.31744384765625,0.02392578125,0.94818115234375,5.031890869140625,-6.886138916015625,0.897216796875,1,1.0,1.0,1.0,1.0,65.00
2021-04-29 08:55:10.926,0.4293225,0.5804471,1.0948546,0.85079354,-0.15739094,0.14791416,0.65820384,0.6335867,0.067277096,0.3340465,0.40732294,0.35818622,0.7049053,0.3475591,0.004886969,0.457142,0.37953776,0.18546596,-0.37043694,0.17338955,802.6374,805.8608,794.17584,802.6374,804.65204,-0.32733154296875,0.02435302734375,0.94720458984375,4.538421630859375,-4.613189697265625,0.777587890625,1,1.0,1.0,1.0,1.0,65.00
2021-04-29 08:55:11.430,0.4293225,0.706102,1.2031617,0.85079354,-0.15739094,0.2366183,0.70161605,0.6335867,0.067277096,0.3340465,0.39869305,0.35818622,0.7049053,0.4098305,-0.022295807,0.457142,0.37953776,0.20111118,-0.44191766,0.17338955,819.9634,801.02563,800.2198,806.26373,629.3773,-0.3228759765625,0.03192138671875,0.95361328125,4.658050537109375,-4.702911376953125,1.136474609375,1,1.0,1.0,1.0,1.0,65.00
2021-04-29 08:55:11.952,0.4293225,0.124435455,0.84382194,0.85079354,-0.15739094,0.20511743,0.30149558,0.6335867,0.067277096,0.43743813,0.1250961,0.35818622,0.7049053,0.40383035,-0.15292965,0.457142,0.37953776,-0.12873574,-0.6076899,0.17338955,785.31134,808.2784,801.02563,788.93774,685.78754,-0.3209228515625,0.02935791015625,0.94976806640625,4.246826171875,-3.8580322265625,1.03179931640625,1,1.0,1.0,1.0,1.0,65.00
2021-04-29 08:55:12.473,0.4293225,0.23872279,0.48835194,0.85079354,-0.15739094,0.25223365,0.07474441,0.6335867,0.067277096,0.6401249,0.10048535,0.35818622,0.7049053,0.40209305,-0.072394274,0.457142,0.37953776,-0.082359806,-0.5457122,0.17338955,819.9634,811.50183,808.68134,803.8461,809.0842,-0.32513427734375,0.029052734375,0.94708251953125,4.658050537109375,-5.2935791015625,0.76263427734375,1,1.0,1.0,1.0,1.0,65.00
2021-04-29 08:55:12.992,0.4293225,0.4117417,0.6170309,0.85079354,-0.15739094,0.33980256,0.14664337,0.6335867,0.067277096,0.6581365,0.20954335,0.35818622,0.7049053,0.4309078,-0.10896795,0.457142,0.37953776,-0.00914062,-0.49622998,0.17338955,835.2747,825.6044,797.3993,818.3516,730.9158,-0.31890869140625,0.02203369140625,0.95123291015625,4.912261962890625,-3.701019287109375,1.15142822265625,1,1.0,1.0,1.0,1.0,65.00
2021-04-29 08:55:13.513,0.4293225,0.5643008,0.8211887,1.4377283,-0.15739094,0.44003654,0.19880262,1.0793985,0.067277096,0.62232405,0.3490391,0.9579151,0.7049053,0.40276015,-0.032539975,0.5445149,0.37953776,0.093725674,-0.38708422,0.24950147,792.5641,817.1429,808.2784,798.60803,723.663,-0.3221435546875,0.02886962890625,0.94659423828125,5.031890869140625,-5.18890380859375,-1.3458251953125,1,1.0,1.0,1.0,1.0,65.00
2021-04-29 08:55:14.041,0.4757748,0.5038616,0.77983284,1.312116,0.0964769,0.34729505,0.05793358,0.92019784,0.14073415,0.6110318,0.35309976,0.8869056,0.5422249,0.38903588,-0.11325542,0.5221888,0.3914787,0.18509652,-0.44353467,0.19657344,802.23444,798.20514,789.7436,794.57874,809.89014,-0.3145751953125,0.03125,0.95220947265625,4.66552734375,-5.00946044921875,0.82244873046875,1,1.0,1.0,1.0,1.0,65.00
2021-04-29 08:55:14.569,0.37031972,0.3469474,0.68455493,0.74598736,0.21923882,0.14026612,-0.17998143,0.36923614,0.1451754,0.29824442,0.3482167,0.5356655,0.5142993,0.4311787,-0.13123769,0.4339938,0.37730113,0.19340755,-0.48504242,0.1385505,777.6557,809.89014,796.99634,775.2381,741.79486,-0.314208984375,0.027587890625,0.94342041015625,4.5458984375,-4.71038818359375,1.39068603515625,1,1.0,1.0,1.0,1.0,65.00
2021-04-29 08:55:15.076,0.37031972,0.35938108,0.5337129,0.13222581,0.21923882,-0.15265767,-0.049523182,-0.2586999,0.1451754,-0.02589654,0.3369181,0.15788066,0.5142993,0.48103085,-0.042192236,0.3492768,0.37730113,0.16967978,-0.588978,0.10834819,762.3443,793.7729,805.4579,761.53845,774.0293,-0.3172607421875,0.03076171875,0.947998046875,4.85992431640625,-4.358978271484375,0.620574951171875,1,1.0,1.0,1.0,1.0,65.00
2021-04-29 08:55:15.584,0.15542197,0.7732063,0.5945227,0.13222581,0.33988297,0.13286433,0.02266456,-0.2586999,0.01178791,0.34838325,0.27504033,0.15788066,0.4589287,0.48883507,0.04275944,0.3492768,0.36218745,0.14756772,-0.44419035,0.10834819,835.6777,799.41394,790.14655,828.4249,779.2674,-0.31658935546875,0.0277099609375,0.94635009765625,4.463653564453125,-4.329071044921875,1.099090576171875,1,1.0,1.0,1.0,1.0,65.00
2021-04-29 08:55:16.085,0.15542197,0.8115193,0.5750856,0.13222581,0.33988297,0.19148245,0.14710638,-0.2586999,0.01178791,0.40712655,0.26332557,0.15788066,0.4589287,0.43198887,0.16359119,0.3492768,0.36218745,0.1447285,-0.4223891,0.10834819,815.12823,809.4872,795.38464,810.696,698.2784,-0.321044921875,0.02862548828125,0.95233154296875,4.7552490234375,-4.299163818359375,1.861724853515625,1,1.0,1.0,1.0,1.0,65.00
2021-04-29 08:55:16.603,0.15542197,0.68732363,0.45078802,0.13222581,0.33988297,0.096957706,0.0044791126,-0.2586999,0.01178791,0.42042792,0.2324687,0.15788066,0.4589287,0.4658363,0.1402783,0.3492768,0.36218745,0.13004662,-0.453867,0.10834819,819.5604,797.8022,792.96704,813.5165,786.1172,-0.31781005859375,0.030029296875,0.95025634765625,4.90478515625,-4.17205810546875,1.31591796875,1,1.0,1.0,1.0,1.0,65.00
2021-04-29 08:55:17.131,0.43363285,0.24957657,0.044034287,0.32124588,-0.22122434,-0.030560441,-0.054843828,-0.056339145,0.4415938,0.2638254,0.10618288,0.34976438,0.50485575,0.47180927,0.07214314,0.35019875,-0.06955117,0.09721033,-0.5066936,0.0015063449,807.8755,807.0696,803.44324,794.9817,757.1062,-0.32635498046875,0.02264404296875,0.9459228515625,4.7552490234375,-4.224395751953125,0.904693603515625,1,1.0,1.0,1.0,1.0,65.00
2021-04-29 08:55:17.641,0.35501668,0.084827736,-0.15259908,0.27429092,-0.041218247,-0.013554918,-0.3448623,0.038439337,0.45297915,0.21329525,-0.019971712,0.41136488,0.4938885,0.4173042,-0.11805003,0.3051278,0.04741846,0.15590738,-0.4915172,0.1572397,820.7692,805.05493,802.23444,813.91943,780.07324,-0.3165283203125,0.02349853515625,0.951416015625,4.329071044921875,-5.3533935546875,0.665435791015625,1,1.0,1.0,1.0,1.0,65.00
2021-04-29 08:55:18.144,0.31671542,0.09890133,-0.17545862,0.20896664,0.121385396,-0.026367262,-0.36292443,0.07934232,0.513177,0.05398679,-0.110711634,0.44231197,0.47832048,0.34824,-0.17025873,0.2541838,0.15448469,0.1600681,-0.41647857,0.14701018,755.4945,787.72894,799.011,751.8681,775.64105,-0.33038330078125,0.0390625,0.9462890625,4.9346923828125,-3.342132568359375,2.340240478515625,1,1.0,1.0,1.0,1.0,65.00
2021-04-29 08:55:18.661,0.27009442,0.45801467,-0.11018806,0.19415423,0.24782513,-0.20645465,-0.3696443,0.11730805,0.28428102,0.23803155,-0.07229518,0.27473393,0.4763874,0.30549163,-0.1072835,0.20990449,0.23888892,0.23240513,-0.43964458,0.20528246,801.02563,812.3077,795.78754,782.8938,717.619,-0.31658935546875,0.02081298828125,0.94818115234375,4.32159423828125,-4.358978271484375,0.680389404296875,1,1.0,1.0,1.0,1.0,65.00
2021-04-29 08:55:19.177,0.33166307,0.66017735,0.210982,0.17309721,0.36253604,-0.118847094,-0.3119864,0.10063077,0.2809312,0.20874338,-0.024499448,0.25282753,0.47429562,0.33674526,-0.07338896,0.16308622,0.31069052,0.15064137,-0.45914719,0.0663578,774.43225,763.1502,826.0073,779.67035,894.5055,-0.3262939453125,0.02020263671875,0.93939208984375,6.878662109375,-8.673095703125,4.5758056640625,1,1.0,1.0,1.0,1.0,65.00
2021-04-29 08:55:19.695,0.33166307,0.7190432,0.6319316,0.17309721,0.36253604,0.29517925,0.01097261,0.10063077,0.2809312,0.760766,0.52533007,0.25282753,0.47429562,0.3805125,-0.053083625,0.16308622,0.31069052,0.07353386,-0.4088698,0.0663578,796.99634,797.3993,800.2198,813.91943,997.6557,-0.30938720703125,0.03656005859375,0.95294189453125,4.568328857421875,-5.435638427734375,-0.142059326171875,1,1.0,1.0,1.0,1.0,65.00
2021-04-29 08:55:20.226,0.33166307,0.7737886,0.9574204,0.9528495,0.36253604,0.5001536,0.29442602,1.1949384,0.2809312,0.79139924,0.6105966,0.34184536,0.47429562,0.43194738,-0.008438047,0.60864013,0.31069052,-0.10100456,-0.28868154,0.48343256,819.9634,815.9341,803.44324,819.5604,730.9158,-0.36651611328125,0.0184326171875,0.93048095703125,5.944061279296875,-3.730926513671875,-0.418701171875,1,1.0,1.0,1.0,1.0,65.00
2021-04-29 08:55:20.750,0.33166307,0.7317298,1.0607495,1.2896905,0.36253604,0.7699046,0.48907247,1.240546,0.2809312,0.82240343,0.6105966,0.7317363,0.47429562,0.38945103,0.05862223,0.57575214,0.31069052,-0.17504415,-0.22804883,0.48694375,793.36993,763.1502,823.5897,802.6374,790.14655,-0.36846923828125,0.0206298828125,0.93463134765625,4.463653564453125,-3.45428466796875,-1.143951416015625,1,1.0,1.0,1.0,1.0,65.00
2021-04-29 08:55:21.251,1.489421,0.8833242,1.1627065,1.417,1.0296102,0.82511014,0.6053567,1.3083028,0.8065802,0.81542075,0.591954,0.7317363,0.81206995,0.3138774,0.08656805,0.5617134,0.54769623,-0.15639609,-0.24171685,0.44268894,796.5934,809.0842,798.20514,792.96704,777.6557,-0.3653564453125,0.0189208984375,0.92913818359375,3.641204833984375,-4.08233642578125,2.43743896484375,1,1.0,1.0,1.0,1.0,65.00
2021-04-29 08:55:21.762,1.3160903,0.8197076,1.0397811,1.3426434,0.91467243,0.8297183,0.64377123,1.091873,0.81975096,0.6663265,0.45055628,0.9308153,0.64884055,0.25550336,0.040281516,0.44327968,0.38230675,-0.17283095,-0.36605284,0.34390804,817.1429,811.0989,794.17584,812.71063,820.3663,-0.36749267578125,0.02069091796875,0.93267822265625,4.598236083984375,-5.62255859375,2.07855224609375,1,1.0,1.0,1.0,1.0,65.00
2021-04-29 08:55:22.279,1.178055,0.9418495,1.0221446,1.2397224,0.7983919,0.5118291,0.70938367,1.003039,0.6492171,0.4100515,0.5484645,0.9286901,0.49141166,0.27130994,-0.03432692,0.42221084,0.31349435,0.03513909,-0.4801728,0.30001995,807.47253,803.8461,796.1905,809.0842,840.10986,-0.34136962890625,0.015380859375,0.9429931640625,4.9346923828125,-6.781463623046875,1.2261962890625,1,1.0,1.0,1.0,1.0,65.00
2021-04-29 08:55:22.806,1.0997106,0.42024845,0.8265034,0.7550668,0.7941216,0.039939046,0.5688378,0.48177832,0.61095005,0.24321586,0.53380907,0.84752494,0.45162624,0.30118874,-0.09561288,0.39494354,0.1811015,0.028620213,-0.5087134,0.11316048,792.5641,816.337,804.2491,794.17584,717.619,-0.3382568359375,0.0150146484375,0.9429931640625,4.3365478515625,-4.134674072265625,1.054229736328125,1,1.0,1.0,1.0,1.0,65.00
2021-04-29 08:55:23.324,0.7355201,0.71394444,0.74129826,0.43952027,0.27210557,0.39642802,0.433751,0.13592039,0.54209137,0.5093169,0.47333026,0.2775632,0.38660967,0.3696373,-0.15695573,0.4068612,0.18192205,0.057057,-0.48010904,0.1946298,823.5897,800.6227,805.8608,817.5458,821.5751,-0.34295654296875,0.0142822265625,0.9471435546875,4.717864990234375,-5.14404296875,1.039276123046875,1,1.0,1.0,1.0,1.0,65.00
2021-04-29 08:55:23.829,0.89712167,0.71058464,0.66382915,0.54901063,0.32849878,0.45511436,0.19175816,0.10394228,0.6416029,0.49420813,0.1893149,0.30226108,0.33402336,0.39391068,-0.17877671,0.3658806,0.2634663,0.023944346,-0.47882888,0.13388455,803.0403,809.89014,801.4286,796.1905,751.06226,-0.34014892578125,0.0150146484375,0.94134521484375,4.628143310546875,-4.41131591796875,1.024322509765625,1,1.0,1.0,1.0,1.0,65.00
2021-04-29 08:55:24.344,0.7853413,0.7589162,0.59789044,0.5047018,0.24321043,0.42558002,0.10976051,0.089107715,0.64732826,0.49420813,0.16443488,0.58006686,0.3114848,0.40593985,-0.12615615,0.3708184,0.22908063,0.13193786,-0.4939387,0.19993627,788.1319,821.1722,805.05493,785.31134,734.94507,-0.3388671875,0.0177001953125,0.9425048828125,4.912261962890625,-5.450592041015625,1.74957275390625,1,1.0,1.0,1.0,1.0,65.00
2021-04-29 08:55:24.860,0.7475443,-0.017692104,0.2655618,0.52567655,0.21919154,-0.35100973,-0.18466467,-0.02600503,0.66443574,-0.166611,0.14123005,0.5734154,0.32395416,0.34859726,-0.1402565,0.29842496,0.16048552,0.06676515,-0.60616314,0.117781594,805.05493,805.8608,795.38464,803.44324,759.12085,-0.33416748046875,0.0140380859375,0.9434814453125,4.83001708984375,-4.964599609375,0.665435791015625,1,1.0,1.0,1.0,1.0,65.00
2021-04-29 08:55:25.361,0.68689215,0.051375847,-0.25758913,0.44823143,-0.018481713,-0.3658402,-0.3913109,1.888631E-4,0.5215893,-0.14184529,-0.17027941,0.66925836,0.4661238,0.3585546,-0.15217325,0.3591899,0.13201836,0.013488595,-0.5866697,0.1759182,803.0403,808.2784,801.8315,797.8022,736.1539,-0.33154296875,0.0142822265625,0.9405517578125,4.358978271484375,-4.418792724609375,0.3887939453125,1,1.0,1.0,1.0,1.0,65.00
2021-04-29 08:55:25.864,0.76375014,0.037101746,-0.27840403,0.48193485,0.034305975,-0.3220445,-0.33198813,0.08186492,0.5214375,-0.096391015,-0.19913411,0.6644507,0.5469143,0.38135692,-0.124455184,0.42294547,0.19672137,-0.038987093,-0.5459142,0.18577495,710.3663,791.75824,805.4579,716.8132,704.3223,-0.3369140625,0.00885009765625,0.9429931640625,5.046844482421875,-4.403839111328125,0.91217041015625,1,1.0,1.0,1.0,1.0,65.00
2021-04-29 08:55:26.382,0.8196107,0.3994808,0.23876686,0.5147978,-0.30915272,-0.34331033,-0.18530537,0.049601566,0.3974529,-0.1070336,-0.022294674,0.60194653,0.6069605,0.43355548,-0.041544028,0.48504585,0.3145897,-0.007663167,-0.5347404,0.23917668,817.9487,806.26373,785.7143,808.2784,844.5421,-0.3358154296875,0.0181884765625,0.93994140625,4.7552490234375,-4.029998779296875,1.308441162109375,1,1.0,1.0,1.0,1.0,65.00
2021-04-29 08:55:26.902,0.57378304,0.46067896,0.3928118,0.26763248,-0.21363756,-0.33842108,-0.20707634,0.06910203,0.11967918,-0.1498563,-0.0024159015,0.60194653,0.5814453,0.46932927,-0.029825076,0.5146674,0.36795336,0.045998707,-0.5463224,0.31667057,812.71063,810.696,802.23444,811.0989,809.0842,-0.34320068359375,0.01629638671875,0.939208984375,4.85992431640625,-4.523468017578125,1.24114990234375,1,1.0,1.0,1.0,1.0,65.00
2021-04-29 08:55:27.427,0.57378304,0.4194574,0.48370627,0.26763248,-0.21363756,-0.37264723,-0.21636981,0.06910203,0.11967918,-0.15940435,-0.0033770523,0.60194653,0.5814453,0.45794475,-0.099828355,0.5146674,0.36795336,0.02036425,-0.5495978,0.31667057,806.26373,805.4579,802.23444,797.3993,734.5421,-0.34912109375,0.0189208984375,0.93487548828125,5.03936767578125,-3.850555419921875,1.801910400390625,1,1.0,1.0,1.0,1.0,65.00
2021-04-29 08:55:27.953,0.8088272,0.14112772,0.31696323,0.6053845,0.5553834,-0.014386188,-0.32250252,0.3812286,0.6106812,0.017305456,-0.19982116,0.7622833,0.43452525,0.3535603,-0.20895813,0.572038,-0.091126196,0.0115334075,-0.58082235,0.026553018,806.6667,801.4286,794.57874,808.68134,834.0659,-0.35003662109375,0.01336669921875,0.9366455078125,4.523468017578125,-3.4991455078125,1.114044189453125,1,1.0,1.0,1.0,1.0,65.00
2021-04-29 08:55:28.456,0.99098045,0.5525177,0.52482325,0.9267426,0.6817736,0.20498309,0.08178347,0.47083166,0.6526143,0.25455305,-0.10470076,0.76813823,0.41482297,0.33928075,-0.17298125,0.5331144,0.01313039,-0.03237329,-0.6173152,-0.05416146,817.9487,811.50183,801.8315,813.1135,763.5531,-0.35345458984375,0.0206298828125,0.938232421875,4.732818603515625,-4.433746337890625,0.919647216796875,1,1.0,1.0,1.0,1.0,65.00
2021-04-29 08:55:28.965,1.0621004,0.823141,0.71737224,1.0322138,0.74227124,0.40120995,0.29993182,0.48472357,0.66180855,0.34683308,0.24246448,0.6750584,0.43078747,0.292502,-0.030861452,0.5027121,0.057972994,-0.06325226,-0.56941473,-0.13448586,792.96704,805.4579,809.89014,803.8461,784.90845,-0.35260009765625,0.0,0.93438720703125,4.80010986328125,-4.2169189453125,1.00189208984375,1,1.0,1.0,1.0,1.0,65.00
2021-04-29 08:55:29.501,1.1774044,0.85485035,0.7317549,1.192907,0.8216292,0.43495163,0.3662084,0.56403524,0.6452764,0.38234916,0.25470853,0.43581095,0.37197167,0.30139723,-0.009529509,0.43961313,0.16578355,-0.1113651,-0.5271725,-0.24216408,813.1135,818.3516,810.293,811.9048,725.2747,-0.35443115234375,0.0169677734375,0.93536376953125,4.91973876953125,-4.702911376953125,0.949554443359375,1,1.0,1.0,1.0,1.0,65.00
2021-04-29 08:55:30.021,1.0584341,0.77414525,0.6006148,1.1920846,0.8189827,0.40571383,0.3908179,0.48308328,0.521207,0.37681752,0.2621371,0.3084879,0.5390892,0.34687975,0.008915494,0.4104534,0.274386,-0.090857856,-0.5484925,-0.25629148,798.60803,798.20514,792.96704,794.17584,733.73627,-0.3533935546875,0.01580810546875,0.93353271484375,4.807586669921875,-4.0673828125,0.889739990234375,1,1.0,1.0,1.0,1.0,65.00
2021-04-29 08:55:30.527,0.79161876,0.45714885,0.4219662,0.52782226,0.5941267,0.25626925,0.25323644,0.25370988,0.4515872,0.22659144,0.09841653,0.4305252,0.5365961,0.37332916,-0.07732307,0.2929007,0.20457385,-0.08282555,-0.6211812,-0.007639135,802.6374,797.8022,806.6667,805.8608,819.5604,-0.34698486328125,0.0191650390625,0.93658447265625,4.284210205078125,-4.463653564453125,1.136474609375,1,1.0,1.0,1.0,1.0,65.00
2021-04-29 08:55:31.044,0.71798277,0.51616585,0.7621304,0.45603603,0.5789842,0.27312624,0.23852672,0.27149603,0.5647642,0.62593096,0.28198758,0.432552,0.52714133,0.3768042,-0.108200364,0.41676483,0.21533065,-0.06373772,-0.63605744,-0.046692815,798.20514,813.1135,804.2491,798.20514,747.03296,-0.34991455078125,0.0189208984375,0.9356689453125,4.56085205078125,-4.792633056640625,0.7476806640625,1,1.0,1.0,1.0,1.0,65.00
2021-04-29 08:55:31.546,0.5582885,0.7085206,0.8668059,0.4160824,0.47542396,0.40265897,0.2715693,0.21903615,0.5913486,0.67062646,0.30786327,0.32946485,0.48030695,0.32133764,-0.16014203,0.4644664,0.14929774,-0.043954585,-0.58826125,0.010082669,810.696,806.6667,802.6374,805.8608,708.3516,-0.35491943359375,0.01605224609375,0.93353271484375,4.553375244140625,-3.506622314453125,0.605621337890625,1,1.0,1.0,1.0,1.0,65.00
2021-04-29 08:55:32.062,0.4213306,0.69241863,0.8070422,0.24793974,0.41166994,0.41546538,0.2800535,0.21362568,0.59074646,0.67062646,0.3143437,0.27747557,0.4248318,0.3501264,-0.13991833,0.51140845,0.17042266,-0.023163456,-0.53514504,0.005293878,807.47253,799.011,800.2198,808.2784,797.3993,-0.3623046875,0.0152587890625,0.92803955078125,4.388885498046875,-4.74029541015625,0.8673095703125,1,1.0,1.0,1.0,1.0,65.00
2021-04-29 08:55:32.565,0.2926068,0.56964344,0.46326372,0.16022387,0.200777,0.2888953,0.17582983,0.105210945,0.575615,0.6652481,0.3260898,0.37140194,0.33876643,0.38703322,-0.10895957,0.45358983,0.19520873,-0.037753686,-0.50077975,0.041811973,799.41394,811.50183,802.6374,801.8315,694.65204,-0.35064697265625,0.009033203125,0.9354248046875,4.583282470703125,-5.4132080078125,1.772003173828125,1,1.0,1.0,1.0,1.0,65.00
2021-04-29 08:55:33.070,0.2499884,0.09484701,0.0060686283,0.08335738,-0.052479085,0.08237219,-0.12674038,-0.016974296,0.29668337,0.15477076,0.18830733,0.28975496,0.2612958,0.45137253,-0.13440198,0.33280903,0.21826743,-0.09807986,-0.5133214,-0.037196856,809.89014,801.8315,795.78754,819.5604,944.4689,-0.35247802734375,0.013916015625,0.9395751953125,4.179534912109375,-5.38330078125,0.55328369140625,1,1.0,1.0,1.0,1.0,65.00
2021-04-29 08:55:33.583,0.33735067,0.051344078,-0.13208222,0.11021221,-0.121614926,0.031868372,-0.22488801,-0.10975398,0.30135047,0.15477076,0.16095503,0.4069815,0.2637615,0.45672575,-0.13012326,0.27660403,0.21662529,-0.1541868,-0.53209573,-0.03125852,721.2454,810.293,791.3553,693.0403,818.7546,-0.3489990234375,0.01129150390625,0.9351806640625,4.598236083984375,-5.60760498046875,0.829925537109375,1,1.0,1.0,1.0,1.0,65.00
2021-04-29 08:55:33.784,,,,,,,,,,,,,,,,,,,,,,,,,,,,,,,,,,,,,,/muse/elements/blink
2021-04-29 08:55:34.095,0.43839788,0.4807009,0.61288184,0.13233092,-0.052187372,0.14292486,0.21377338,-0.14633693,0.24955657,0.16222699,0.07820885,0.33230457,0.27137062,0.38859734,-0.22559784,0.22040337,0.15732218,-0.23655346,-0.555072,-0.062317133,799.81683,834.87177,792.5641,777.25275,742.1978,-0.351806640625,0.011962890625,0.9376220703125,4.42626953125,-5.644989013671875,1.3458251953125,1,1.0,1.0,1.0,1.0,65.00
2021-04-29 08:55:34.614,0.37986514,0.5810691,0.9312703,-0.0071391445,-0.36534768,0.09100652,0.35731122,-0.10761017,0.046208356,-0.14608394,0.044358864,0.22796103,0.3288927,0.32987016,-0.10571995,0.3392805,0.13332105,-0.24080482,-0.57023335,0.024238288,817.5458,775.2381,796.5934,821.5751,974.68866,-0.34674072265625,0.013671875,0.938232421875,4.50103759765625,-5.00946044921875,1.74957275390625,1,1.0,1.0,1.0,1.0,65.00
2021-04-29 08:55:35.131,0.37986514,0.858655,1.1443164,-0.0071391445,-0.36534768,0.2133953,0.4547718,-0.10761017,0.046208356,-0.18513764,0.16089253,0.22796103,0.3288927,0.21767545,-0.07477406,0.3392805,0.13332105,-0.26980639,-0.613544,0.024238288,802.23444,802.23444,793.7729,801.4286,792.96704,-0.3414306640625,0.00970458984375,0.9383544921875,5.00946044921875,-5.66741943359375,0.79254150390625,1,1.0,1.0,1.0,1.0,65.00
2021-04-29 08:55:35.646,0.27410924,0.94519305,1.2439601,1.0282333,0.262043,0.27859142,0.39471945,0.5324089,0.86530757,-0.18644765,0.49976134,1.0453268,0.46088564,0.2179553,0.051633038,0.40471935,0.16867796,-0.2918171,-0.60357076,-0.12284568,809.4872,809.0842,806.6667,815.5311,803.44324,-0.35064697265625,0.022705078125,0.9451904296875,4.486083984375,-4.702911376953125,0.276641845703125,1,1.0,1.0,1.0,1.0,65.00
2021-04-29 08:55:36.154,0.7821499,1.1911303,1.1901002,1.0309128,0.49720144,0.7452811,0.4479144,0.5006824,0.9543689,0.67750955,0.53296125,1.0617669,0.4035623,0.43122074,0.10029142,0.3669442,0.20799728,0.017384415,-0.3756972,-0.092817165,790.14655,780.4762,823.5897,809.0842,834.0659,-0.3406982421875,0.005859375,0.9366455078125,4.269256591796875,-6.400146484375,0.037384033203125,1,1.0,1.0,1.0,1.0,65.00
2021-04-29 08:55:36.658,1.0883745,1.1911303,1.1925886,0.9339247,0.686179,0.7452811,0.5489916,0.47953305,0.94545245,0.67750955,0.6272907,0.97411954,0.33146337,0.43122074,0.11444674,0.3642659,0.2696929,0.017384415,-0.3547711,-0.1090258,811.0989,814.3223,801.02563,810.293,859.85345,-0.3555908203125,0.00384521484375,0.92938232421875,4.508514404296875,-2.370147705078125,1.07666015625,1,1.0,1.0,1.0,1.0,65.00
2021-04-29 08:55:37.171,1.2518396,1.1911303,1.0558022,0.97984505,0.9111205,0.7452811,0.46513367,0.45527428,0.8366464,0.67750955,0.5884255,0.8223979,0.2913466,0.43122074,0.07360248,0.3114282,0.28964722,0.017384415,-0.39933294,-0.049374163,771.2088,808.68134,803.0403,763.95605,740.58606,-0.364990234375,0.01129150390625,0.92779541015625,4.717864990234375,-4.598236083984375,1.786956787109375,1,1.0,1.0,1.0,1.0,65.00
2021-04-29 08:55:37.682,1.3340771,0.24916612,0.9624506,0.97984505,1.0055844,-0.010058719,0.32248792,0.45527428,0.6497334,0.25722384,0.573857,0.8223979,0.2806134,0.33786654,-0.018038303,0.3114282,0.30849785,-0.3333065,-0.55610824,-0.049374163,810.696,812.71063,802.23444,803.8461,780.07324,-0.367431640625,0.0133056640625,0.9300537109375,4.448699951171875,-3.596343994140625,1.1663818359375,1,1.0,1.0,1.0,1.0,65.00
2021-04-29 08:55:38.182,1.2533642,0.44911587,0.6984276,0.97984505,1.0936528,0.13335598,0.07510641,0.45527428,0.3518434,0.35375744,0.29058886,0.8223979,0.37375218,0.31455877,-0.0040273992,0.3114282,0.30001646,-0.1903757,-0.56638163,-0.049374163,805.4579,814.3223,808.2784,790.9524,711.5751,-0.37603759765625,6.103515625E-4,0.92718505859375,3.768310546875,-5.630035400390625,0.22430419921875,1,1.0,1.0,1.0,1.0,65.00
2021-04-29 08:55:38.691,1.6059442,0.49510828,0.64254147,0.97984505,1.1970617,0.2886961,0.29402873,0.45527428,0.5409355,0.39696914,0.43736,0.8223979,0.49297225,0.31385607,0.03194265,0.3114282,0.12606648,-0.20125164,-0.49985468,-0.049374163,772.4176,782.49084,805.4579,788.1319,763.5531,-0.3857421875,0.01318359375,0.92364501953125,4.209442138671875,-2.94586181640625,1.77947998046875,1,1.0,1.0,1.0,1.0,65.00
2021-04-29 08:55:39.202,1.579311,0.624102,0.618587,0.97984505,1.1562107,0.3564143,0.39018703,0.45527428,0.72411925,0.41829,0.45966962,0.8223979,0.54555875,0.28940332,0.093426466,0.3114282,0.14138684,-0.06884601,-0.35712016,-0.049374163,818.3516,813.5165,803.8461,809.89014,725.6777,-0.3740234375,0.0050048828125,0.92913818359375,4.71038818359375,-4.5159912109375,0.770111083984375,1,1.0,1.0,1.0,1.0,65.00
2021-04-29 08:55:39.712,1.4779516,0.7103248,0.50072193,1.4939398,1.1036297,0.34099898,0.35473883,1.2069966,0.75933516,0.41829,0.46723908,0.5743027,0.60289603,0.3150394,0.07597224,0.46032572,0.15037565,-0.08800502,-0.29989782,-0.17455807,802.6374,814.3223,809.4872,793.7729,714.7985,-0.37506103515625,0.0103759765625,0.93115234375,4.65057373046875,-4.673004150390625,0.620574951171875,1,1.0,1.0,1.0,1.0,65.00
2021-04-29 08:55:40.222,1.3387724,0.67600626,0.31313983,1.3001852,1.0110284,0.11385929,0.01817702,1.0767342,0.63457996,0.34550682,0.3558414,0.29739314,0.6743706,0.36971813,0.04120921,0.45614555,0.16888848,-0.12240457,-0.3153139,-0.2297457,795.38464,783.2967,816.7399,814.3223,820.7692,-0.39837646484375,0.02001953125,0.91845703125,8.725433349609375,-3.66363525390625,11.880645751953125,1,1.0,1.0,1.0,1.0,65.00
2021-04-29 08:55:40.731,1.3049393,0.67949474,0.69118965,1.3001852,1.0274522,-0.021510804,0.18532985,1.0767342,0.55945754,0.10463394,0.27562672,0.29739314,0.6653276,0.4035974,0.010472325,0.45614555,0.1613562,-0.25992396,-0.36044842,-0.2297457,782.49084,788.93774,813.5165,780.07324,793.36993,-0.44952392578125,0.06317138671875,0.89312744140625,7.932891845703125,-0.538330078125,1.07666015625,1,1.0,1.0,1.0,1.0,65.00
2021-04-29 08:55:41.236,1.3049393,0.48749632,0.9021434,1.2504959,1.0274522,-0.36892202,0.32112205,1.0514251,0.55945754,-0.58769464,0.44694766,0.23208225,0.6653276,0.43803337,-0.085234754,0.45794427,0.1613562,-0.41878557,-0.36383665,-0.27110067,809.89014,810.293,788.93774,791.3553,704.3223,-0.455322265625,0.04986572265625,0.88262939453125,2.788848876953125,-6.280517578125,-2.5421142578125,1,1.0,1.0,1.0,1.0,65.00
2021-04-29 08:55:41.742,1.3049393,0.45942718,1.140891,1.2504959,1.0274522,-0.285254,0.4618322,1.0514251,0.55945754,-0.7752284,0.45408666,0.23208225,0.6653276,0.44073787,-0.013265088,0.45794427,0.1613562,-0.46446085,-0.39151412,-0.27110067,811.0989,808.68134,800.2198,814.3223,826.8132,-0.444580078125,0.05523681640625,0.89599609375,6.168365478515625,-4.314117431640625,3.6187744140625,1,1.0,1.0,1.0,1.0,65.00
2021-04-29 08:55:42.246,1.3049393,0.45942718,1.2467908,1.2062904,1.0274522,-0.285254,0.50056547,0.8824333,0.55945754,-0.7752284,0.5317397,0.95248425,0.6653276,0.44073787,-0.01715227,0.43533286,0.1613562,-0.46446085,-0.4536535,0.09559164,817.1429,804.65204,814.3223,813.5165,762.3443,-0.4398193359375,0.0318603515625,0.89569091796875,4.306640625,-4.972076416015625,-0.0299072265625,1,1.0,1.0,1.0,1.0,65.00
2021-04-29 08:55:42.750,1.2630965,0.45942718,1.3282104,1.2955582,0.8769042,-0.285254,0.60207915,0.9552882,0.87579787,-0.7752284,0.5344967,0.9533201,0.54246414,0.44073787,0.06852846,0.4416701,0.048941277,-0.46446085,-0.6281484,0.050764944,803.8461,828.8278,780.87915,797.8022,664.0293,-0.42449951171875,0.032470703125,0.90325927734375,4.314117431640625,-6.1907958984375,0.590667724609375,1,1.0,1.0,1.0,1.0,65.00
2021-04-29 08:55:43.262,1.1611089,0.45942718,1.2299426,1.2842604,0.8534183,-0.285254,0.61894774,0.93570006,0.87824273,-0.7752284,0.54868174,1.05214,0.5009683,0.44073787,-0.15699553,0.4471208,0.08937484,-0.46446085,-0.36481985,0.029853163,808.2784,801.02563,797.3993,813.91943,743.8095,-0.42041015625,0.031005859375,0.9072265625,4.71038818359375,-5.27862548828125,0.777587890625,1,1.0,1.0,1.0,1.0,65.00
2021-04-29 08:55:43.765,1.1449696,0.45942718,1.1128504,1.2230715,0.83713305,-0.285254,0.55381465,0.9285866,0.75182194,-0.7752284,0.36440298,0.8238156,0.44982433,0.44073787,-0.11978746,0.4828804,0.16085444,-0.46446085,-0.35324728,0.044434458,805.8608,816.7399,792.96704,798.60803,729.304,-0.42376708984375,0.031005859375,0.9075927734375,4.6954345703125,-4.3365478515625,0.83740234375,1,1.0,1.0,1.0,1.0,65.00
2021-04-29 08:55:44.276,0.8703834,0.45942718,1.1312065,0.9862889,0.7980371,-0.285254,0.6131073,0.85010535,0.80552715,-0.7752284,0.33500925,0.7940127,0.42353147,0.44073787,-0.14268693,0.5240725,0.18861179,-0.46446085,-0.38297698,0.0689252,793.36993,795.38464,792.96704,793.7729,720.0366,-0.41912841796875,0.02899169921875,0.90625,4.5758056640625,-4.53094482421875,0.605621337890625,1,1.0,1.0,1.0,1.0,65.00
2021-04-29 08:55:44.781,0.7907786,0.45942718,1.0518054,0.99327165,0.799827,-0.285254,0.55505586,0.86988556,0.7908345,-0.7752284,0.40556404,0.9281942,0.38239902,0.44073787,-0.045941062,0.5274837,0.2092226,-0.46446085,-0.4258361,0.043969356,827.619,803.0403,796.5934,812.71063,796.1905,-0.4041748046875,0.022216796875,0.91290283203125,4.486083984375,-7.992706298828125,-1.55517578125,1,1.0,1.0,1.0,1.0,65.00
2021-04-29 08:55:45.301,0.9990681,0.83128977,0.94200766,1.0898209,0.9142544,0.47937575,0.50776565,0.9251382,0.8389511,0.5644632,0.4265915,0.9394774,0.459265,0.41096827,-0.046789724,0.5090225,0.22245853,-0.04483192,-0.39928,0.08365763,818.3516,815.9341,787.326,810.696,800.2198,-0.3861083984375,0.049560546875,0.92047119140625,5.659942626953125,-2.52716064453125,1.71966552734375,1,1.0,1.0,1.0,1.0,65.00
2021-04-29 08:55:45.801,1.356247,0.5785623,0.6350272,1.1771172,1.0881703,0.34580177,0.2212479,0.9432712,0.7552527,0.582568,0.4071252,0.93836987,0.5692693,0.55156577,-0.027243063,0.46358597,0.41597962,0.11507103,-0.35574558,0.13299212,792.5641,815.9341,789.34064,765.16486,690.6227,-0.38751220703125,0.03369140625,0.92034912109375,3.252410888671875,-1.3458251953125,3.9776611328125,1,1.0,1.0,1.0,1.0,65.00
2021-04-29 08:55:46.320,1.4274002,0.4284348,0.37664434,1.1571368,1.114195,0.25134277,0.10633826,0.9444431,0.74942744,0.582568,0.40933973,0.9055641,0.6230146,0.47619364,-0.14961667,0.47348765,0.46359465,0.01423728,-0.30204022,0.18049268,788.5348,793.36993,803.8461,790.54944,867.50916,-0.3944091796875,0.03790283203125,0.91851806640625,4.05242919921875,-4.83001708984375,-0.11962890625,1,1.0,1.0,1.0,1.0,65.00
2021-04-29 08:55:46.829,1.4274002,0.08401277,0.2750522,1.1571368,1.114195,0.11454595,-0.12501898,0.9444431,0.74942744,0.30445603,0.103484966,0.9055641,0.6230146,0.43760276,-0.15945496,0.47348765,0.46359465,-0.03666995,-0.36618528,0.18049268,813.1135,803.44324,790.9524,807.0696,724.87177,-0.393310546875,0.0360107421875,0.91766357421875,4.844970703125,-4.927215576171875,0.28411865234375,1,1.0,1.0,1.0,1.0,65.00
2021-04-29 08:55:47.353,1.4274002,0.44035384,0.5325011,1.0541809,1.114195,0.18799455,-0.08917271,0.4482527,0.74942744,0.3989324,0.1142204,0.42987466,0.6230146,0.24249178,-0.19933192,0.3760022,0.46359465,-0.14139566,-0.42115924,0.028860573,806.26373,799.011,796.5934,802.23444,792.1612,-0.3824462890625,0.029296875,0.92706298828125,4.3365478515625,-6.153411865234375,1.256103515625,1,1.0,1.0,1.0,1.0,65.00
2021-04-29 08:55:47.866,1.0479834,0.48708844,0.61524916,0.8282817,0.75010514,0.13250674,-0.071984924,0.35854107,0.65232456,0.39497215,0.14244118,0.55114734,0.5465662,0.2972131,-0.18070205,0.40684855,0.31964988,-0.021667143,-0.47655413,0.109930426,809.4872,813.5165,799.011,796.99634,704.7253,-0.376708984375,0.0313720703125,0.92938232421875,4.6954345703125,-5.973968505859375,2.160797119140625,1,1.0,1.0,1.0,1.0,65.00
2021-04-29 08:55:48.372,0.7818179,0.687766,0.6752742,0.8398218,0.5709086,0.19015919,0.14989646,0.6408676,0.67087024,0.48296446,0.5038464,0.8384898,0.4802236,0.30466986,-0.12584378,0.44176915,0.28625932,-0.017409496,-0.48139894,0.013919499,813.1135,812.3077,780.4762,798.20514,625.7509,-0.37127685546875,0.02935791015625,0.9254150390625,4.418792724609375,-4.015045166015625,1.4654541015625,1,1.0,1.0,1.0,1.0,65.00
2021-04-29 08:55:48.898,0.37920436,0.805512,0.84676373,0.77562135,0.3515741,0.118460216,0.28162774,0.64869165,0.63864964,0.61848897,0.5771733,0.8398804,0.4490245,0.38455534,-0.10919331,0.45483625,0.21342447,-0.13712312,-0.5061809,-0.09399513,799.81683,816.337,793.7729,779.67035,785.31134,-0.3726806640625,0.02783203125,0.92779541015625,4.209442138671875,-4.59075927734375,0.620574951171875,1,1.0,1.0,1.0,1.0,65.00
2021-04-29 08:55:49.409,0.89807105,1.0173491,1.0317022,0.82563347,0.54249585,0.30851108,0.3707103,0.6938245,0.81217396,0.6477344,0.5860759,0.9844296,0.38736677,0.3865044,-0.10378878,0.38362285,0.12209683,-0.31575903,-0.4324143,-0.2594183,804.65204,812.71063,811.0989,802.6374,750.65936,-0.3768310546875,0.0250244140625,0.9302978515625,4.702911376953125,-4.78515625,0.785064697265625,1,1.0,1.0,1.0,1.0,65.00
2021-04-29 08:55:49.928,0.9807219,1.0664697,1.0815183,0.7981211,0.54613936,0.38835108,0.35488868,0.53896356,0.8048945,0.6165899,0.46547073,0.9573756,0.39096016,0.472194,-0.18181184,0.30018386,0.11721387,-0.3066271,-0.38773054,-0.23429385,807.0696,809.89014,807.0696,797.3993,622.1245,-0.38177490234375,0.0174560546875,0.926025390625,4.4561767578125,-3.671112060546875,0.8673095703125,1,1.0,1.0,1.0,1.0,65.00
2021-04-29 08:55:50.446,1.000369,1.0658206,1.0198052,0.9010894,0.5685108,0.49304277,0.59877187,0.7175269,0.7993831,0.45156893,0.43660218,1.0776533,0.33941713,0.45862156,-0.118121296,0.26196223,0.17082217,-0.21877486,-0.40770915,-0.10180952,811.0989,806.6667,803.0403,814.3223,814.3223,-0.38592529296875,0.0185546875,0.923095703125,4.478607177734375,-3.54400634765625,1.368255615234375,1,1.0,1.0,1.0,1.0,65.00
2021-04-29 08:55:50.968,0.5943385,0.65287125,1.0191059,0.92963606,0.37256566,0.32988742,0.6090203,0.72558403,0.45969078,0.3360639,0.3302031,0.9918173,0.44344655,0.4046117,-0.13449322,0.3368061,0.24967155,-0.35610893,-0.5056738,-0.08863412,803.0403,813.1135,805.05493,810.293,728.9011,-0.38720703125,0.01922607421875,0.923828125,4.687957763671875,-4.523468017578125,2.27294921875,1,1.0,1.0,1.0,1.0,65.00
2021-04-29 08:55:51.473,0.5046637,-0.0025811628,0.8940875,0.8689176,0.2114266,0.015151926,0.5513127,0.66264766,0.3182795,0.18824024,0.3283035,0.9903085,0.45305502,0.33107543,-0.13674097,0.4441764,0.2751251,-0.48651776,-0.4168731,0.009266782,834.87177,819.15753,801.02563,809.89014,790.9524,-0.3916015625,0.0223388671875,0.92108154296875,4.8150634765625,-4.23187255859375,1.517791748046875,1,1.0,1.0,1.0,1.0,65.00
2021-04-29 08:55:51.978,0.8230543,0.40037376,0.6011706,0.7605085,0.5212663,0.048860334,0.086320914,0.6169684,0.49975494,0.18824024,0.26824036,0.80319035,0.545082,0.3233953,-0.18836573,0.48080382,0.33431235,-0.3733532,-0.34467098,0.02123435,820.7692,803.44324,803.44324,812.71063,848.97437,-0.38861083984375,0.02484130859375,0.923828125,5.12908935546875,-5.42816162109375,0.43365478515625,1,1.0,1.0,1.0,1.0,65.00
2021-04-29 08:55:52.502,0.84246117,0.548976,-0.21340036,0.7299942,0.53769845,-0.07355702,-0.21570073,0.62356514,0.5150388,0.121358335,0.1225683,0.6087991,0.5300362,0.3265584,-0.14862429,0.5057869,0.32758012,-0.3449621,-0.34949765,0.07132582,804.65204,821.978,814.7253,804.2491,739.3773,-0.39349365234375,0.02435302734375,0.920166015625,4.448699951171875,-4.44122314453125,0.590667724609375,1,1.0,1.0,1.0,1.0,65.00
2021-04-29 08:55:53.027,0.91556185,0.57952935,-0.33312234,0.7621856,0.58189386,-0.2216326,-0.33504638,0.61232924,0.5655449,0.14119832,-0.012336884,0.60806656,0.5622544,0.29994163,-0.12665111,0.38178954,0.34429306,-0.21212651,-0.3758716,-0.081269376,789.34064,804.65204,803.44324,788.5348,763.95605,-0.3917236328125,0.02313232421875,0.92120361328125,4.792633056640625,-3.9178466796875,1.0467529296875,1,1.0,1.0,1.0,1.0,65.00
2021-04-29 08:55:53.554,0.7487816,0.44138768,-0.17042693,0.7498148,0.17541108,-0.5855918,-0.48716098,0.14036651,0.4104487,0.18842568,-0.08360923,0.40888858,0.46615916,0.333105,-0.11528343,0.30583778,0.3165775,-0.18437068,-0.43186584,-0.1929936,791.3553,804.2491,809.0842,788.1319,720.84247,-0.38433837890625,0.02349853515625,0.92071533203125,4.18701171875,-5.0244140625,0.43365478515625,1,1.0,1.0,1.0,1.0,65.00
2021-04-29 08:55:54.065,0.7487816,0.40445364,0.14891842,0.81041646,0.17541108,-0.38531375,-0.5431079,0.18870527,0.4104487,0.20197278,-0.031864528,0.40888858,0.46615916,0.3482661,-0.06874117,0.33484128,0.3165775,-0.18620373,-0.35113284,-0.1670134,817.9487,798.20514,807.8755,821.1722,827.2161,-0.3916015625,0.0216064453125,0.923583984375,4.448699951171875,-5.0543212890625,1.233673095703125,1,1.0,1.0,1.0,1.0,60.00
2021-04-29 08:55:54.587,0.7487816,0.71823317,0.61579347,0.81041646,0.17541108,-0.15486428,-0.18038177,0.18870527,0.4104487,0.39828876,0.4305598,0.40888858,0.46615916,0.35409957,-0.033938468,0.33484128,0.3165775,-0.2471247,-0.3205662,-0.1670134,812.71063,803.8461,799.011,809.4872,822.7839,-0.39263916015625,0.02325439453125,0.91815185546875,4.53094482421875,-4.725341796875,1.114044189453125,1,1.0,1.0,1.0,1.0,60.00
2021-04-29 08:55:55.109,0.7747727,1.00137,0.96848536,0.8756628,0.8873975,0.38762766,0.3585753,0.47505942,0.7839798,0.68022853,0.50675905,0.6876771,0.45230505,0.3197873,0.04643152,0.37009978,0.047071256,-0.19587022,-0.25609824,0.06639925,796.1905,810.293,797.8022,812.3077,682.96704,-0.39105224609375,0.0252685546875,0.91632080078125,4.747772216796875,-4.47113037109375,1.472930908203125,1,1.0,1.0,1.0,1.0,60.00
2021-04-29 08:55:55.617,0.6299618,1.0277951,1.0146121,0.81607115,0.63286704,0.5052217,0.43608448,0.47756597,0.7895912,0.66737235,0.5070216,0.6975959,0.455934,0.3136547,0.013017408,0.30188993,-0.004144764,-0.15307051,-0.29139727,0.0039824704,819.5604,802.23444,799.011,813.1135,757.50916,-0.38934326171875,0.02349853515625,0.923828125,4.32159423828125,-4.35150146484375,1.009368896484375,1,1.0,1.0,1.0,1.0,60.00
2021-04-29 08:55:56.132,0.49870685,0.80686563,0.8418347,0.6096286,0.48286992,0.43643975,0.3510522,0.41665763,0.7932486,0.6613939,0.3703072,0.6596521,0.49305907,0.31223562,-0.056386884,0.31960118,0.015017236,-0.18510735,-0.43018356,-0.05017506,809.89014,798.20514,792.1612,811.0989,786.52014,-0.3970947265625,0.01953125,0.91925048828125,4.725341796875,-4.463653564453125,0.59814453125,1,1.0,1.0,1.0,1.0,60.00
2021-04-29 08:55:56.643,0.334452,0.3857865,0.49433035,0.377898,0.17810623,0.09118075,-0.03363814,0.30345324,0.54253757,0.3901682,0.261087,0.60024047,0.4856884,0.28266186,-0.07135941,0.35433844,0.00915755,-0.2845475,-0.55005884,-0.21170674,786.9231,795.38464,792.1612,784.5055,760.7326,-0.3916015625,0.0196533203125,0.92059326171875,4.6954345703125,-4.927215576171875,0.85235595703125,1,1.0,1.0,1.0,1.0,60.00
2021-04-29 08:55:57.147,0.69079715,0.37349573,0.36796007,0.4713841,0.5209499,0.021904469,-0.12905937,0.43726382,0.88674843,0.15393783,0.23353668,0.8303217,0.5515633,0.29010427,-0.04977112,0.43998134,0.056813274,-0.29467043,-0.5779087,-0.28197312,809.4872,799.81683,790.14655,805.4579,778.0586,-0.38916015625,0.019775390625,0.91796875,4.433746337890625,-4.44122314453125,1.0467529296875,1,1.0,1.0,1.0,1.0,60.00
2021-04-29 08:55:57.658,0.8348139,0.67800283,0.724838,0.6679243,0.7086721,0.23952861,0.12198217,0.66539264,0.91066533,0.51134104,0.3655409,0.9971222,0.55482185,0.34311068,0.04687579,0.5034888,0.112168685,-0.2862927,-0.4712043,-0.15335979,811.0989,801.8315,805.8608,801.02563,795.78754,-0.39434814453125,0.017578125,0.9183349609375,4.5758056640625,-5.226287841796875,0.55328369140625,1,1.0,1.0,1.0,1.0,60.00
2021-04-29 08:55:58.189,0.95496935,0.8363196,0.924167,0.8031936,0.81252134,0.38709566,0.29038504,0.71650183,0.91066533,0.51134104,0.36325535,0.9969244,0.6081602,0.40466756,0.044416387,0.48422617,0.14893799,-0.29176491,-0.32427388,-0.04874513,767.1795,818.3516,799.011,753.47986,743.4066,-0.39459228515625,0.0179443359375,0.9215087890625,4.523468017578125,-4.56085205078125,0.83740234375,1,1.0,1.0,1.0,1.0,60.00
2021-04-29 08:55:58.700,0.7619922,0.83722633,0.98728555,0.7812674,0.7066484,0.34188324,0.3287662,0.7165705,0.82094485,0.54431397,0.3263197,0.9964264,0.560561,0.32843417,0.0830787,0.48768598,0.17244634,-0.17512245,-0.24351735,0.042954672,829.2308,801.8315,800.6227,821.1722,842.1245,-0.3896484375,0.01727294921875,0.92120361328125,4.66552734375,-4.83001708984375,1.1065673828125,1,1.0,1.0,1.0,1.0,60.00
2021-04-29 08:55:59.212,0.74140525,0.8344173,0.9545952,0.8173554,0.6893095,0.3536902,0.33017787,0.42305008,0.76815754,0.40945143,0.3965907,0.5287439,0.5050477,0.3363549,0.06950452,0.40933824,0.15317303,-0.12241362,-0.17504685,0.05956401,805.4579,813.1135,800.6227,800.2198,767.5824,-0.38641357421875,0.01495361328125,0.92901611328125,5.046844482421875,-5.106658935546875,0.67291259765625,1,1.0,1.0,1.0,1.0,60.00
2021-04-29 08:55:59.722,0.60461706,0.7197703,0.74378353,0.8173554,0.4234774,0.24979532,0.22513643,0.42305008,0.21276468,0.33567435,0.368895,0.5287439,0.39630732,0.3233044,0.014936821,0.40933824,-0.00789015,-0.13429952,-0.2452006,0.05956401,818.3516,799.41394,804.65204,809.4872,811.0989,-0.3817138671875,0.01654052734375,0.9246826171875,4.4561767578125,-4.762725830078125,1.39068603515625,1,1.0,1.0,1.0,1.0,60.00
2021-04-29 08:56:00.246,0.43892112,0.5023961,0.5435674,0.4650968,0.4048671,0.11568152,0.1368612,0.15147091,0.33454004,0.25671166,0.409283,0.20500885,0.36691839,0.30586502,0.004308946,0.27714562,0.10135614,-0.1580944,-0.31635073,-0.020871045,778.46155,784.10254,812.3077,792.5641,728.9011,-0.37664794921875,0.01348876953125,0.92547607421875,4.20196533203125,-4.493560791015625,0.85235595703125,1,1.0,1.0,1.0,1.0,60.00
2021-04-29 08:56:00.775,0.5952812,0.528225,0.6058355,0.8521836,0.40122765,-0.016649583,0.18864135,0.32954574,0.54358834,0.31268474,0.4692317,0.47047442,0.33698916,0.26350632,0.0011257195,0.32888743,0.17705555,-0.10008365,-0.46058014,0.041255746,794.9817,808.68134,798.20514,791.3553,705.9341,-0.38134765625,0.01068115234375,0.922607421875,4.90478515625,-5.12908935546875,1.532745361328125,1,1.0,1.0,1.0,1.0,60.00
2021-04-29 08:56:01.296,0.65832675,0.70303535,0.9564544,0.91032445,0.41619873,0.1232314,0.24041931,0.3973162,0.58128583,0.31018996,0.48292443,0.4818868,0.33445954,0.2768594,0.046748634,0.33642977,0.22118536,-0.05254336,-0.5227965,0.07316714,794.57874,788.1319,801.02563,803.0403,766.77655,-0.3743896484375,0.02130126953125,0.929443359375,4.583282470703125,-4.762725830078125,1.203765869140625,1,1.0,1.0,1.0,1.0,60.00
2021-04-29 08:56:01.812,1.0527773,0.8130881,1.0032921,0.9703839,0.39046642,0.15317741,0.39379784,0.3970656,0.5881276,0.2934904,0.50906223,0.5604287,0.4821447,0.3290918,0.05205038,0.37827292,0.18686365,-0.0902325,-0.53033584,-0.057066716,798.20514,830.0366,782.8938,776.8498,754.68866,-0.37841796875,0.0164794921875,0.92962646484375,4.732818603515625,-4.553375244140625,1.981353759765625,1,1.0,1.0,1.0,1.0,60.00
2021-04-29 08:56:02.335,0.9911711,0.722045,0.9227341,0.9042339,0.4010951,0.1540919,0.33134156,0.38920543,0.40791026,0.3101769,0.5450534,0.46004057,0.50652766,0.33459482,-7.48274E-4,0.44950092,0.15336357,-0.18939123,-0.5181891,-0.28636053,800.2198,810.696,798.60803,812.71063,684.17584,-0.38189697265625,0.0224609375,0.92999267578125,4.78515625,-3.970184326171875,1.12152099609375,1,1.0,1.0,1.0,1.0,60.00
2021-04-29 08:56:02.844,0.8637707,0.8134292,0.7161089,0.94090116,0.38656068,0.333824,0.36677983,0.48744595,0.39994547,0.3361807,0.44473958,0.4204392,0.46337843,0.33149597,-0.08561628,0.4965256,0.23883063,-0.35382256,-0.53950036,-0.28381374,810.696,800.6227,792.5641,816.7399,775.2381,-0.38165283203125,0.0169677734375,0.92474365234375,4.35150146484375,-5.54779052734375,0.919647216796875,1,1.0,1.0,1.0,1.0,60.00
2021-04-29 08:56:03.366,0.6365419,1.0106748,0.81138086,0.9001787,0.42134604,0.55680996,0.32011527,0.46834213,0.38010585,0.3361807,0.4708208,0.38239864,0.4091635,0.35711083,-0.0747332,0.47678882,0.22372532,-0.21225739,-0.5375232,-0.08458285,793.7729,809.4872,791.75824,793.7729,784.90845,-0.3858642578125,0.02252197265625,0.92486572265625,4.493560791015625,-4.299163818359375,1.42059326171875,1,1.0,1.0,1.0,1.0,60.00
2021-04-29 08:56:03.877,0.41248372,0.8610647,0.68770033,0.6441515,0.27992058,0.4019602,0.16635804,0.2455577,0.3646969,0.25571206,0.3210872,0.37839594,0.42962918,0.27305788,-0.10992677,0.36938772,0.20411433,-0.17082632,-0.5352511,-0.06749238,813.1135,803.44324,799.011,804.65204,723.663,-0.38885498046875,0.0194091796875,0.9210205078125,4.725341796875,-4.089813232421875,1.128997802734375,1,1.0,1.0,1.0,1.0,60.00
2021-04-29 08:56:04.384,0.6717388,0.7249876,0.5809507,0.63580734,0.43599758,0.26091874,0.026469858,0.29755485,0.45198092,0.20051849,0.28810602,0.46813568,0.5027066,0.2595317,-0.07081673,0.256001,0.13813399,-0.13197201,-0.45137712,-0.033179272,810.293,811.9048,797.3993,801.4286,788.93774,-0.38580322265625,0.02154541015625,0.92578125,4.942169189453125,-5.45806884765625,0.04486083984375,1,1.0,1.0,1.0,1.0,65.00
2021-04-29 08:56:04.898,0.6753563,-0.10980155,0.28099796,0.6291792,0.34081602,-0.27311125,-0.24289948,0.36078858,0.5193404,-0.16088387,-0.18161908,0.56935096,0.48465204,0.2668407,-0.050080646,0.31828022,0.14678259,-0.2522677,-0.4883144,-0.12553795,789.7436,820.3663,788.93774,772.8205,710.7692,-0.3875732421875,0.0328369140625,0.9107666015625,10.7965087890625,-7.97027587890625,9.25628662109375,1,1.0,1.0,1.0,1.0,65.00
2021-04-29 08:56:05.423,0.7746679,0.19709758,0.46933421,0.68304175,0.46623603,0.07272397,-0.19491005,0.46438086,0.5080129,0.21051902,-0.065442264,0.5666275,0.43111342,0.36195153,-0.049282607,0.3491213,0.16103911,-0.32714552,-0.529745,-0.077516295,856.2271,817.1429,811.9048,834.87177,842.52747,-0.38519287109375,0.0980224609375,0.9046630859375,3.506622314453125,-7.05810546875,7.962799072265625,1,1.0,1.0,1.0,1.0,65.00
2021-04-29 08:56:05.658,,,,,,,,,,,,,,,,,,,,,,,,,,,,,,,,,,,,,,/muse/elements/blink
2021-04-29 08:56:05.950,0.43333748,0.6309719,0.62668645,0.37509492,0.13294798,0.36273447,0.04023227,0.32565495,0.42303315,0.26592618,-0.019399352,0.5539024,0.27600533,0.38491732,-0.06462128,0.4515508,0.09627473,-0.3338892,-0.6106648,-0.098616965,700.696,790.14655,813.91943,705.9341,704.7253,-0.15240478515625,-0.04351806640625,0.9573974609375,21.062164306640625,2.19818115234375,-36.090545654296875,1,1.0,1.0,1.0,1.0,65.00
2021-04-29 08:56:06.151,,,,,,,,,,,,,,,,,,,,,,,,,,,,,,,,,,,,,,/muse/elements/blink
2021-04-29 08:56:06.474,0.2573635,0.8774981,0.76047766,0.20512682,0.12800235,0.5690633,0.34514585,0.39399475,0.40745056,0.26592618,0.16586182,0.47215983,0.25280192,0.37812278,-0.12744327,0.48728937,0.11144359,-0.28282493,-0.5044918,-0.15732999,795.78754,823.5897,784.90845,792.1612,661.6117,-0.1929931640625,0.19171142578125,0.98089599609375,-8.202056884765625,4.000091552734375,27.297821044921875,1,1.0,1.0,1.0,1.0,65.00
2021-04-29 08:56:07.003,0.2573635,1.0328645,0.90224737,0.20512682,0.12800235,0.6960153,0.52794176,0.39399475,0.40745056,0.26348004,0.41617718,0.47215983,0.25280192,0.37153956,-0.15108646,0.48728937,0.11144359,-0.22700526,-0.4737075,-0.15732999,806.26373,807.47253,787.326,800.6227,825.6044,-0.323486328125,0.087158203125,0.93695068359375,-1.218719482421875,-4.418792724609375,-0.560760498046875,1,1.0,1.0,1.0,1.0,65.00
2021-04-29 08:56:07.520,0.2573635,1.1062925,1.0556091,0.20512682,0.12800235,0.9219674,0.69558865,0.39399475,0.40745056,0.46856117,0.4916681,0.47215983,0.25280192,0.18533772,-0.12472963,0.48728937,0.11144359,-0.037249103,-0.4450354,-0.15732999,806.26373,812.3077,791.3553,800.2198,696.6667,-0.40826416015625,0.01806640625,0.91766357421875,3.521575927734375,0.79254150390625,-13.1890869140625,1,1.0,1.0,1.0,1.0,65.00
2021-04-29 08:56:08.042,0.2573635,1.1169221,1.1505463,0.20512682,0.12800235,0.78825945,0.7426693,0.39399475,0.40745056,0.5200933,0.48683405,0.47215983,0.25280192,0.15287103,-0.11400794,0.48728937,0.11144359,0.021236964,-0.49797288,-0.15732999,799.011,803.44324,808.68134,792.5641,833.2601,-0.34991455078125,0.03253173828125,0.95404052734375,4.044952392578125,-9.488067626953125,13.675079345703125,1,2.0,1.0,1.0,2.0,65.00
2021-04-29 08:56:08.548,1.1812813,0.9664938,0.96153253,0.20512682,1.1062812,0.6309221,0.52857804,0.39399475,0.8337785,0.5200933,0.41859943,0.47215983,0.37355214,0.20694038,0.07390053,0.48728937,0.10777899,-0.024539746,-0.45777693,-0.15732999,805.05493,801.4286,799.41394,790.14655,701.9048,-0.346923828125,0.04779052734375,0.95452880859375,7.91046142578125,-8.95721435546875,-6.945953369140625,1,1.0,1.0,1.0,1.0,65.00
2021-04-29 08:56:09.049,1.105861,0.8362567,0.72832245,0.20512682,0.99560106,0.30203494,-0.04594434,0.39399475,0.8337785,0.46776807,-0.12799689,0.47215983,0.46893972,0.22938238,0.04348702,0.48728937,0.16161054,-0.12565652,-0.42679724,-0.15732999,820.7692,804.65204,797.8022,819.5604,686.5934,-0.3414306640625,0.00885009765625,0.93743896484375,3.170166015625,-2.145843505859375,0.665435791015625,1,1.0,1.0,1.0,1.0,65.00
2021-04-29 08:56:09.562,0.9398578,0.75867146,0.80587167,1.1344957,0.82686156,0.16406347,-0.005271507,0.81822187,0.7100208,0.39098454,-0.11730112,0.7280798,0.47942427,0.27090856,0.061500672,0.38911355,0.101600915,-0.25710458,-0.35773206,0.10038284,803.0403,813.1135,804.65204,807.8755,745.0183,-0.38604736328125,0.04541015625,0.919677734375,7.237548828125,-3.596343994140625,2.310333251953125,1,1.0,1.0,1.0,1.0,65.00
2021-04-29 08:56:10.068,0.87984425,0.9190135,0.75981367,1.1611563,0.75178385,0.4211267,0.15859309,0.7171409,0.33494067,0.53929603,0.11402828,0.6043101,0.5172186,0.30146846,0.06873124,0.5264766,0.111835495,-0.29586518,-0.38159284,0.09711815,806.6667,806.26373,791.75824,809.89014,733.3333,-0.37408447265625,0.073486328125,0.9453125,6.871185302734375,-1.637420654296875,7.977752685546875,1,1.0,1.0,1.0,1.0,65.00
2021-04-29 08:56:10.584,0.92575467,0.939691,0.6677462,1.1611563,0.82634133,0.3876914,0.13949277,0.7171409,0.8081278,0.5497572,0.08427351,0.6043101,0.4007238,0.320674,0.09188141,0.5264766,-0.022144513,-0.26477417,-0.41709152,0.09711815,810.696,805.8608,803.44324,806.6667,739.3773,-0.39251708984375,0.01019287109375,0.91534423828125,4.478607177734375,-4.568328857421875,-2.1234130859375,1,1.0,1.0,1.0,1.0,65.00
2021-04-29 08:56:11.089,0.81467396,0.77071804,0.37641186,1.0688674,0.64736503,0.25435463,0.023555715,0.60861737,0.9226314,0.45621887,0.08427351,0.6948355,0.46624544,0.27209845,0.037462883,0.5572012,0.042953555,-0.29443744,-0.54262096,-0.047004845,823.1868,807.8755,797.8022,831.2454,748.6447,-0.3719482421875,0.03118896484375,0.92230224609375,4.523468017578125,-4.23187255859375,2.175750732421875,1,1.0,1.0,1.0,1.0,65.00
2021-04-29 08:56:11.600,0.7192739,0.52774054,0.33797768,0.64377266,0.61578315,-0.1826212,-0.38596284,0.52803546,0.9490413,0.31863442,-0.04094423,0.7286803,0.5231739,0.18656203,4.1633775E-4,0.37157592,-0.04880803,-0.22924982,-0.54870635,-0.09701467,790.9524,810.293,800.2198,789.7436,708.7546,-0.37152099609375,0.04583740234375,0.92083740234375,2.639312744140625,-8.80767822265625,3.30474853515625,1,1.0,1.0,1.0,1.0,65.00
2021-04-29 08:56:12.115,0.8028186,0.21230616,0.41608536,0.6945403,0.49794897,-0.08530097,-0.47838244,0.53618115,0.8542262,-0.0037338736,-0.072640255,0.7311222,0.502139,0.15095004,-0.09769289,0.34283113,-0.074757144,-0.17190646,-0.5379429,-0.08880103,792.1612,800.6227,791.3553,788.5348,634.21246,-0.33514404296875,0.0404052734375,0.94781494140625,5.659942626953125,-7.46185302734375,2.34771728515625,1,1.0,1.0,1.0,1.0,65.00
2021-04-29 08:56:12.643,0.80669254,0.145486,0.37890214,0.55995846,0.44420448,-0.051669054,-0.38049522,0.44507408,0.71697974,0.042450856,-0.097192556,0.76583886,0.48670712,0.22688675,-0.20273186,0.3435397,-0.0026842512,-0.12984525,-0.54984325,-0.11352482,805.4579,803.8461,793.7729,809.4872,757.9121,-0.33837890625,0.04229736328125,0.9400634765625,4.792633056640625,-5.046844482421875,1.114044189453125,1,1.0,1.0,1.0,1.0,65.00
2021-04-29 08:56:13.169,0.700787,0.059663612,0.5502982,0.1215072,0.6075991,-0.031691983,-0.28626087,0.56678987,0.5411419,0.12065916,-0.11479675,0.38535818,0.41850668,0.25563148,-0.29105026,0.36958334,0.2208043,-0.2311977,-0.5420153,-0.012057383,788.93774,811.9048,790.14655,796.5934,673.2967,-0.32916259765625,0.0501708984375,0.94842529296875,5.031890869140625,-3.93280029296875,1.846771240234375,1,1.0,1.0,1.0,1.0,65.00
2021-04-29 08:56:13.698,0.25795147,9.157065E-4,0.6198414,0.16173483,0.7200925,-0.1467387,-0.2549602,0.616274,0.69586104,0.12584272,0.03141864,0.54863775,0.450417,0.29156345,-0.25216803,0.37678236,0.27452177,-0.29716912,-0.50592625,-0.006375994,764.7619,791.3553,799.81683,757.50916,728.49817,-0.4034423828125,0.015625,0.9302978515625,14.258270263671875,1.6748046875,-4.448699951171875,1,1.0,1.0,1.0,1.0,65.00
2021-04-29 08:56:14.207,0.13750464,0.46798232,0.71660495,0.13659322,0.8555307,-0.14588566,-0.14169176,0.7937023,0.68588996,0.19206259,0.20531163,0.39013305,0.46368536,0.28171736,-0.19588159,0.3739784,0.28891432,-0.322008,-0.37126258,0.07952308,797.3993,793.7729,809.0842,797.3993,745.0183,-0.40142822265625,0.13433837890625,0.878173828125,-5.286102294921875,3.536529541015625,8.231964111328125,1,1.0,1.0,1.0,1.0,60.00
2021-04-29 08:56:14.718,0.14706707,0.68955725,0.7327661,0.20720118,0.8718193,-0.17699195,-0.031310845,0.80046886,0.6389234,0.2504465,0.24369551,0.3801756,0.4481652,0.30840123,-0.19383933,0.38744232,0.301052,-0.16393618,-0.32583252,0.11934575,802.6374,816.337,786.1172,799.011,684.9817,-0.3070068359375,0.04473876953125,0.922607421875,3.401947021484375,-13.68255615234375,-0.059814453125,1,1.0,1.0,1.0,1.0,60.00
2021-04-29 08:56:15.241,0.14706707,0.7140965,0.7717468,0.20720118,0.8718193,-0.084798746,0.044740904,0.80046886,0.6389234,0.25283653,0.26582518,0.3801756,0.4481652,0.29250258,-0.13217214,0.38744232,0.301052,-0.03993675,-0.3277293,0.11934575,811.50183,796.1905,782.49084,801.02563,735.34796,-0.3558349609375,0.04986572265625,0.93621826171875,5.30853271484375,-5.00946044921875,-0.097198486328125,1,1.0,1.0,1.0,1.0,60.00
2021-04-29 08:56:15.744,0.60163015,0.5248532,0.7641261,0.5033178,0.48319402,-0.14491999,0.14356413,0.4773401,0.51656574,0.43249956,0.15424554,0.79323375,0.2966468,0.33174378,0.013366771,0.50174034,0.20822752,0.055359423,-0.3978153,0.06229224,777.25275,809.89014,800.6227,774.83514,732.9304,-0.36968994140625,0.056884765625,0.9373779296875,4.0972900390625,-5.001983642578125,2.684173583984375,1,1.0,1.0,1.0,1.0,60.00
2021-04-29 08:56:16.264,0.60163015,0.19071785,0.74725944,0.5033178,0.48319402,-0.17498544,0.13150086,0.4773401,0.51656574,0.41525197,0.13972712,0.79323375,0.2966468,0.31992555,0.041740093,0.50174034,0.20822752,0.06572117,-0.47883284,0.06229224,836.8865,815.12823,805.4579,829.6337,735.34796,-0.3287353515625,0.030517578125,0.9422607421875,4.50103759765625,-6.041259765625,0.70281982421875,1,1.0,1.0,1.0,1.0,60.00
2021-04-29 08:56:16.787,0.60163015,0.20833056,0.6576205,0.5033178,0.48319402,-0.34893864,0.07023509,0.4773401,0.51656574,0.36110845,0.10312485,0.79323375,0.2966468,0.33675557,0.017074065,0.50174034,0.20822752,0.048446797,-0.43869555,0.06229224,827.619,828.8278,774.83514,812.71063,747.03296,-0.326904296875,0.02581787109375,0.94110107421875,4.344024658203125,-3.90289306640625,1.577606201171875,1,1.0,1.0,1.0,1.0,60.00
2021-04-29 08:56:17.297,0.60163015,0.26066267,0.7582597,0.5033178,0.48319402,-0.08012776,0.04568123,0.4773401,0.51656574,0.372438,0.19013816,0.79323375,0.2966468,0.3310579,-0.073690064,0.50174034,0.20822752,0.011220549,-0.4848515,0.06229224,806.6667,807.47253,795.78754,808.2784,727.6923,-0.3392333984375,0.0279541015625,0.94140625,4.77020263671875,-1.65985107421875,0.28411865234375,1,1.0,1.0,1.0,1.0,60.00
2021-04-29 08:56:17.824,0.60163015,0.30056062,0.8067373,0.6979312,0.48319402,-0.010238497,0.43475077,0.16394512,0.51656574,0.31369802,0.3668875,0.3930155,0.2966468,0.36287814,0.0024773257,0.46112627,0.20822752,-0.032960385,-0.4647377,0.06259626,806.6667,813.1135,807.8755,811.50183,778.0586,-0.4002685546875,0.01373291015625,0.91510009765625,1.45050048828125,-1.9439697265625,2.998199462890625,1,1.0,1.0,1.0,1.0,60.00
2021-04-29 08:56:18.343,0.3810899,0.14277548,0.77129275,0.53797615,0.30590096,0.011615057,0.4431089,0.16729678,0.52019626,0.33356974,0.36998117,0.5048579,0.6005803,0.30313128,-0.011343942,0.4014435,0.15912025,0.040660914,-0.44566002,0.12986499,810.696,803.8461,792.96704,810.696,648.315,-0.38763427734375,0.01812744140625,0.92413330078125,4.6954345703125,-4.987030029296875,-0.171966552734375,1,1.0,1.0,1.0,1.0,60.00
2021-04-29 08:56:18.864,0.57093525,0.3106198,0.5460518,0.63744736,0.24807322,-0.2166732,0.32047465,0.26106057,0.67450905,0.2393124,0.36067027,0.71752065,0.54808456,0.22917464,0.011704563,0.44923872,0.23593774,0.029409848,-0.38756105,0.082896,803.44324,801.02563,795.38464,806.26373,716.8132,-0.392822265625,0.0225830078125,0.92047119140625,4.35150146484375,-6.4898681640625,2.691650390625,1,1.0,1.0,1.0,1.0,60.00
2021-04-29 08:56:19.375,0.5569932,0.31788936,0.35872003,0.63716394,0.27621207,-0.009947636,-0.18002172,0.3614401,0.67450905,0.2864109,0.08696139,0.68528175,0.52898043,0.228093,-0.011807626,0.45561177,0.17403908,0.030321755,-0.37760428,0.12972474,807.47253,802.23444,795.78754,811.50183,751.8681,-0.390869140625,0.0267333984375,0.91363525390625,4.568328857421875,-3.566436767578125,1.278533935546875,1,1.0,1.0,1.0,1.0,60.00
2021-04-29 08:56:19.877,0.5132582,0.28831983,0.46737334,0.59209484,0.15104881,-0.022855176,-0.2870425,0.25378576,0.6466056,0.23251984,0.10481612,0.68528175,0.467639,0.224721,0.030016014,0.4636767,0.18876246,-0.04903289,-0.44076398,0.11571747,809.4872,813.1135,789.34064,813.1135,726.8865,-0.41455078125,0.0302734375,0.91436767578125,5.5029296875,-2.534637451171875,4.66552734375,1,1.0,1.0,1.0,1.0,60.00
2021-04-29 08:56:20.378,0.39143062,0.29368782,0.4648363,0.4253114,0.07166145,0.104451284,-0.278874,0.039939146,0.34041163,0.11574691,0.08402806,0.50772613,0.40127772,0.19090997,-0.07865991,0.39651003,0.1979664,-0.12162556,-0.4628011,0.08231187,822.7839,811.9048,789.7436,827.2161,686.99634,-0.411376953125,0.03253173828125,0.91387939453125,5.286102294921875,-4.598236083984375,0.1495361328125,1,1.0,1.0,1.0,1.0,60.00
2021-04-29 08:56:20.889,0.41111186,0.4574429,0.38339943,0.48328814,0.016232627,0.015089088,-0.31120342,0.0489029,0.4183091,0.07572043,0.073986694,0.5685661,0.34447646,0.18772979,-0.10968989,0.39077964,0.24727608,-0.19775027,-0.47047874,0.07072706,772.01465,794.9817,791.75824,769.59705,841.7216,-0.4190673828125,0.0369873046875,0.9058837890625,3.626251220703125,-6.243133544921875,-0.530853271484375,1,1.0,1.0,1.0,1.0,60.00
2021-04-29 08:56:21.404,0.73613006,0.52534056,0.11364571,0.7011201,0.37165454,0.012188559,-0.22455694,0.2977755,0.71404433,-0.009110884,0.059820108,0.8704215,0.45188457,0.20905957,-0.09434553,0.4381437,0.21568574,-0.107416406,-0.44419473,0.10402905,749.0476,801.02563,794.17584,756.30035,703.1135,-0.3895263671875,0.02923583984375,0.9210205078125,3.701019287109375,-6.856231689453125,-0.216827392578125,1,1.0,1.0,1.0,1.0,60.00
2021-04-29 08:56:21.909,1.1441712,0.45280102,0.11902456,1.0590403,0.6425955,-0.11091736,-0.11343266,0.5830675,0.99673235,0.014188639,0.026637105,0.87828666,0.5509407,0.22423363,-0.05199905,0.5320056,0.15085773,-0.0016308927,-0.34638232,0.23279944,809.0842,798.60803,786.1172,808.2784,860.65936,-0.39935302734375,0.01324462890625,0.9202880859375,4.388885498046875,-3.058013916015625,0.770111083984375,1,1.0,1.0,1.0,1.0,60.00
2021-04-29 08:56:22.422,1.3153026,0.18580593,0.34799445,1.2798496,0.7584034,-0.241859,-0.0022793424,0.7507297,1.0078794,-0.008128005,0.09368618,0.87828666,0.62494767,0.27561334,-0.07931153,0.65125495,0.13034265,-0.0050626653,-0.34455687,0.2907912,821.978,840.9158,779.67035,804.2491,774.83514,-0.40399169921875,0.01971435546875,0.91119384765625,4.59075927734375,-5.271148681640625,0.418701171875,1,1.0,1.0,1.0,1.0,60.00
2021-04-29 08:56:22.941,1.3170742,0.23040994,0.64600486,1.1840936,0.7602525,-0.10087042,0.21517177,0.61280173,0.9894967,0.012875163,0.27409458,0.8303968,0.5662216,0.30425945,-0.086201616,0.5727269,0.21724142,-0.044345677,-0.38652,0.23417924,799.011,806.6667,791.3553,788.1319,680.9524,-0.40155029296875,0.02886962890625,0.91357421875,5.323486328125,-5.345916748046875,2.205657958984375,1,1.0,1.0,1.0,1.0,60.00
2021-04-29 08:56:23.453,0.91821647,0.22123642,0.9251596,1.1049237,0.440022,-0.16397575,0.36319405,0.43957338,0.9142378,-0.06130922,0.37736303,0.62079865,0.49630326,0.36169383,-0.029189061,0.55851394,0.40889475,-0.17984723,-0.43213978,0.40865898,811.9048,790.9524,802.23444,821.5751,948.0952,-0.3843994140625,0.029052734375,0.9219970703125,5.7122802734375,-4.134674072265625,-0.538330078125,1,1.0,1.0,1.0,1.0,60.00
2021-04-29 08:56:23.966,0.5946007,0.71183556,0.9887806,1.0566969,0.4418074,0.16041453,0.37906486,0.4312689,0.64601773,0.10853178,0.39016813,0.664193,0.57997984,0.4502307,0.070002936,0.6558759,0.42515725,0.09580266,-0.42707145,0.5506451,784.90845,804.65204,789.7436,789.34064,823.9927,-0.39166259765625,0.031005859375,0.92059326171875,2.9010009765625,-7.19268798828125,0.73272705078125,1,1.0,1.0,1.0,1.0,60.00
2021-04-29 08:56:24.495,0.91773033,0.71183556,0.9581796,1.087699,0.894517,0.16041453,0.29544,0.43061188,1.0740595,0.10853178,0.43372932,0.6503868,0.56991243,0.4502307,0.11551745,0.6803782,0.41159165,0.09580266,-0.44621202,0.59654427,818.3516,805.05493,805.8608,814.3223,718.022,-0.38336181640625,0.02490234375,0.9215087890625,3.955230712890625,-4.418792724609375,0.7476806640625,1,1.0,1.0,1.0,1.0,60.00
2021-04-29 08:56:25.023,0.93965244,0.83684987,0.9550001,0.9567735,1.0010101,0.46977895,0.37543225,0.41634265,1.0732226,0.5989283,0.3830494,0.5214331,0.5375308,0.45964977,0.044381052,0.78667796,0.32418886,0.17375483,-0.53193253,0.7232543,801.02563,798.20514,805.8608,802.23444,796.1905,-0.40447998046875,0.01898193359375,0.908447265625,6.4300537109375,-2.0635986328125,0.28411865234375,1,1.0,1.0,1.0,1.0,65.00
2021-04-29 08:56:25.524,1.0891277,0.6540831,0.8418278,0.9567735,1.0237836,0.35166568,0.33659407,0.41634265,1.0715837,0.5738649,0.27147937,0.5214331,0.4139922,0.2633475,-0.026124546,0.78667796,0.22975178,-0.013344061,-0.51958275,0.7232543,801.8315,804.2491,801.4286,799.41394,739.3773,-0.37030029296875,0.0546875,0.9384765625,5.674896240234375,-8.785247802734375,-0.538330078125,1,1.0,1.0,1.0,1.0,65.00
2021-04-29 08:56:26.026,0.9752631,0.5758518,0.7588928,0.9356376,0.77868044,0.21794881,0.32142583,0.57235783,0.9663091,0.5738649,0.23723087,0.80506676,0.33927998,0.2618738,-0.19397445,0.45721862,0.16192727,-0.06735945,-0.5526813,0.0029920354,821.1722,796.1905,799.011,809.4872,857.8388,-0.402099609375,0.03802490234375,0.9119873046875,2.73651123046875,-2.452392578125,-0.635528564453125,1,1.0,1.0,1.0,1.0,65.00
2021-04-29 08:56:26.528,1.1025572,0.4525941,0.16644758,1.0116643,0.87892866,0.043230712,0.048396282,0.86192304,1.159552,0.19345202,0.21805891,1.0786244,0.36916348,0.1952634,-0.110673234,0.42527044,0.06729133,-0.10017686,-0.5029525,-0.019946702,813.1135,806.6667,804.65204,817.1429,868.315,-0.4036865234375,0.026123046875,0.909423828125,4.942169189453125,-5.988922119140625,1.487884521484375,1,1.0,1.0,1.0,1.0,65.00
2021-04-29 08:56:27.033,1.0237204,0.6704913,0.5004069,0.89884645,0.9327514,0.31513974,0.096228264,0.77198595,1.1554823,0.16324045,0.26993382,1.0908717,0.3628144,0.23884057,-0.16645704,0.39961722,-0.041428305,-0.116464436,-0.5664927,0.07613181,803.8461,809.4872,799.011,793.36993,754.2857,-0.392578125,0.03973388671875,0.91937255859375,4.23187255859375,-4.987030029296875,1.03179931640625,1,1.0,1.0,1.0,1.0,65.00
2021-04-29 08:56:27.539,0.984319,0.68720675,0.62251234,0.87063354,0.9332074,0.49935377,0.10295572,0.76952493,1.1521977,0.48929086,0.2749715,1.0920151,0.5506741,0.24298236,-0.085732184,0.46801987,0.006907892,-0.14115606,-0.52369833,0.10763152,761.9414,788.93774,811.0989,772.8205,790.9524,-0.399658203125,0.03363037109375,0.922607421875,3.887939453125,-4.78515625,0.949554443359375,1,1.0,1.0,1.0,1.0,65.00
2021-04-29 08:56:28.044,0.8095271,0.80488497,0.7971771,0.6702526,0.76528966,0.49256653,-0.0074392785,0.37143722,0.6722885,0.48929086,0.2508275,0.9302528,0.5873263,0.26043323,-0.084218636,0.5102869,0.064460084,-0.2024599,-0.4596144,0.17194644,775.2381,816.337,809.89014,789.34064,813.5165,-0.4005126953125,0.03271484375,0.9169921875,4.1571044921875,-4.5758056640625,1.62994384765625,1,1.0,1.0,1.0,1.0,65.00
2021-04-29 08:56:28.572,0.87014747,0.76573926,0.7068311,0.7256964,0.7559484,0.29026443,-0.06855841,0.3599509,0.78945494,0.4614772,0.14375901,0.7109147,0.6593604,0.27417317,-0.045851514,0.56741506,0.14033285,-0.19932002,-0.4405511,0.09362306,772.8205,802.6374,795.78754,779.2674,768.3883,-0.41094970703125,0.0234375,0.90911865234375,4.299163818359375,-3.36456298828125,0.859832763671875,1,1.0,1.0,1.0,1.0,65.00
2021-04-29 08:56:29.077,1.2242397,0.8549663,0.69825506,1.0895407,0.4960081,0.028212486,-0.14640255,0.062185563,0.80238646,0.34076938,0.19359808,0.7467417,0.74355674,0.22510774,-0.08405731,0.416803,0.3548419,-0.15572879,-0.43563873,0.16801764,830.84247,793.36993,792.96704,820.3663,904.9817,-0.41912841796875,0.02874755859375,0.90789794921875,4.224395751953125,-4.164581298828125,1.502838134765625,1,1.0,1.0,1.0,1.0,65.00
2021-04-29 08:56:29.596,1.2242397,0.77729464,0.50639385,1.0284369,0.4960081,0.01747761,-0.22525431,0.1254076,0.80238646,-0.11831301,0.18452269,0.7604569,0.74355674,0.18924494,-0.065710716,0.38901576,0.3548419,-0.05293637,-0.432736,0.1795614,829.2308,813.91943,803.44324,832.4542,765.56775,-0.43048095703125,0.02294921875,0.91094970703125,3.8580322265625,-2.220611572265625,0.979461669921875,1,1.0,1.0,1.0,1.0,65.00
2021-04-29 08:56:30.122,1.2082099,0.5948538,0.41179612,1.0496182,0.31974417,-0.023631228,-0.26719296,0.3804333,0.79891264,-0.10558841,0.14220549,0.8237727,0.59957004,0.18644822,-0.10730195,0.35521847,0.26168123,-0.033173148,-0.44269437,0.08801873,831.6484,815.12823,807.8755,838.0952,772.8205,-0.43023681640625,0.02569580078125,0.8970947265625,5.084228515625,-5.630035400390625,1.532745361328125,1,1.0,1.0,1.0,1.0,65.00
2021-04-29 08:56:30.633,0.96900177,0.15458734,0.03379351,0.86861503,0.11927471,-0.13408372,-0.35788772,0.41270012,0.5202104,-0.1125749,-0.026816996,0.672141,0.40443107,0.24855968,-0.14167234,0.25964054,0.17457636,-0.0045588952,-0.4418161,7.913718E-4,837.28937,790.9524,809.0842,833.2601,986.77655,-0.4422607421875,0.0340576171875,0.89239501953125,6.721649169921875,-5.63751220703125,1.114044189453125,1,1.0,1.0,1.0,1.0,65.00
2021-04-29 08:56:31.154,0.86236435,-0.11250297,0.09347374,0.79921913,0.08947502,-0.34227055,-0.23785558,0.36924577,0.5202104,-0.063870974,0.030207008,0.6694596,0.39337894,0.25179034,-0.18546283,0.28686455,0.15567051,-0.0683519,-0.5341138,-0.046831764,803.8461,812.3077,810.696,804.65204,720.84247,-0.40008544921875,0.0244140625,0.92431640625,0.650482177734375,-1.1663818359375,-2.370147705078125,1,1.0,1.0,1.0,1.0,65.00
2021-04-29 08:56:31.663,0.7461207,-3.9092466E-4,0.3868017,0.7795268,0.09420843,-0.23290767,-0.2865184,0.14474626,0.4416241,-0.015079476,0.08220377,0.5390813,0.40326774,0.19436069,-0.113370866,0.32790345,0.16360128,-0.07653471,-0.5132935,0.097582825,797.8022,803.0403,801.4286,799.41394,806.26373,-0.42071533203125,0.019287109375,0.903076171875,7.3870849609375,-9.31610107421875,-0.829925537109375,1,1.0,1.0,1.0,1.0,65.00
2021-04-29 08:56:32.175,0.894954,0.23534282,0.39752585,0.8695056,0.09156202,-0.2582083,-0.318766,0.06711378,0.5013965,0.054536372,0.01853744,0.5156277,0.43218508,0.18364026,-0.049952753,0.39099628,0.1597288,-0.06264578,-0.5773512,0.09380111,807.47253,807.0696,802.23444,802.23444,810.293,-0.361572265625,0.07269287109375,0.91400146484375,8.680572509765625,-4.104766845703125,2.10845947265625,1,1.0,1.0,1.0,1.0,65.00
2021-04-29 08:56:32.701,0.953764,0.44669724,0.31621575,0.8299812,0.01830412,-0.21259049,-0.6094665,-0.19154651,0.53456527,0.059823804,-0.112002775,0.47942242,0.49842378,0.19423702,-0.09685092,0.46222648,0.27472892,-0.038574617,-0.5908131,0.20135985,787.72894,812.3077,791.75824,792.1612,677.326,-0.41412353515625,0.0477294921875,0.91461181640625,4.17205810546875,-3.551483154296875,2.7215576171875,1,1.0,1.0,1.0,1.0,65.00
2021-04-29 08:56:33.204,0.7940567,0.4411521,-0.03713294,0.6025391,-0.13843359,-0.1733875,-0.5000744,-0.31401694,0.55069286,-0.012560358,-0.23799258,0.44104877,0.44383827,0.23104052,-0.11202617,0.44928312,0.2840129,0.013208734,-0.62266177,0.16174795,759.5238,772.01465,814.3223,777.25275,759.5238,-0.4586181640625,0.02545166015625,0.88519287109375,4.044952392578125,-2.452392578125,0.22430419921875,1,1.0,1.0,1.0,1.0,65.00
2021-04-29 08:56:33.713,0.47610825,0.6431522,0.5013446,0.24062404,-0.2616495,0.1980784,0.09205435,-0.3437806,0.14759508,0.7608033,0.34254295,0.08433769,0.46149993,0.23949304,-0.07869537,0.4451416,0.34360322,0.009422053,-0.507382,0.23103099,795.38464,812.71063,800.6227,780.87915,823.5897,-0.42926025390625,0.04132080078125,0.90887451171875,5.390777587890625,-6.14593505859375,4.747772216796875,1,1.0,1.0,1.0,1.0,65.00
2021-04-29 08:56:34.221,0.95941037,0.8610154,0.90572804,0.35255077,0.66120976,0.42114723,0.48288417,-0.1865512,0.9782293,0.7764977,0.46721813,0.055147626,0.3376123,0.25707245,0.027043222,0.34818754,0.20606849,-0.011909131,-0.4023036,0.1671808,799.011,809.0842,799.81683,796.99634,687.3993,-0.40814208984375,0.0196533203125,0.90350341796875,4.26177978515625,-5.001983642578125,1.607513427734375,1,1.0,1.0,1.0,1.0,65.00
2021-04-29 08:56:34.731,1.0064803,1.030179,1.104275,0.35255077,0.72054935,0.5879299,0.6540964,-0.1865512,0.9782293,0.7998892,0.4867787,0.055147626,0.42920154,0.2778726,0.047040563,0.34818754,0.23488434,-0.0860944,-0.37265614,0.1671808,815.5311,813.91943,801.02563,833.663,754.2857,-0.42388916015625,0.02630615234375,0.90545654296875,4.44122314453125,-4.538421630859375,1.308441162109375,1,1.0,1.0,1.0,1.0,65.00
2021-04-29 08:56:35.241,0.9448186,1.0321349,1.116931,0.35255077,0.5248553,0.71796143,0.673968,-0.1865512,0.9782293,0.6368094,0.4854082,0.055147626,0.52715397,0.2206347,-0.0076533128,0.34818754,0.37038139,-0.067921445,-0.43705875,0.1671808,825.2015,808.2784,796.99634,817.1429,783.69965,-0.44171142578125,0.02398681640625,0.90118408203125,4.08233642578125,-4.6954345703125,0.575714111328125,1,1.0,1.0,1.0,1.0,65.00
2021-04-29 08:56:35.760,0.74916434,0.82112485,0.9197398,1.1597252,0.31762674,0.5368862,0.48081946,0.66481996,0.5509049,0.45821294,0.47590414,0.57596797,0.51920134,0.22571951,-0.117836736,0.4446762,0.3674782,0.048208196,-0.4735204,0.11479605,803.8461,809.0842,795.78754,795.78754,673.2967,-0.42376708984375,0.0224609375,0.9068603515625,5.495452880859375,-4.508514404296875,2.026214599609375,1,1.0,1.0,1.0,1.0,65.00
2021-04-29 08:56:36.263,0.6706501,0.61378014,0.58888626,0.91942114,0.26300183,0.3937033,0.30153698,0.40702716,0.5681379,0.46154568,0.46144953,0.54779,0.44207826,0.19130091,-0.12587912,0.40855974,0.32248026,0.07091678,-0.47297537,0.15935263,813.1135,782.8938,805.4579,825.6044,1038.3517,-0.408447265625,0.02410888671875,0.9136962890625,5.78704833984375,-7.19268798828125,3.0804443359375,1,1.0,1.0,1.0,1.0,65.00
2021-04-29 08:56:36.772,0.40843913,0.52644527,0.41640195,0.6101582,0.33741084,0.27348977,0.17024127,0.16108388,0.5775578,0.56977403,0.0020449134,0.30715322,0.38899082,0.22098112,-0.046384167,0.41331968,0.1937802,0.032844838,-0.42034107,0.16268796,781.28204,804.65204,786.9231,773.22345,818.3516,-0.40576171875,0.0323486328125,0.9166259765625,4.089813232421875,-5.016937255859375,0.91217041015625,1,1.0,1.0,1.0,1.0,65.00
2021-04-29 08:56:37.281,0.27963057,0.5545349,0.4708333,0.5716596,0.21631294,0.31912726,0.18704411,0.10546088,0.5104592,0.5828187,-0.060393635,0.19167647,0.4054245,0.15347219,-0.06346296,0.40158236,0.17636885,-0.099667914,-0.4449511,0.11587227,813.91943,809.0842,799.81683,796.5934,758.71796,-0.400390625,0.0166015625,0.9095458984375,4.164581298828125,-4.246826171875,1.36077880859375,1,1.0,1.0,1.0,1.0,65.00
2021-04-29 08:56:37.802,-0.0051755835,0.845395,0.5756726,0.62353283,0.27981085,0.42654666,0.12549786,0.23069966,0.17089632,0.5826697,-0.15243171,0.07855184,0.52619827,0.19535412,-0.09453084,0.4370751,0.20175661,-0.17647085,-0.38100076,0.058752786,824.7985,804.65204,803.0403,825.6044,765.56775,-0.40582275390625,0.0159912109375,0.91717529296875,4.553375244140625,-4.94964599609375,1.375732421875,1,1.0,1.0,1.0,1.0,65.00
2021-04-29 08:56:38.308,0.004566255,0.7741868,0.3999312,0.6667937,0.2648844,0.16712505,-0.05491627,0.26984185,0.10916524,0.23792455,-0.18503751,0.07734756,0.56291384,0.2010287,-0.22956428,0.43483165,0.22814931,-0.22712836,-0.38971227,0.04653459,801.02563,804.65204,790.54944,783.2967,788.5348,-0.41046142578125,0.021728515625,0.91363525390625,4.957122802734375,-4.56085205078125,1.697235107421875,1,1.0,1.0,1.0,1.0,65.00
