TimeStamp,Delta_TP9,Delta_AF7,Delta_AF8,Delta_TP10,Theta_TP9,Theta_AF7,Theta_AF8,Theta_TP10,Alpha_TP9,Alpha_AF7,Alpha_AF8,Alpha_TP10,Beta_TP9,Beta_AF7,Beta_AF8,Beta_TP10,Gamma_TP9,Gamma_AF7,Gamma_AF8,Gamma_TP10,RAW_TP9,RAW_AF7,RAW_AF8,RAW_TP10,AUX_RIGHT,Accelerometer_X,Accelerometer_Y,Accelerometer_Z,Gyro_X,Gyro_Y,Gyro_Z,HeadBandOn,HSI_TP9,HSI_AF7,HSI_AF8,HSI_TP10,Battery,Elements
2021-04-20 08:36:32.590,0.33243033,0.71176434,0.122390024,0.22792238,0.20050125,0.3383805,-0.055097364,-0.035059977,0.32680252,0.3194124,0.26643223,0.18862584,0.40403688,0.108493544,0.17541686,0.5346151,0.13138679,-0.2864677,-0.235861,0.2611715,799.81683,793.36993,819.9634,790.9524,747.8388,0.198486328125,0.0234375,0.98370361328125,4.0374755859375,-4.3365478515625,2.07855224609375,1,1.0,1.0,1.0,1.0,65.00
2021-04-20 08:36:33.093,0.33243033,0.75194985,0.3237647,0.22792238,0.20050125,0.34746742,-0.021985987,-0.035059977,0.32680252,0.34510425,0.3455064,0.18862584,0.40403688,0.029299183,0.19108348,0.5346151,0.13138679,-0.34531888,-0.122862495,0.2611715,807.0696,787.326,809.0842,797.8022,692.23444,0.21240234375,0.015869140625,0.97662353515625,4.732818603515625,-4.9945068359375,0.695343017578125,1,1.0,1.0,1.0,1.0,65.00
2021-04-20 08:36:33.600,0.33243033,0.537642,0.32435712,0.22792238,0.20050125,0.186169,-0.05012558,-0.035059977,0.32680252,0.34569615,0.30150175,0.18862584,0.40403688,-0.03974232,0.16431458,0.5346151,0.13138679,-0.36207944,-0.12769715,0.2611715,801.8315,798.60803,815.5311,795.78754,814.7253,0.22320556640625,0.01861572265625,0.97747802734375,4.42626953125,-3.611297607421875,-0.34393310546875,1,1.0,1.0,1.0,1.0,65.00
2021-04-20 08:36:33.913,,,,,,,,,,,,,,,,,,,,,,,,,,,,,,,,,,,,,,/muse/elements/blink
2021-04-20 08:36:34.103,0.33243033,0.48255852,0.28051487,0.22792238,0.20050125,0.19734526,0.008175775,-0.035059977,0.32680252,0.51813185,0.46375337,0.18862584,0.40403688,-0.020608492,0.23740633,0.5346151,0.13138679,-0.43624967,-0.18094572,0.2611715,807.47253,793.36993,809.89014,819.15753,738.5714,0.191650390625,0.01544189453125,0.98272705078125,3.820648193359375,-2.64678955078125,-1.891632080078125,1,2.0,1.0,1.0,2.0,65.00
2021-04-20 08:36:34.622,0.33243033,0.56133276,0.35630372,0.22792238,0.20050125,0.3129461,0.1703122,-0.035059977,0.32680252,0.62680185,0.46402663,0.18862584,0.40403688,0.0938868,0.25164327,0.5346151,0.13138679,-0.49593544,-0.2953985,0.2611715,803.8461,790.9524,812.3077,797.3993,732.9304,0.1724853515625,0.035400390625,0.98236083984375,7.693634033203125,-0.800018310546875,-3.955230712890625,1,2.0,1.0,1.0,2.0,65.00
2021-04-20 08:36:35.129,0.33243033,0.77757233,0.4939239,0.22792238,0.20050125,0.42810842,0.28135988,-0.035059977,0.32680252,0.70191467,0.46944278,0.18862584,0.40403688,0.22176982,0.26665995,0.5346151,0.13138679,-0.4438016,-0.37166741,0.2611715,788.1319,790.9524,815.5311,797.8022,819.5604,0.1683349609375,0.083984375,0.9798583984375,4.35150146484375,-5.54779052734375,-2.265472412109375,1,2.0,1.0,1.0,2.0,65.00
2021-04-20 08:36:35.629,0.33243033,0.8640702,0.512263,0.22792238,0.20050125,0.35349584,0.2877246,-0.035059977,0.32680252,0.7606434,0.429354,0.18862584,0.40403688,0.30312967,0.16431361,0.5346151,0.13138679,-0.43202475,-0.37827256,0.2611715,790.14655,783.69965,808.68134,782.8938,727.28937,0.0960693359375,0.08282470703125,0.9793701171875,5.689849853515625,0.8074951171875,2.94586181640625,1,2.0,1.0,1.0,2.0,65.00
2021-04-20 08:36:35.635,,,,,,,,,,,,,,,,,,,,,,,,,,,,,,,,,,,,,,/muse/elements/blink
2021-04-20 08:36:36.140,0.33243033,1.1769823,0.43086314,0.22792238,0.20050125,0.6132848,0.26754892,-0.035059977,0.32680252,0.9650145,0.30290815,0.18862584,0.40403688,0.34924486,0.13207714,0.5346151,0.13138679,-0.39032722,-0.43022278,0.2611715,776.04395,766.3736,811.0989,782.49084,918.2784,0.137939453125,0.123291015625,0.99609375,4.732818603515625,-7.05810546875,4.5458984375,1,2.0,1.0,1.0,2.0,65.00
2021-04-20 08:36:36.658,0.33243033,1.2970092,0.46778968,0.22792238,0.20050125,0.69503045,0.33750325,-0.035059977,0.32680252,0.9650145,0.3972879,0.18862584,0.40403688,0.30777416,0.114606746,0.5346151,0.13138679,-0.45797184,-0.4194923,0.2611715,856.2271,805.4579,797.8022,836.8865,950.10986,0.18292236328125,0.07147216796875,0.9810791015625,2.40753173828125,-10.6170654296875,-8.3441162109375,1,2.0,1.0,1.0,2.0,65.00
2021-04-20 08:36:37.193,0.33243033,1.4247435,0.5181067,0.22792238,0.20050125,0.824132,0.36769748,-0.035059977,0.32680252,0.92570394,0.3972879,0.18862584,0.40403688,0.28260183,0.124053136,0.5346151,0.13138679,-0.45198807,-0.41612577,0.2611715,760.7326,767.5824,815.9341,763.1502,761.9414,0.208740234375,0.05706787109375,0.97930908203125,1.74957275390625,-0.538330078125,2.76641845703125,1,2.0,1.0,1.0,2.0,65.00
2021-04-20 08:36:37.238,,,,,,,,,,,,,,,,,,,,,,,,,,,,,,,,,,,,,,/muse/elements/blink
2021-04-20 08:36:37.701,0.33243033,1.4206527,0.6184415,0.22792238,0.20050125,0.77938366,0.4529031,-0.035059977,0.32680252,0.8366807,0.38703573,0.18862584,0.40403688,0.20098065,0.13812332,0.5346151,0.13138679,-0.44637534,-0.38789347,0.2611715,805.8608,778.86444,805.8608,802.6374,800.2198,0.176025390625,0.02923583984375,0.98541259765625,6.6693115234375,-4.68048095703125,0.76263427734375,1,2.0,1.0,1.0,2.0,65.00
2021-04-20 08:36:38.211,0.33243033,1.4206527,0.4967496,0.22792238,0.20050125,0.77938366,0.3036964,-0.035059977,0.32680252,0.8366807,-0.17345437,0.18862584,0.40403688,0.20098065,-0.22685058,0.5346151,0.13138679,-0.44637534,-0.34731078,0.2611715,796.1905,783.2967,814.7253,796.1905,779.67035,0.14306640625,0.078369140625,1.000244140625,5.263671875,-3.970184326171875,3.491668701171875,1,2.0,1.0,1.0,2.0,65.00
2021-04-20 08:36:38.721,0.61436445,0.14911811,0.4495001,0.22792238,0.33913195,0.091482125,0.23994946,-0.035059977,0.2680289,0.21325713,0.4597651,0.18862584,0.5036665,0.11164141,-0.20748019,0.5346151,0.111011915,-0.5120082,-0.42125508,0.2611715,803.8461,792.1612,805.4579,787.326,775.64105,0.16937255859375,0.0089111328125,0.97821044921875,2.594451904296875,-10.265655517578125,23.619232177734375,1,1.0,1.0,1.0,1.0,65.00
2021-04-20 08:36:39.253,1.137733,0.7148003,0.89734674,0.22792238,0.8677519,0.3242629,0.49833706,-0.035059977,0.6933415,0.49107626,0.65991867,0.18862584,0.4446471,0.048794303,-0.07812344,0.5346151,0.18549788,-0.47314063,-0.39506763,0.2611715,788.93774,784.90845,800.2198,793.7729,862.674,0.18438720703125,-0.01495361328125,0.98236083984375,7.117919921875,0.142059326171875,14.990997314453125,1,1.0,1.0,1.0,1.0,65.00
2021-04-20 08:36:39.558,,,,,,,,,,,,,,,,,,,,,,,,,,,,,,,,,,,,,,/muse/elements/blink
2021-04-20 08:36:39.714,,,,,,,,,,,,,,,,,,,,,,,,,,,,,,,,,,,,,,/muse/elements/blink
2021-04-20 08:36:39.764,1.1507949,0.8059128,1.0998195,0.22792238,0.9120936,0.26039687,0.7315267,-0.035059977,0.72284085,0.6351974,0.7267153,0.18862584,0.4356824,0.035906535,0.23471376,0.5346151,0.1952119,-0.52116346,-0.38508743,0.2611715,815.5311,785.7143,812.3077,740.989,453.69965,0.14599609375,-0.002685546875,1.0013427734375,1.517791748046875,-8.665618896484375,7.917938232421875,1,1.0,1.0,1.0,1.0,65.00
2021-04-20 08:36:40.276,1.383592,1.0569824,1.2431939,0.22792238,1.1508108,0.600101,0.86036205,-0.035059977,0.72284085,0.75023496,0.7267153,0.18862584,0.35504475,-0.057147123,0.35031727,0.5346151,0.26570833,-0.43589705,-0.35568812,0.2611715,807.8755,790.54944,801.02563,767.5824,691.4286,0.14312744140625,0.0340576171875,0.98614501953125,0.575714111328125,2.788848876953125,-15.888214111328125,1,1.0,1.0,1.0,1.0,65.00
2021-04-20 08:36:40.784,,,,,,,,,,,,,,,,,,,,,,,,,,,,,,,,,,,,,,/muse/elements/blink
2021-04-20 08:36:40.792,1.4012192,1.2146072,1.2338059,0.22792238,1.1834096,0.7590277,0.875836,-0.035059977,0.72284085,0.7299562,0.46466908,0.18862584,0.36411822,-0.034928005,0.42257786,0.5346151,0.27577332,-0.42415023,-0.38470775,0.2611715,776.8498,776.8498,809.4872,785.7143,842.1245,-0.0638427734375,0.04449462890625,1.0025634765625,17.74993896484375,16.73309326171875,-11.88812255859375,1,1.0,1.0,1.0,1.0,65.00
2021-04-20 08:36:41.336,1.4012192,1.3954978,1.2435933,0.22792238,1.1834096,1.058768,0.7437033,-0.035059977,0.72284085,0.8456927,0.6437346,0.18862584,0.36411822,0.024733555,0.3791744,0.5346151,0.27577332,-0.38239732,-0.07296494,0.2611715,933.1868,792.96704,817.9487,934.7985,757.9121,-0.16217041015625,0.08935546875,0.96954345703125,3.865509033203125,-5.12908935546875,15.50689697265625,1,1.0,1.0,1.0,1.0,65.00
2021-04-20 08:36:41.485,,,,,,,,,,,,,,,,,,,,,,,,,,,,,,,,,,,,,,/muse/elements/blink
2021-04-20 08:36:41.855,1.4012192,1.46125,0.831869,0.22792238,1.1834096,1.1346208,0.42509532,-0.035059977,0.72284085,0.83072937,0.6437346,0.18862584,0.36411822,0.22116105,0.41513434,0.5346151,0.27577332,-0.50232077,-0.0221277,0.2611715,790.54944,782.8938,809.0842,788.93774,789.34064,-0.12109375,0.110107421875,0.9759521484375,2.28790283203125,-5.600128173828125,12.57598876953125,1,1.0,1.0,1.0,1.0,65.00
2021-04-20 08:36:42.370,1.4012192,1.46125,0.77178025,0.22792238,1.1834096,1.1346208,0.34278646,-0.035059977,0.72284085,0.83072937,0.6437346,0.18862584,0.36411822,0.22116105,0.35328963,0.5346151,0.27577332,-0.50232077,-0.0768839,0.2611715,810.696,786.52014,807.8755,796.5934,730.10986,-0.02923583984375,0.08599853515625,0.9921875,4.194488525390625,-17.189178466796875,8.575897216796875,1,2.0,1.0,1.0,2.0,65.00
2021-04-20 08:36:42.898,1.4012192,1.46125,0.37351894,0.22792238,1.1834096,1.1346208,0.104811355,-0.035059977,0.72284085,0.83072937,0.28080317,0.18862584,0.36411822,0.22116105,0.24028483,0.5346151,0.27577332,-0.50232077,-0.21840596,0.2611715,894.5055,816.337,794.57874,865.09155,722.8571,0.04010009765625,0.06817626953125,1.01513671875,5.2935791015625,-7.91046142578125,-3.835601806640625,1,2.0,1.0,1.0,2.0,65.00
2021-04-20 08:36:43.410,1.4012192,1.1996207,0.53922397,0.22792238,1.1834096,0.5984778,0.1005718,-0.035059977,0.72284085,0.33329216,0.2267761,0.18862584,0.36411822,0.0262202,0.13657889,0.5346151,0.27577332,-0.534737,-0.26331294,0.2611715,792.1612,775.64105,819.15753,784.10254,759.5238,0.067626953125,0.0667724609375,0.99237060546875,6.033782958984375,-8.441314697265625,-3.162689208984375,1,2.0,1.0,1.0,2.0,65.00
2021-04-20 08:36:43.924,1.4012192,1.1567497,0.7736683,0.22792238,1.1834096,0.50277305,0.09490434,-0.035059977,0.72284085,0.33329216,0.23639892,0.18862584,0.36411822,0.031071901,0.14834414,0.5346151,0.27577332,-0.5844041,-0.29240453,0.2611715,794.9817,786.9231,814.3223,796.99634,740.18317,0.08807373046875,0.06195068359375,0.99554443359375,4.523468017578125,-8.68804931640625,0.291595458984375,1,2.0,1.0,1.0,2.0,65.00
2021-04-20 08:36:44.449,1.4012192,1.0601696,0.8178884,0.22792238,1.1834096,0.3794235,-0.014738981,-0.035059977,0.72284085,0.33740005,0.23639892,0.18862584,0.36411822,0.032585807,0.2008762,0.5346151,0.27577332,-0.6309015,-0.29969883,0.2611715,805.05493,780.4762,810.696,809.4872,913.0403,0.07745361328125,0.03277587890625,0.9813232421875,2.998199462890625,-2.1832275390625,-0.43365478515625,1,2.0,1.0,1.0,2.0,65.00
2021-04-20 08:36:44.975,1.4012192,0.5457913,0.7686868,0.22792238,1.1834096,-0.28314286,0.102204844,-0.035059977,0.72284085,0.10721895,0.46955055,0.18862584,0.36411822,0.018602867,0.17447469,0.5346151,0.27577332,-0.639684,-0.28976408,0.2611715,759.12085,790.14655,802.23444,772.01465,854.61536,0.02227783203125,0.05230712890625,0.99957275390625,1.801910400390625,0.59814453125,2.400054931640625,1,2.0,1.0,1.0,2.0,65.00
2021-04-20 08:36:45.499,1.4012192,0.3164387,0.3958713,1.4642838,1.1834096,-0.07513949,0.10802513,0.69353694,0.72284085,0.28894076,0.47484857,0.49400848,0.36411822,0.026061596,0.12482841,0.67452466,0.27577332,-0.5230409,-0.28106436,0.037712596,653.5531,809.89014,808.68134,647.50916,724.4689,-0.013916015625,0.043212890625,0.99835205078125,-10.235748291015625,4.329071044921875,-12.882537841796875,1,1.0,1.0,1.0,1.0,65.00
2021-04-20 08:36:45.621,,,,,,,,,,,,,,,,,,,,,,,,,,,,,,,,,,,,,,/muse/elements/blink
2021-04-20 08:36:46.041,1.4012192,0.28594005,0.5113975,1.4354265,1.1834096,0.1315322,0.44197154,0.76216334,0.72284085,0.34426212,0.49093798,0.49290273,0.36411822,0.054336164,0.07346083,0.7059082,0.27577332,-0.4470494,-0.2710719,0.01682368,803.8461,790.54944,792.1612,785.7143,804.2491,-0.01934814453125,0.0501708984375,0.96221923828125,16.007843017578125,2.340240478515625,11.506805419921875,1,1.0,1.0,1.0,1.0,65.00
2021-04-20 08:36:46.477,,,,,,,,,,,,,,,,,,,,,,,,,,,,,,,,,,,,,,/muse/elements/blink
2021-04-20 08:36:46.586,1.4012192,0.266895,0.6882162,1.4354265,1.1834096,0.2834602,0.5658333,0.76216334,0.72284085,0.34426212,0.4607404,0.49290273,0.36411822,0.06752236,0.17160171,0.7059082,0.27577332,-0.37158564,-0.21326223,0.01682368,885.64105,803.44324,806.6667,869.5238,691.4286,-0.0068359375,0.163330078125,0.99359130859375,12.329254150390625,-2.4224853515625,-3.252410888671875,1,1.0,1.0,1.0,1.0,65.00
2021-04-20 08:36:47.103,1.4012192,0.4894567,0.76115036,1.4354265,1.1834096,0.4410425,0.55368716,0.76216334,0.72284085,0.17979641,0.38860434,0.49290273,0.36411822,0.294811,0.29646707,0.7059082,0.27577332,0.07339046,-0.12952495,0.01682368,814.7253,789.34064,796.5934,825.6044,1116.1172,-0.09619140625,0.20013427734375,0.9647216796875,0.545806884765625,6.62445068359375,15.38726806640625,1,1.0,1.0,1.0,1.0,65.00
2021-04-20 08:36:47.840,1.4012192,0.48792514,0.7484475,1.4354265,1.1834096,0.43693337,0.5143615,0.76216334,0.72284085,0.20143048,0.38066143,0.49290273,0.36411822,0.24543491,0.30515537,0.7059082,0.27577332,-1.3387806E-4,-0.09803687,0.01682368,796.99634,787.72894,804.2491,786.52014,685.38464,-0.0823974609375,0.10797119140625,0.96429443359375,-3.506622314453125,-13.1890869140625,7.10296630859375,1,1.0,1.0,1.0,1.0,65.00
2021-04-20 08:36:48.059,,,,,,,,,,,,,,,,,,,,,,,,,,,,,,,,,,,,,,/muse/elements/blink
2021-04-20 08:36:48.350,1.4012192,0.42692608,0.6142024,1.4354265,1.1834096,0.2389376,-0.03645075,0.76216334,0.72284085,0.41748086,0.24289839,0.49290273,0.36411822,0.14260791,0.23526475,0.7059082,0.27577332,-0.21000992,-0.10246643,0.01682368,783.2967,778.46155,804.2491,776.8498,817.9487,-0.1510009765625,0.09722900390625,0.9654541015625,-4.18701171875,9.682464599609375,3.6187744140625,1,2.0,1.0,1.0,2.0,65.00
2021-04-20 08:36:48.872,1.4012192,0.5158581,0.81060755,1.4354265,1.1834096,0.054203175,-0.006169826,0.76216334,0.72284085,0.51186585,0.29618284,0.49290273,0.36411822,0.09907826,0.18742709,0.7059082,0.27577332,-0.21885343,-0.16269295,0.01682368,805.4579,788.5348,805.8608,802.6374,700.696,-0.31390380859375,0.0010986328125,0.9305419921875,2.9010009765625,1.233673095703125,-3.237457275390625,1,2.0,1.0,1.0,2.0,65.00
2021-04-20 08:36:49.407,1.4012192,0.6256367,0.8638176,1.4354265,1.1834096,0.043808084,0.09548646,0.76216334,0.72284085,0.5055804,0.397474,0.49290273,0.36411822,0.054459266,0.2652848,0.7059082,0.27577332,-0.2204071,-0.16075306,0.01682368,793.36993,775.64105,800.6227,798.60803,788.5348,-0.3590087890625,0.07177734375,0.94439697265625,12.523651123046875,3.641204833984375,3.42437744140625,1,2.0,1.0,1.0,2.0,65.00
2021-04-20 08:36:49.921,0.3862999,0.63159215,0.6733224,0.5644816,-0.07298701,-0.10400209,0.06738317,0.4795793,0.4001659,0.46897724,0.5515776,0.60492224,0.5573536,0.12018573,0.24588782,0.7361987,0.19727306,-0.23355655,-0.19035462,0.24976699,789.34064,795.78754,815.9341,798.20514,983.5531,-0.38299560546875,-0.02630615234375,0.9095458984375,3.1402587890625,-5.959014892578125,0.0299072265625,1,1.0,1.0,1.0,1.0,65.00
2021-04-20 08:36:50.425,0.5694623,0.7066435,0.6632685,0.6188049,0.57426727,0.19731435,0.1494778,0.6240412,0.8879693,0.40066585,0.59346473,0.8778115,0.5430882,0.19048339,0.23639776,0.68665797,0.1259459,-0.3559873,-0.1729579,0.29838145,792.5641,786.9231,792.1612,767.98535,825.6044,-0.34307861328125,0.00506591796875,0.92779541015625,2.400054931640625,-2.4224853515625,-13.884429931640625,1,1.0,1.0,1.0,1.0,65.00
2021-04-20 08:36:50.940,0.9079313,0.98283625,0.92107004,1.0478903,0.7919168,0.45941922,0.32912472,0.94235694,1.1839861,0.4368976,0.5776981,1.0536509,0.5068786,0.26994246,0.2036126,0.6555497,0.15677215,-0.40965766,-0.1574548,0.30082598,796.5934,791.3553,835.2747,801.4286,854.61536,-0.349853515625,0.03045654296875,0.92864990234375,4.53094482421875,-10.048828125,2.75146484375,1,1.0,1.0,1.0,1.0,65.00
2021-04-20 08:36:51.453,1.0973411,0.9933379,1.0106862,1.2079498,0.9646871,0.49530968,0.4128208,1.0487341,1.1720608,0.38374355,0.58314306,1.0536509,0.45968828,0.24429846,0.17283136,0.58789915,0.19787118,-0.47368234,-0.18535382,0.29936674,799.81683,799.81683,826.0073,791.3553,694.65204,-0.3289794921875,0.014404296875,0.9383544921875,4.6954345703125,-5.14404296875,1.532745361328125,1,1.0,1.0,1.0,1.0,65.00
2021-04-20 08:36:51.970,1.231872,1.0540671,1.0866714,1.3195829,1.019362,0.4634114,0.46995,1.0483586,1.1636082,0.37679896,0.22351436,1.0308793,0.4129772,0.2487293,0.20230958,0.5600005,0.2802363,-0.4575902,-0.16361545,0.25943345,824.7985,807.8755,799.81683,811.9048,815.5311,-0.32586669921875,0.02996826171875,0.94732666015625,4.6954345703125,-4.38140869140625,1.024322509765625,1,1.0,1.0,1.0,1.0,65.00
2021-04-20 08:36:52.492,1.057258,0.9160087,1.1391649,1.1843054,0.80921733,0.3489026,0.6694448,0.8638173,1.0073712,0.5216812,0.5122082,1.0405724,0.360682,0.11513129,0.3596471,0.5889487,0.19838904,-0.30754697,-0.16935691,0.22226934,780.87915,790.14655,813.5165,788.1319,719.6337,-0.31610107421875,0.0179443359375,0.947998046875,5.301055908203125,-6.258087158203125,0.70281982421875,1,1.0,1.0,1.0,1.0,65.00
2021-04-20 08:36:53.036,0.69443554,1.0969502,1.2686323,1.0092515,0.43539512,0.6099527,0.78045017,0.7102583,1.0219272,0.6449983,0.51213926,1.0769697,0.28781122,0.14926395,0.4224326,0.5720897,0.0676356,-0.29194292,-0.17231743,0.254283,767.98535,763.5531,842.52747,788.93774,778.0586,-0.315185546875,0.03485107421875,0.95013427734375,4.762725830078125,-4.000091552734375,1.03179931640625,1,1.0,1.0,1.0,1.0,65.00
2021-04-20 08:36:53.574,0.9673791,1.1969079,1.154951,0.777922,0.5917287,0.55243117,0.73779577,0.63277835,1.0646878,0.7776878,0.5301703,1.1196295,0.28164738,0.20520441,0.24484563,0.53747284,0.11348773,-0.33355367,-0.23097105,0.35789213,771.2088,803.0403,803.0403,775.64105,980.7326,-0.31396484375,0.0087890625,0.95166015625,4.673004150390625,-2.4224853515625,-0.1495361328125,1,1.0,1.0,1.0,1.0,65.00
2021-04-20 08:36:54.118,1.051758,1.1696392,0.9658311,0.8118703,0.6058638,0.5081832,0.53076386,0.5627399,1.0625057,0.7705144,0.368406,1.1023089,0.32818845,0.24017568,0.07748929,0.45149192,0.10454435,-0.3717415,-0.29473934,0.39207456,860.2564,774.43225,815.12823,865.09155,688.20514,-0.32666015625,0.0211181640625,0.94403076171875,4.583282470703125,-4.583282470703125,0.70281982421875,1,1.0,1.0,1.0,1.0,60.00
2021-04-20 08:36:54.633,1.2364461,1.2120976,1.0058603,0.8378394,0.7487305,0.48142418,0.5463192,0.49233526,0.8692331,0.6646809,0.368406,0.9380483,0.37259704,0.2205095,0.09834774,0.48184946,0.10964034,-0.36400533,-0.29201123,0.43664593,826.0073,781.28204,802.6374,823.5897,969.45056,-0.32427978515625,0.00469970703125,0.94757080078125,3.63372802734375,-3.431854248046875,-0.097198486328125,1,1.0,1.0,1.0,1.0,60.00
2021-04-20 08:36:55.149,1.2666167,1.1011052,0.9471071,0.79643214,0.7429174,0.46297,0.34513718,0.40263575,0.4759349,0.64880323,0.3615614,0.7110048,0.4811384,0.24162102,0.11567794,0.5036371,0.019230938,-0.37882856,-0.18715845,0.41140503,826.4103,788.93774,801.02563,826.0073,959.3773,-0.36041259765625,-0.0103759765625,0.92974853515625,3.835601806640625,-1.65985107421875,0.590667724609375,1,1.0,1.0,1.0,1.0,60.00
2021-04-20 08:36:55.661,1.2666167,0.6120945,0.56401944,0.79643214,0.7429174,0.14043887,-0.14830075,0.40263575,0.4759349,0.4483174,0.16810855,0.7110048,0.4811384,0.18583351,0.106007226,0.5036371,0.019230938,-0.35521173,-0.045123864,0.41140503,786.52014,794.9817,801.4286,782.0879,804.65204,-0.36212158203125,-0.0025634765625,0.93548583984375,3.648681640625,-7.37213134765625,0.142059326171875,1,1.0,1.0,1.0,1.0,60.00
2021-04-20 08:36:56.181,0.9212447,0.5731729,0.48606628,0.7927163,0.37346086,0.13957414,0.090686254,0.44649336,0.641584,0.4220538,0.17819671,0.5890865,0.3251173,0.12769747,0.11732652,0.5537033,0.04929314,-0.37763405,-0.09839911,0.14331304,792.1612,784.90845,814.7253,786.1172,788.93774,-0.35260009765625,-0.01690673828125,0.93695068359375,4.0972900390625,-3.222503662109375,-0.28411865234375,1,1.0,1.0,1.0,1.0,60.00
2021-04-20 08:36:56.689,0.86192524,0.42802957,0.3940074,0.8266947,0.41426578,0.118394494,0.17438428,0.5012603,0.6706587,0.28858712,0.030469928,0.63489765,0.32839406,0.04892722,0.096512325,0.5475447,0.09965257,-0.41144672,-0.1741647,0.24024783,714.7985,811.0989,785.7143,694.65204,730.10986,-0.35791015625,-0.01531982421875,0.94158935546875,5.136566162109375,-5.899200439453125,1.936492919921875,1,1.0,1.0,1.0,1.0,60.00
2021-04-20 08:36:57.014,,,,,,,,,,,,,,,,,,,,,,,,,,,,,,,,,,,,,,/muse/elements/blink
2021-04-20 08:36:57.199,0.89220095,0.5005372,0.45341495,0.93368745,0.41970122,0.20008442,0.25051764,0.47859776,0.41648313,0.28958514,0.08512509,0.33156133,0.34022573,-0.013380226,0.1070436,0.5667082,0.13710302,-0.48592198,-0.24519457,0.3114473,810.293,788.93774,803.44324,818.3516,880.80585,-0.3509521484375,-0.01934814453125,0.938232421875,4.373931884765625,-5.06927490234375,0.680389404296875,1,1.0,1.0,1.0,1.0,60.00
2021-04-20 08:36:57.707,0.89220095,0.45217448,0.36843783,0.93368745,0.41970122,0.16578539,0.13595645,0.47859776,0.41648313,0.23246393,0.051488336,0.33156133,0.34022573,-0.017821353,0.08000347,0.5667082,0.13710302,-0.51866806,-0.27038488,0.3114473,824.7985,788.1319,808.68134,817.5458,740.989,-0.33349609375,-0.01434326171875,0.94451904296875,4.725341796875,-6.990814208984375,1.203765869140625,1,1.0,1.0,1.0,1.0,60.00
2021-04-20 08:36:58.231,0.89220095,0.43467954,0.41346616,0.93368745,0.41970122,0.2541059,0.13581394,0.47859776,0.41648313,0.2158431,0.035470903,0.33156133,0.34022573,-0.00486727,0.11654522,0.5667082,0.13710302,-0.52258956,-0.231322,0.3114473,810.696,791.75824,805.4579,817.1429,1179.3773,-0.3297119140625,-0.01409912109375,0.9490966796875,5.2337646484375,-3.805694580078125,1.2860107421875,1,1.0,1.0,1.0,1.0,60.00
2021-04-20 08:36:58.748,0.6423933,0.062350843,0.45370114,0.5612032,0.06679106,0.09707182,-0.08202647,0.24755126,0.16066064,0.0756049,0.0440764,0.574265,0.46499884,-0.14856449,0.16221224,0.43255535,0.15677844,-0.33271426,-0.17528158,0.4023169,795.78754,788.1319,808.68134,797.3993,744.61536,-0.32275390625,-0.00286865234375,0.9482421875,4.239349365234375,-4.164581298828125,0.478515625,1,1.0,1.0,1.0,1.0,60.00
2021-04-20 08:36:59.263,0.6511623,0.06429106,0.25619435,0.5553905,-0.0088326195,-0.005615468,0.0012450158,0.24070013,0.21377681,0.20685269,0.15397607,0.6285154,0.3615717,-0.08641074,0.117930844,0.4727573,0.18830329,-0.3107153,-0.2602168,0.45179716,796.99634,784.90845,815.9341,799.011,748.6447,-0.3251953125,-0.00146484375,0.95111083984375,5.562744140625,-5.016937255859375,1.12152099609375,1,1.0,1.0,1.0,1.0,60.00
2021-04-20 08:36:59.768,0.65012264,0.2121366,0.12334521,0.52467203,0.01981282,-0.06028979,0.04093709,0.2643787,0.44614962,0.26335913,0.2518556,0.6285154,0.31533766,-0.094158426,0.03735002,0.46357277,0.25280473,-0.33941603,-0.26880524,0.48131388,792.5641,779.67035,806.6667,802.23444,733.3333,-0.26971435546875,0.0294189453125,0.95831298828125,7.596435546875,-9.532928466796875,5.585174560546875,1,1.0,1.0,1.0,1.0,60.00
2021-04-20 08:37:00.287,0.66492444,0.60212404,0.21873719,0.72394156,0.09676597,0.114501014,0.17922647,0.29279453,0.46699336,0.25339276,0.33893925,0.42388564,0.25220144,-0.081624225,-0.009308161,0.5491027,0.29556522,-0.3819936,-0.21441142,0.49778396,727.28937,805.05493,786.52014,716.0073,787.72894,-0.2919921875,0.0364990234375,0.96258544921875,4.299163818359375,-5.62255859375,-0.70281982421875,1,1.0,1.0,1.0,1.0,60.00
2021-04-20 08:37:00.470,,,,,,,,,,,,,,,,,,,,,,,,,,,,,,,,,,,,,,/muse/elements/blink
2021-04-20 08:37:00.818,0.6757353,0.89454406,0.8421894,0.85628074,0.22517602,0.29899892,0.6579188,0.33062962,0.46699336,0.21926442,0.63009053,0.25957164,0.23009996,-0.06764302,0.109806985,0.5310014,0.33796227,-0.3850894,-0.1658593,0.44769898,812.3077,796.5934,800.2198,811.50183,726.4835,-0.284423828125,0.03179931640625,0.964599609375,4.000091552734375,2.534637451171875,1.09161376953125,1,1.0,1.0,1.0,1.0,60.00
2021-04-20 08:37:01.348,0.6202069,1.0563741,0.947352,0.85628074,0.30583832,0.43191218,0.7555996,0.33062962,0.45551142,0.18101013,0.63041985,0.25957164,0.24557011,-0.0369494,0.16959615,0.5310014,0.2996533,-0.3338584,-0.15142527,0.44769898,811.50183,796.99634,798.20514,807.8755,726.08057,-0.32147216796875,0.03240966796875,0.93731689453125,4.972076416015625,-2.9608154296875,4.486083984375,1,1.0,1.0,1.0,1.0,60.00
2021-04-20 08:37:01.869,0.6202069,1.3111256,1.099722,0.85628074,0.30583832,0.8861223,0.7765893,0.33062962,0.45551142,0.300029,0.65751,0.25957164,0.24557011,0.20437466,0.16002429,0.5310014,0.2996533,-0.26320058,-0.23387092,0.44769898,793.36993,792.96704,828.8278,794.57874,738.97437,-0.32501220703125,0.02947998046875,0.9498291015625,3.94775390625,-4.5458984375,-2.1533203125,1,1.0,1.0,1.0,1.0,60.00
2021-04-20 08:37:02.390,0.9067935,1.0624368,0.93914133,0.85628074,0.48020935,0.71804297,0.29413667,0.33062962,0.7987007,0.26703405,0.52463716,0.25957164,0.5651701,0.16346379,0.09446987,0.5310014,0.20804754,-0.4137245,-0.27262497,0.44769898,800.6227,797.8022,813.5165,793.7729,723.663,-0.32098388671875,0.02471923828125,0.94757080078125,4.224395751953125,-4.62066650390625,0.31402587890625,1,1.0,1.0,1.0,1.0,60.00
2021-04-20 08:37:02.933,0.8051604,0.91488737,0.83986884,0.6903291,0.3841531,0.6034644,0.14238848,0.29018405,0.8108651,0.41464582,0.52463716,0.47621018,0.47799003,0.10965805,0.09119184,0.43116832,0.12387745,-0.40168053,-0.3711652,0.3011421,803.8461,795.78754,808.2784,801.8315,758.71796,-0.31939697265625,0.0174560546875,0.947265625,4.837493896484375,-3.880462646484375,0.919647216796875,1,1.0,1.0,1.0,1.0,60.00
2021-04-20 08:37:03.454,0.9359829,0.9288464,0.8991135,0.6903291,0.45226476,0.6435965,0.2990591,0.29018405,0.720224,0.6109965,0.47200808,0.47621018,0.3915865,0.08997952,0.1752353,0.43116832,0.19868715,-0.41679972,-0.40180835,0.3011421,815.9341,790.9524,813.1135,808.2784,746.2271,-0.330322265625,0.0181884765625,0.9456787109375,4.493560791015625,-4.74029541015625,0.6878662109375,1,1.0,1.0,1.0,1.0,60.00
2021-04-20 08:37:03.993,0.99708366,0.9917123,0.890204,0.6331981,0.5145404,0.6817085,0.35750887,0.25837955,0.49564806,0.6122367,0.34911418,0.35182393,0.39021027,0.04852204,0.114852324,0.46563992,0.25044328,-0.4429951,-0.40156278,0.29759607,794.17584,790.54944,800.2198,801.8315,800.2198,-0.3360595703125,0.02294921875,0.94256591796875,4.224395751953125,-3.75335693359375,0.179443359375,1,1.0,1.0,1.0,1.0,70.00
2021-04-20 08:37:04.511,1.1232997,0.90224934,0.98535067,0.7444339,0.5964372,0.60917854,0.351616,0.3609653,0.23058271,0.5981651,0.35508204,0.4985946,0.44766477,0.12079397,0.07647376,0.49588576,0.37747955,-0.38602465,-0.3312069,0.30723685,791.75824,811.9048,785.7143,785.31134,756.7033,-0.3199462890625,0.01922607421875,0.94915771484375,4.972076416015625,-4.673004150390625,0.620574951171875,1,1.0,1.0,1.0,1.0,70.00
2021-04-20 08:37:05.054,0.6954626,0.4734347,0.81165063,0.62321115,0.30712444,0.29500633,0.13481066,0.41461262,0.50741744,0.35491338,0.529257,0.69811004,0.4907375,0.19466126,0.07094049,0.49036756,0.080183275,-0.42387626,-0.35998267,0.2847563,789.7436,782.0879,803.44324,783.2967,687.3993,-0.33392333984375,0.01226806640625,0.94671630859375,4.44122314453125,-3.70849609375,0.52337646484375,1,1.0,1.0,1.0,1.0,70.00
2021-04-20 08:37:05.569,0.72613627,0.8620384,0.94491994,0.91315603,0.33816507,0.4800176,0.41488954,0.57619584,0.50485504,0.42492172,0.6304857,0.701298,0.50215507,0.28887665,0.17350826,0.46111724,0.09247716,-0.4481013,-0.3633456,0.2955398,800.6227,791.3553,803.8461,790.54944,744.21246,-0.33319091796875,0.00933837890625,0.94891357421875,4.583282470703125,-3.970184326171875,1.06170654296875,1,1.0,1.0,1.0,1.0,70.00
2021-04-20 08:37:06.112,0.6924931,0.90201926,0.8206464,0.94657457,0.29376176,0.42437655,0.40355927,0.6089434,0.6718556,0.43676394,0.6124523,0.77128136,0.4670006,0.24617043,0.20966618,0.38677233,0.015759885,-0.67567056,-0.27094474,0.2681607,813.5165,798.60803,795.38464,806.26373,747.4359,-0.33172607421875,0.00848388671875,0.9437255859375,4.6954345703125,-5.121612548828125,1.009368896484375,1,1.0,1.0,1.0,1.0,70.00
2021-04-20 08:37:06.657,0.5509088,0.83078027,0.6354836,0.955215,0.36811414,0.2885637,0.29738066,0.5860188,0.69429773,0.41722146,0.58852255,0.7072529,0.33935747,0.113893844,0.15537597,0.29289535,-0.048059087,-0.6974552,-0.2709661,0.23093303,801.8315,791.75824,793.7729,800.6227,865.89746,-0.3348388671875,0.01007080078125,0.9407958984375,4.942169189453125,-4.8748779296875,0.261688232421875,1,1.0,1.0,1.0,1.0,70.00
2021-04-20 08:37:07.199,0.48478195,0.5966147,0.38461268,0.4883991,0.41401488,0.32947066,-0.38107485,0.2530772,0.70644224,0.25017157,-0.019264601,0.6311212,0.39536765,0.10417244,0.08333846,0.381499,0.0059346845,-0.644888,-0.2665174,0.22642514,803.0403,789.34064,794.57874,807.0696,733.73627,-0.33636474609375,0.0037841796875,0.9453125,4.9945068359375,-4.000091552734375,1.428070068359375,1,1.0,1.0,1.0,1.0,70.00
2021-04-20 08:37:07.742,0.47076243,0.83149016,0.6564457,0.8083408,0.49403214,0.529375,-0.026382132,0.46483716,0.71560717,0.39545798,0.31465676,0.6407801,0.3729418,0.08266678,0.09476796,0.43541384,0.06974092,-0.5947702,-0.31960383,0.18865706,813.91943,799.81683,800.2198,817.9487,921.0989,-0.33294677734375,7.32421875E-4,0.94659423828125,4.523468017578125,-4.0972900390625,0.919647216796875,1,1.0,1.0,1.0,1.0,70.00
2021-04-20 08:37:08.264,0.6785716,0.92294353,0.7950344,0.9014281,0.52010673,0.6501987,0.20058504,0.5295077,0.6927975,0.44813102,0.38238677,0.7699772,0.39253518,0.107062966,0.07756614,0.5005208,0.05650301,-0.4944346,-0.26675445,0.04554758,789.34064,790.54944,807.8755,801.02563,743.00366,-0.33123779296875,0.0052490234375,0.94183349609375,5.09918212890625,-4.26177978515625,1.27105712890625,1,1.0,1.0,1.0,1.0,70.00
2021-04-20 08:37:08.803,0.8414976,0.82275593,0.7791112,0.9488138,0.5012385,0.5040188,0.3470635,0.5499075,0.64186746,0.43558446,0.37861308,0.77407676,0.2940174,-0.0035372041,0.09677302,0.4623038,-0.041448012,-0.4327921,-0.28309277,-0.012395657,796.1905,779.2674,808.68134,803.8461,736.55676,-0.33905029296875,0.0054931640625,0.94671630859375,4.94964599609375,-4.523468017578125,0.964508056640625,1,1.0,1.0,1.0,1.0,70.00
2021-04-20 08:37:09.353,0.8366735,0.6558564,0.63495505,0.658121,0.48073518,0.38269287,0.19002394,0.33542702,0.6244139,0.39767823,0.20974703,0.6794418,0.30168584,0.03191937,0.03689067,0.45127112,-0.14076859,-0.36286962,-0.33601767,0.01894924,807.0696,799.011,808.68134,819.9634,931.1722,-0.3387451171875,0.006103515625,0.94287109375,4.762725830078125,-4.71038818359375,1.218719482421875,1,1.0,1.0,1.0,1.0,70.00
2021-04-20 08:37:09.858,0.7557962,0.601601,0.4955355,0.6640788,0.27544746,0.19877122,0.13953981,0.07202781,0.42558515,0.23417848,0.2599246,0.50296783,0.33238122,0.11187313,0.055784423,0.45634693,-0.13393584,-0.3335488,-0.32844254,0.05704173,774.43225,781.685,796.99634,786.9231,713.1868,-0.30303955078125,0.01629638671875,0.9559326171875,6.4300537109375,-9.45068359375,2.4822998046875,1,1.0,1.0,1.0,1.0,70.00
2021-04-20 08:37:10.394,0.7043742,0.77580935,0.55639875,0.6640788,0.26254833,0.29959962,0.17969939,0.07202781,0.2686939,0.24769546,0.25381827,0.50296783,0.37074065,0.07798805,0.052448053,0.45634693,-0.14845327,-0.208549,-0.33536595,0.05704173,812.71063,793.7729,805.4579,815.12823,773.22345,-0.33843994140625,0.04644775390625,0.93621826171875,6.108551025390625,1.00189208984375,3.96270751953125,1,1.0,1.0,1.0,1.0,70.00
2021-04-20 08:37:10.949,1.0140717,0.6983279,0.42678168,0.6640788,0.4551658,0.21112776,0.25111386,0.07202781,0.5590639,0.33208868,0.24329686,0.50296783,0.6854325,0.012228414,0.03104734,0.45634693,0.41902146,-0.2226986,-0.25612235,0.05704173,761.13556,795.38464,804.2491,745.42126,720.84247,-0.34173583984375,0.052001953125,0.93292236328125,4.000091552734375,-2.4822998046875,-3.75335693359375,1,1.0,1.0,1.0,1.0,70.00
2021-04-20 08:37:11.490,1.0140717,0.5488488,0.4229032,0.6640788,0.4551658,0.14023624,0.26383242,0.07202781,0.5590639,0.40342852,0.18363023,0.50296783,0.6854325,-0.010172015,0.00818317,0.45634693,0.41902146,-0.24609348,-0.27905768,0.05704173,796.1905,789.7436,811.0989,802.6374,721.6484,-0.3717041015625,0.029296875,0.93023681640625,3.386993408203125,-5.39825439453125,-0.919647216796875,1,1.0,1.0,1.0,1.0,70.00
2021-04-20 08:37:12.002,1.03821,0.78409564,0.794836,0.6640788,0.4141294,0.3164071,0.38956672,0.07202781,0.6581951,0.615225,0.46317714,0.50296783,0.6552716,0.10465752,0.0974761,0.45634693,0.41115245,-0.36092737,-0.3205184,0.05704173,812.3077,794.57874,797.8022,811.9048,815.9341,-0.35260009765625,0.02294921875,0.93341064453125,3.476715087890625,-7.080535888671875,0.79254150390625,1,1.0,1.0,1.0,1.0,70.00
2021-04-20 08:37:12.520,1.0545232,0.8969553,1.0631502,0.6640788,0.40020666,0.39585358,0.53389585,0.07202781,0.6581951,0.60703003,0.49137306,0.50296783,0.6294507,0.1398744,0.17741887,0.45634693,0.4170518,-0.32401112,-0.39711687,0.05704173,776.4469,784.90845,803.0403,784.90845,726.4835,-0.333251953125,0.0126953125,0.941162109375,4.38140869140625,-5.555267333984375,0.814971923828125,1,1.0,1.0,1.0,1.0,70.00
2021-04-20 08:37:13.032,1.0545232,1.1212308,1.25921,0.6640788,0.40020666,0.69371796,0.6405655,0.07202781,0.6581951,0.6426297,0.543426,0.50296783,0.6294507,0.097586,0.23323065,0.45634693,0.4170518,-0.24034987,-0.28057525,0.05704173,805.05493,790.9524,801.8315,804.2491,875.9707,-0.33148193359375,0.01544189453125,0.9468994140625,4.74029541015625,-3.566436767578125,1.8243408203125,1,1.0,1.0,1.0,1.0,70.00
2021-04-20 08:37:13.567,1.0545232,0.8144316,1.2061894,0.6630428,0.40020666,0.48499426,0.568097,0.32126838,0.6581951,0.392766,0.40329653,0.5174037,0.6294507,0.060459495,0.18260144,0.3613436,0.4170518,-0.27530274,-0.2323207,0.26659414,797.3993,793.7729,807.0696,803.8461,812.71063,-0.3289794921875,0.01318359375,0.9453125,5.1141357421875,-4.852447509765625,1.4056396484375,1,1.0,1.0,1.0,1.0,70.00
2021-04-20 08:37:14.082,-0.13964635,0.6228195,0.9310712,0.5484965,0.12479689,0.3572186,0.26328295,0.2844299,0.12593533,0.4005428,0.37143496,0.5152587,0.36472985,0.04317636,0.016735822,0.38637406,-0.048615217,-0.34156537,-0.1853889,0.21126309,797.3993,794.17584,811.0989,803.44324,773.6264,-0.3297119140625,0.01165771484375,0.946533203125,4.942169189453125,-5.301055908203125,0.919647216796875,1,1.0,1.0,1.0,1.0,70.00
2021-04-20 08:37:14.602,-0.13964635,0.41262218,0.59160876,0.5484965,0.12479689,0.18166679,0.054502692,0.2844299,0.12593533,0.22247274,0.1628092,0.5152587,0.36472985,0.03107131,-0.06660885,0.38637406,-0.048615217,-0.42879325,-0.26032984,0.21126309,790.9524,790.14655,815.5311,797.8022,849.7802,-0.33502197265625,0.0152587890625,0.94415283203125,4.344024658203125,-4.41131591796875,1.30096435546875,1,1.0,1.0,1.0,1.0,65.00
2021-04-20 08:37:15.146,1.2303361,0.78858227,0.7324636,0.51556003,0.49392173,0.43829483,0.15486215,0.110086605,0.5011339,0.26221436,0.2425488,0.33191913,0.42455557,-0.01525543,-0.030399183,0.31960642,-0.05474144,-0.44474414,-0.28219488,0.10468512,801.4286,806.6667,793.36993,789.7436,699.0842,-0.333740234375,0.01080322265625,0.947509765625,5.1141357421875,-4.358978271484375,1.039276123046875,1,1.0,1.0,1.0,1.0,65.00
2021-04-20 08:37:15.649,1.4014426,1.0564071,1.110861,0.51556003,0.60159963,0.65725935,0.49593782,0.110086605,0.5011339,0.5122119,0.39992273,0.33191913,0.44511393,0.008133927,0.07722029,0.31960642,-0.051727183,-0.41281596,-0.30808276,0.10468512,807.0696,795.78754,811.0989,827.2161,873.1502,-0.32989501953125,0.013671875,0.9515380859375,4.83001708984375,-4.508514404296875,1.353302001953125,1,1.0,1.0,1.0,1.0,65.00
2021-04-20 08:37:16.187,1.0220635,1.0289713,0.9184182,0.5318721,0.27692834,0.6325652,0.39071766,-0.04812062,0.67278534,0.5122119,0.47444546,0.34204453,0.35620287,-0.07622895,0.08892526,0.5019564,0.047903817,-0.2714063,-0.44616053,0.19789037,773.6264,781.28204,809.0842,780.87915,746.63007,-0.33197021484375,0.0142822265625,0.9429931640625,4.717864990234375,-3.805694580078125,0.91217041015625,1,1.0,1.0,1.0,1.0,65.00
2021-04-20 08:37:16.724,0.6007542,0.72640955,0.7503962,0.61898595,0.23581691,0.4204341,0.28901976,0.05442218,0.7425558,0.5270349,0.48004603,0.6520102,0.25734687,-0.0689209,0.077211395,0.42732966,0.0913413,-0.24866116,-0.41071573,0.08318803,814.7253,792.1612,809.4872,811.0989,804.2491,-0.340087890625,0.00946044921875,0.9420166015625,4.5458984375,-4.104766845703125,0.179443359375,1,1.0,1.0,1.0,1.0,65.00
2021-04-20 08:37:17.231,0.67813134,0.28964618,0.2818986,0.56790733,0.38019228,0.038326297,-0.022161162,0.30336607,0.81779474,0.39847746,0.22592951,0.7110722,0.2762493,-0.08359287,0.09848418,0.43019235,0.03792844,-0.30466196,-0.37538224,0.03515682,802.6374,790.14655,808.2784,792.96704,817.5458,-0.33624267578125,0.01507568359375,0.941162109375,4.74029541015625,-5.7122802734375,0.91217041015625,1,1.0,1.0,1.0,1.0,65.00
2021-04-20 08:37:17.735,0.8573562,0.1816929,-0.057614964,0.8259821,0.46838453,0.067560114,-0.15943623,0.43324372,0.69048077,0.277657,0.22454908,0.7345266,0.2763284,0.071652524,0.10329062,0.49049866,-0.027398461,-0.4569953,-0.3684729,0.003709694,782.49084,788.93774,808.2784,790.54944,708.3516,-0.33636474609375,0.0107421875,0.94500732421875,5.046844482421875,-3.94775390625,1.188812255859375,1,1.0,1.0,1.0,1.0,65.00
2021-04-20 08:37:18.277,0.90149677,0.20053698,-0.032655623,0.88345194,0.46296382,0.1295261,-0.16283524,0.5191623,0.735015,0.23534665,0.24702932,0.7330866,0.3140838,0.06696936,0.1104918,0.5335547,-0.05217313,-0.40254498,-0.3439623,0.015915422,791.75824,803.44324,803.8461,780.87915,718.8278,-0.34735107421875,0.013916015625,0.93756103515625,4.822540283203125,-4.68048095703125,1.547698974609375,1,1.0,1.0,1.0,1.0,65.00
2021-04-20 08:37:18.800,0.8734599,0.6681821,0.48265353,0.826858,0.2784688,0.27519524,0.18788317,0.433141,0.7918484,0.52487725,0.28365457,0.8292366,0.25669998,0.008717627,0.100199826,0.4792051,-0.0016724564,-0.34974933,-0.2750175,0.011279124,811.50183,799.81683,809.89014,815.5311,1124.5787,-0.34478759765625,0.017333984375,0.9412841796875,4.6356201171875,-4.373931884765625,0.590667724609375,1,1.0,1.0,1.0,1.0,65.00
2021-04-20 08:37:19.349,1.0216436,1.021351,0.904887,0.63637257,0.28631693,0.42556456,0.5609008,0.3617448,0.7887302,0.5729974,0.6558403,0.7971037,0.23803163,-0.06672366,0.047434174,0.25831723,0.084841706,-0.3849367,-0.257531,-7.0202345E-4,798.20514,809.4872,809.4872,791.75824,706.7399,-0.33953857421875,0.01800537109375,0.940673828125,5.084228515625,-4.792633056640625,1.4056396484375,1,1.0,1.0,1.0,1.0,65.00
2021-04-20 08:37:19.897,0.8891227,1.0607783,1.0249013,0.5434426,0.31213924,0.48755792,0.5828046,0.3341237,0.77118105,0.58492184,0.6562118,0.787932,0.27482504,0.041410554,0.058513485,0.26905036,0.056852825,-0.37477958,-0.32760155,0.017916389,801.8315,793.7729,809.89014,804.2491,716.0073,-0.34063720703125,0.0194091796875,0.93878173828125,4.388885498046875,-4.777679443359375,2.25799560546875,1,1.0,1.0,1.0,1.0,65.00
2021-04-20 08:37:20.418,0.6862364,0.8902617,0.91056573,0.47341332,0.26542118,0.38376766,0.46774253,0.23258641,0.4351016,0.6303378,0.6390053,0.6190901,0.3880092,0.12559383,0.05883917,0.34159118,0.13696799,-0.42274058,-0.43309423,5.246615E-4,784.10254,796.5934,804.2491,777.6557,655.56775,-0.33868408203125,0.01507568359375,0.94366455078125,4.194488525390625,-4.5159912109375,1.697235107421875,1,1.0,1.0,1.0,1.0,65.00
2021-04-20 08:37:20.925,0.37767375,0.4328436,0.448611,0.07827594,0.32417557,0.23742823,0.016189322,0.049419206,0.65962744,0.65290755,0.19600624,0.61228794,0.3953504,0.17347243,0.10695388,0.41628957,0.14420348,-0.42854238,-0.4551983,-0.008146452,793.7729,795.38464,804.65204,814.3223,786.1172,-0.3385009765625,0.01556396484375,0.94110107421875,5.435638427734375,-3.6187744140625,1.42059326171875,1,1.0,1.0,1.0,1.0,65.00
2021-04-20 08:37:21.438,0.46623722,0.39509606,0.3248177,0.49804237,0.35263452,0.18547837,-4.6782204E-4,0.12372137,0.66579443,0.65290755,0.19600624,0.7556868,0.37589937,0.1282164,0.077295415,0.39081174,0.09982439,-0.5826187,-0.41314113,-0.0026151545,792.5641,799.011,801.8315,803.8461,660.0,-0.35491943359375,0.02789306640625,0.935546875,5.57769775390625,-3.536529541015625,0.70281982421875,1,1.0,1.0,1.0,1.0,65.00
2021-04-20 08:37:21.972,0.5272723,0.4602665,0.6229915,0.8435152,0.3549257,0.32390836,0.07898155,0.54859793,0.6658916,0.6288882,0.26936036,0.69525826,0.2927881,0.075027436,0.12513708,0.26246065,-0.05062341,-0.53520554,-0.260242,0.09063187,793.7729,786.1172,812.71063,793.7729,712.381,-0.31268310546875,0.06146240234375,0.94989013671875,3.4991455078125,-6.639404296875,-2.64678955078125,1,1.0,1.0,1.0,1.0,65.00
2021-04-20 08:37:22.493,0.54431343,0.5090344,0.6959016,0.85186124,0.50136894,0.29162303,-0.042987768,0.6356193,0.8461953,0.35825205,0.2798976,0.8034391,0.30480778,-0.057757117,0.16357964,0.2962543,-0.019036459,-0.528958,-0.19474082,0.08716195,806.6667,805.8608,797.8022,815.9341,949.304,-0.32733154296875,0.07098388671875,0.9541015625,2.848663330078125,-5.45806884765625,4.77020263671875,1,1.0,1.0,1.0,1.0,65.00
2021-04-20 08:37:23.004,0.72768176,0.6305425,0.8590645,0.8485321,0.5606306,0.3201815,0.19554111,0.6914014,0.85420483,0.29751688,0.30296296,0.7570113,0.36879194,-0.01626432,0.17523897,0.3088514,0.14816703,-0.48107034,-0.16648966,0.068519674,806.6667,798.60803,813.5165,799.41394,701.0989,-0.30694580078125,0.05279541015625,0.952880859375,5.301055908203125,-4.957122802734375,2.811279296875,1,1.0,1.0,1.0,1.0,65.00
2021-04-20 08:37:23.559,0.77918375,0.5646361,0.73662233,0.69385755,0.54276264,0.20913534,0.24901094,0.48808256,0.85420483,0.11814239,0.31258768,0.8619164,0.43682098,0.037402358,0.21646819,0.5984867,0.3285093,-0.314853,-0.12847492,0.41602746,823.9927,796.5934,802.6374,813.1135,732.1245,-0.3065185546875,0.07940673828125,0.94451904296875,2.82623291015625,-3.6785888671875,2.175750732421875,1,1.0,1.0,1.0,1.0,65.00
2021-04-20 08:37:24.060,0.81664,0.43283305,0.5698472,0.6867532,0.27661544,0.09136022,0.295799,0.24449827,0.69536936,0.37377194,0.42787328,0.71386,0.505735,0.12550873,0.1736271,0.79017293,0.444055,-0.23506123,-0.06748153,0.6115572,795.38464,800.2198,799.41394,789.34064,720.0366,-0.31658935546875,0.0745849609375,0.94927978515625,6.138458251953125,-1.7047119140625,6.168365478515625,1,1.0,1.0,1.0,1.0,65.00
2021-04-20 08:37:24.601,0.71919656,0.6007014,0.7407578,0.6867532,0.08092707,0.18721436,0.44140372,0.24449827,0.46269968,0.3888846,0.52106833,0.71386,0.54284185,0.16608447,0.22231443,0.79017293,0.50520474,-0.22595736,-0.037511073,0.6115572,796.5934,789.34064,811.0989,799.81683,674.10254,-0.35791015625,0.03411865234375,0.9342041015625,1.7047119140625,-1.4654541015625,-1.682281494140625,1,1.0,1.0,1.0,1.0,60.00
2021-04-20 08:37:25.147,0.74300295,0.7719706,0.8729137,0.7092783,0.02454155,0.24218228,0.4653085,0.2668732,0.26418602,0.40473452,0.52106833,0.71386,0.56087404,0.1420763,0.22134407,0.80943906,0.5418242,-0.24417858,-0.058997903,0.5990087,812.71063,790.9524,801.02563,803.44324,778.0586,-0.36566162109375,0.02978515625,0.93243408203125,4.56085205078125,-2.7215576171875,0.58319091796875,1,1.0,1.0,1.0,1.0,60.00
2021-04-20 08:37:25.658,0.7672812,0.796484,0.9085345,0.72159326,0.012028103,0.26289192,0.46077898,0.2894119,0.19967942,0.40473452,0.52106833,0.71386,0.5769091,0.14708218,0.20604357,0.8208661,0.55047333,-0.26254028,-0.08011241,0.5793053,803.0403,788.1319,798.20514,813.5165,849.3773,-0.36798095703125,0.03131103515625,0.93511962890625,4.3963623046875,-3.701019287109375,1.308441162109375,1,1.0,1.0,1.0,1.0,60.00
2021-04-20 08:37:26.364,0.7672812,0.796484,0.9085345,0.72159326,0.012028103,0.26289192,0.46077898,0.2894119,0.19967942,0.40473452,0.52106833,0.71386,0.5769091,0.14708218,0.20604357,0.8208661,0.55047333,-0.26254028,-0.08011241,0.5793053,808.68134,790.9524,803.44324,802.6374,754.2857,-0.366943359375,0.03082275390625,0.92767333984375,4.38140869140625,-4.015045166015625,1.55517578125,1,1.0,1.0,1.0,1.0,60.00
2021-04-20 08:37:26.898,0.79893744,0.8205004,0.9301299,0.72932494,-0.018365107,0.28281903,0.44504416,0.31046796,0.13519391,0.40473452,0.52106833,0.7071168,0.5923247,0.1557079,0.19557692,0.82363576,0.5512424,-0.29550755,-0.09916774,0.57267517,794.57874,784.10254,807.0696,795.78754,689.011,-0.37652587890625,0.03076171875,0.93475341796875,4.1571044921875,-3.3795166015625,1.6448974609375,1,1.0,1.0,1.0,1.0,60.00
2021-04-20 08:37:27.441,0.79893744,0.8205004,0.9301299,0.72932494,-0.018365107,0.28281903,0.44504416,0.31046796,0.13519391,0.40473452,0.52106833,0.7071168,0.5923247,0.1557079,0.19557692,0.82363576,0.5512424,-0.29550755,-0.09916774,0.57267517,794.57874,784.10254,807.0696,795.78754,689.011,-0.37652587890625,0.03076171875,0.93475341796875,4.1571044921875,-3.3795166015625,1.6448974609375,1,1.0,1.0,1.0,1.0,60.00
2021-04-20 08:37:27.966,0.8357503,0.81905454,0.94010603,0.8317289,-0.052542336,0.28548688,0.42446405,0.30589217,0.078201525,0.40473452,0.52106833,0.73172104,0.59989375,0.15671824,0.19472726,0.8025883,0.5504827,-0.33331257,-0.1085972,0.5622664,809.89014,795.78754,803.0403,809.0842,713.5897,-0.3748779296875,0.02813720703125,0.92578125,3.90289306640625,-4.717864990234375,1.36077880859375,1,1.0,1.0,1.0,1.0,60.00
2021-04-20 08:37:28.489,0.8357503,0.81905454,0.94010603,0.8317289,-0.052542336,0.28548688,0.42446405,0.30589217,0.078201525,0.40473452,0.52106833,0.73172104,0.59989375,0.15671824,0.19472726,0.8025883,0.5504827,-0.33331257,-0.1085972,0.5622664,817.9487,793.36993,795.78754,804.2491,779.67035,-0.3741455078125,0.02911376953125,0.92401123046875,4.702911376953125,-5.4132080078125,1.039276123046875,1,1.0,1.0,1.0,1.0,60.00
2021-04-20 08:37:29.116,0.9499744,0.8017214,0.9527148,1.8256589,0.3357632,0.29069665,0.40431833,1.159822,0.45404616,0.40473452,0.52106833,1.370761,0.47995532,0.15031144,0.19571826,0.90907764,0.4038194,-0.39642212,-0.11378187,0.6313697,NaN,NaN,NaN,799.81683,NaN,-0.36822509765625,0.0347900390625,0.93133544921875,4.882354736328125,-6.69921875,2.07855224609375,1,1.0,1.0,1.0,1.0,60.00
2021-04-20 08:37:29.637,0.9499744,0.8017214,0.9527148,1.8256589,0.3357632,0.29069665,0.40431833,1.159822,0.45404616,0.40473452,0.52106833,1.370761,0.47995532,0.15031144,0.19571826,0.90907764,0.4038194,-0.39642212,-0.11378187,0.6313697,NaN,NaN,NaN,799.81683,NaN,-0.36822509765625,0.0347900390625,0.93133544921875,4.882354736328125,-6.69921875,2.07855224609375,1,1.0,1.0,1.0,1.0,60.00
2021-04-20 08:37:30.162,0.8947283,0.7935635,0.9540961,1.9045244,0.44818902,0.3022205,0.40359354,1.2748293,0.45396462,0.39949903,0.52106833,1.5080498,0.38394886,0.14085005,0.18818986,0.97231895,0.2754292,-0.410428,-0.123940155,0.65593946,810.293,804.2491,807.8755,NaN,807.0696,-0.365234375,0.02996826171875,0.93682861328125,4.358978271484375,-6.108551025390625,0.545806884765625,1,1.0,1.0,1.0,1.0,60.00
2021-04-20 08:37:30.670,1.4560477,2.776879,1.803495,3.4895115,1.0148816,1.8346095,1.0608174,2.5545225,1.4456316,2.4411895,1.50721,2.841636,0.65165716,1.3477424,0.65984243,2.03689,0.35764593,0.76100653,0.21742094,1.4375465,NaN,768.7912,NaN,NaN,735.34796,-0.365234375,0.02996826171875,0.93682861328125,4.358978271484375,-6.108551025390625,0.545806884765625,1,1.0,1.0,1.0,1.0,60.00
2021-04-20 08:37:31.174,3.6290138,2.9498062,2.0002863,3.765616,2.6675346,2.0019188,1.2472245,2.8221216,3.0100057,2.4411895,1.50721,3.0132742,2.1647193,1.5322777,0.8164897,2.3010297,1.5709075,0.92970455,0.37515566,1.6917689,NaN,NaN,NaN,NaN,NaN,-0.3575439453125,0.02325439453125,0.933837890625,4.403839111328125,-4.628143310546875,0.179443359375,1,1.0,1.0,1.0,1.0,60.00
2021-04-20 08:37:31.679,3.6879973,3.1044657,2.293005,3.917669,2.7241218,2.1553297,1.539709,2.9718022,3.0100057,2.4411895,1.50721,3.0132742,2.2233472,1.6830316,1.0656968,2.4494038,1.6250556,1.0779471,0.6136484,1.8375179,NaN,NaN,NaN,NaN,NaN,-0.3575439453125,0.02325439453125,0.933837890625,4.403839111328125,-4.628143310546875,0.179443359375,1,1.0,1.0,1.0,1.0,60.00
2021-04-20 08:37:32.251,3.837047,3.9189014,2.293005,4.0822067,3.1363168,3.2827013,1.539709,3.2306702,3.5769646,3.5630229,1.50721,3.568551,2.6023455,2.73216,1.0656968,2.6908717,2.0745752,2.2208605,0.6136484,2.1335518,NaN,NaN,NaN,NaN,NaN,-0.35137939453125,0.0257568359375,0.9339599609375,4.725341796875,-5.51788330078125,1.562652587890625,1,1.0,1.0,1.0,1.0,60.00
2021-04-20 08:37:32.762,4.048807,3.9189014,2.293005,4.1385283,3.247928,3.2827013,1.539709,3.249371,3.5769646,3.5630229,1.50721,3.568551,2.7108476,2.73216,1.0656968,2.7100863,2.1677585,2.2208605,0.6136484,2.157284,NaN,NaN,NaN,NaN,NaN,-0.35394287109375,0.02764892578125,0.93707275390625,4.65057373046875,-3.820648193359375,0.35888671875,1,4.0,1.0,1.0,1.0,60.00
2021-04-20 08:37:33.330,3.9581554,3.0417767,2.293005,3.9314744,3.3306336,3.0585222,1.539709,3.0905638,3.5772128,3.556752,1.50721,3.1000953,2.7980936,2.497294,1.0656968,2.558829,2.2839112,2.0437016,0.6136484,2.0147316,NaN,NaN,NaN,NaN,NaN,-0.35931396484375,0.0296630859375,0.9296875,5.241241455078125,-4.5159912109375,0.979461669921875,1,1.0,1.0,1.0,1.0,60.00
2021-04-20 08:37:33.931,4.026342,-Infinity,3.305551,3.9998963,3.0978887,-Infinity,2.7378879,3.4020631,3.1035068,-Infinity,3.2620687,3.5885725,2.6127875,-Infinity,2.1961954,2.8588052,2.0470595,-Infinity,1.7111256,2.350083,804.65204,794.17584,NaN,NaN,663.22345,-0.36138916015625,0.024658203125,0.931884765625,4.486083984375,-4.306640625,1.727142333984375,1,1.0,1.0,1.0,1.0,60.00
2021-04-20 08:37:34.446,4.069313,3.3438632,3.1552823,3.9998963,3.5523896,3.056987,2.761147,3.4020631,3.1364253,2.9067469,3.2620687,3.5885725,2.9158902,2.3907664,2.2284048,2.8588052,2.2003522,1.610257,1.7380201,2.350083,801.4286,792.96704,800.2198,803.44324,731.31866,-0.358642578125,0.0274658203125,0.9326171875,4.329071044921875,-4.463653564453125,0.829925537109375,1,1.0,1.0,1.0,1.0,60.00
2021-04-20 08:37:34.991,4.0660343,3.675396,3.1195679,3.9998963,3.5009358,3.25721,2.1656158,3.4020631,3.1364253,2.9359448,2.3786817,3.5885725,2.8721802,2.6012008,1.7295493,2.8588052,2.1677413,1.838967,1.0918789,2.350083,792.96704,784.90845,812.71063,796.99634,772.4176,-0.35479736328125,0.02581787109375,0.93621826171875,4.747772216796875,-4.972076416015625,0.79254150390625,1,1.0,1.0,1.0,1.0,60.00
2021-04-20 08:37:35.554,4.047321,3.6646798,2.5981605,3.9998963,3.0794058,3.2045028,1.7080868,3.4020631,2.9201891,2.9359448,1.8551369,3.5885725,2.555337,2.5507784,1.3497193,2.8588052,1.9785599,1.7933439,0.6531424,2.350083,NaN,NaN,805.05493,NaN,NaN,-0.34765625,0.02520751953125,0.9359130859375,4.65057373046875,-4.2169189453125,0.530853271484375,1,1.0,1.0,1.0,1.0,60.00
2021-04-20 08:37:36.087,4.047321,3.6646798,2.6152654,3.6232424,3.0794058,3.2045028,1.6999489,2.6201863,2.9201891,2.9359448,1.870564,2.8722792,2.555337,2.5507784,1.3396555,2.1211004,1.9785599,1.7933439,0.7520904,1.5388433,778.0586,776.4469,821.5751,786.52014,662.01465,-0.352294921875,0.0291748046875,0.9384765625,4.762725830078125,-4.7552490234375,-0.299072265625,1,1.0,1.0,1.0,1.0,60.00
2021-04-20 08:37:36.602,2.071291,3.6646798,2.3511586,3.224154,1.3686597,3.2045028,1.5134151,2.1782598,1.2309725,2.9359448,1.8639534,2.5377889,0.8701041,2.5507784,1.1501203,1.6894512,0.5605826,1.7933439,0.50532764,1.1506946,799.41394,803.0403,802.23444,795.38464,989.59705,-0.35357666015625,0.03082275390625,0.9346923828125,4.2767333984375,-4.747772216796875,1.727142333984375,1,1.0,1.0,1.0,1.0,60.00
2021-04-20 08:37:37.138,2.071291,3.6646798,2.3511586,1.4959091,1.3686597,3.2045028,1.5134151,1.0905596,1.2309725,2.9359448,1.8639534,1.5052392,0.8701041,2.5507784,1.1501203,0.55017465,0.5605826,1.7933439,0.50532764,0.43438768,810.293,800.6227,797.3993,800.2198,796.1905,-0.35382080078125,0.02972412109375,0.94073486328125,4.015045166015625,-6.05621337890625,2.100982666015625,1,1.0,1.0,1.0,1.0,60.00
2021-04-20 08:37:37.638,2.071291,3.6646798,2.3511586,1.4959091,1.3686597,3.2045028,1.5134151,1.0905596,1.2309725,2.9359448,1.8639534,1.5052392,0.8701041,2.5507784,1.1501203,0.55017465,0.5605826,1.7933439,0.50532764,0.43438768,794.17584,797.8022,796.1905,791.75824,789.7436,-0.3411865234375,0.0277099609375,0.9415283203125,4.17205810546875,-4.957122802734375,1.413116455078125,1,1.0,1.0,1.0,1.0,60.00
2021-04-20 08:37:38.151,1.9819865,3.6646798,2.4074583,1.4934957,1.3052436,3.2045028,1.5638602,1.0851259,1.2345448,2.9359448,1.8639534,1.5052392,0.8075638,2.5507784,1.2045621,0.5914087,0.5056311,1.7933439,0.5600337,0.43966147,802.23444,794.9817,804.2491,805.8608,685.38464,-0.343017578125,0.03009033203125,0.9349365234375,4.90478515625,-3.745880126953125,1.248626708984375,1,1.0,1.0,1.0,1.0,60.00
2021-04-20 08:37:38.666,1.9092652,3.6646798,2.3965783,1.4229624,1.2596256,3.2045028,1.546699,1.0188526,1.2345448,2.9359448,1.8626182,1.5053769,0.7658869,2.5507784,1.140638,0.5636806,0.4596805,1.7933439,0.54602814,0.40059984,812.3077,799.011,801.4286,817.9487,873.5531,-0.3553466796875,0.02996826171875,0.9412841796875,4.88983154296875,-4.0673828125,1.62994384765625,1,1.0,1.0,1.0,1.0,60.00
2021-04-20 08:37:39.182,1.9092652,3.6646798,2.3965783,1.4229624,1.2596256,3.2045028,1.546699,1.0188526,1.2345448,2.9359448,1.8626182,1.5053769,0.7658869,2.5507784,1.140638,0.5636806,0.4596805,1.7933439,0.54602814,0.40059984,812.3077,799.011,801.4286,817.9487,873.5531,-0.35748291015625,0.0299072265625,0.93621826171875,4.53094482421875,-4.41131591796875,1.33087158203125,1,1.0,1.0,1.0,1.0,60.00
2021-04-20 08:37:39.716,1.8475821,3.6646798,1.713537,1.3605169,1.2201339,3.2045028,1.2403318,0.9657747,1.2351983,2.9359448,1.4859027,1.5100238,0.7343287,2.5507784,0.7997758,0.5422445,0.41953713,1.7933439,0.2612744,0.36786473,813.5165,780.4762,823.9927,810.696,801.02563,-0.352783203125,0.03240966796875,0.93414306640625,5.06927490234375,-4.2767333984375,0.710296630859375,1,1.0,1.0,1.0,1.0,60.00
2021-04-20 08:37:40.220,1.8475821,3.6646798,1.713537,1.3605169,1.2201339,3.2045028,1.2403318,0.9657747,1.2351983,2.9359448,1.4859027,1.5100238,0.7343287,2.5507784,0.7997758,0.5422445,0.41953713,1.7933439,0.2612744,0.36786473,813.5165,780.4762,823.9927,810.696,801.02563,-0.352783203125,0.03240966796875,0.93414306640625,5.06927490234375,-4.2767333984375,0.710296630859375,1,1.0,1.0,1.0,1.0,60.00
2021-04-20 08:37:40.737,1.821822,3.6646798,1.6750177,1.3049085,1.211248,3.2045028,1.2034043,0.92323726,1.3758098,2.9359448,1.4859027,1.5146259,0.8570491,2.5507784,0.7498338,0.5273508,0.41643533,1.7933439,0.2176477,0.34236026,NaN,NaN,815.12823,811.50183,NaN,-0.352783203125,0.03240966796875,0.93414306640625,4.403839111328125,-4.702911376953125,1.7645263671875,1,1.0,1.0,1.0,1.0,60.00
2021-04-20 08:37:41.244,1.821822,3.6646798,1.6750177,1.3049085,1.211248,3.2045028,1.2034043,0.92323726,1.3758098,2.9359448,1.4859027,1.5146259,0.8570491,2.5507784,0.7498338,0.5273508,0.41643533,1.7933439,0.2176477,0.34236026,792.96704,794.57874,809.4872,NaN,869.5238,-0.35894775390625,0.03021240234375,0.93829345703125,4.403839111328125,-4.702911376953125,1.7645263671875,1,1.0,1.0,1.0,1.0,60.00
2021-04-20 08:37:41.765,1.8165032,3.6646798,1.6346874,0.6215132,1.2095189,3.2045028,1.1628306,0.28398997,1.3891517,2.9359448,1.4859027,0.8831784,0.83069956,2.5507784,0.70834124,0.36179197,0.34552443,1.7933439,0.17674415,0.28416225,792.96704,794.9817,811.50183,795.38464,686.5934,-0.35809326171875,0.02728271484375,0.93780517578125,4.47113037109375,-4.91973876953125,0.59814453125,1,1.0,1.0,1.0,1.0,60.00
2021-04-20 08:37:42.277,1.3028165,3.6646798,1.6615944,1.1052326,1.0003489,3.2045028,1.16485,0.6587991,1.505199,2.9359448,1.465634,1.4864225,0.80006284,2.5507784,0.72041976,0.58738106,0.33459753,1.7933439,0.1792556,0.4020778,794.17584,800.2198,798.60803,792.1612,879.59705,-0.34326171875,0.02593994140625,0.93743896484375,4.47113037109375,-4.91973876953125,0.59814453125,1,1.0,1.0,1.0,1.0,60.00
2021-04-20 08:37:42.793,1.3028165,3.6646798,1.6615944,1.1052326,1.0003489,3.2045028,1.16485,0.6587991,1.505199,2.9359448,1.465634,1.4864225,0.80006284,2.5507784,0.72041976,0.58738106,0.33459753,1.7933439,0.1792556,0.4020778,794.17584,800.2198,798.60803,792.1612,879.59705,-0.3499755859375,0.02313232421875,0.93817138671875,4.687957763671875,-4.837493896484375,0.35888671875,1,1.0,1.0,1.0,1.0,60.00
2021-04-20 08:37:43.336,1.3028165,3.6646798,1.7423862,1.1052326,1.0003489,3.2045028,1.2308059,0.6587991,1.505199,2.9359448,1.465634,1.4864225,0.80006284,2.5507784,0.6189559,0.58738106,0.33459753,1.7933439,0.21310548,0.4020778,NaN,NaN,NaN,NaN,NaN,-0.347412109375,0.0255126953125,0.9378662109375,5.09918212890625,-4.50103759765625,0.299072265625,1,1.0,1.0,1.0,1.0,60.00
2021-04-20 08:37:44.092,3.446753,3.6646798,1.4874272,2.542492,2.497056,3.2045028,1.036604,1.6217616,2.8753486,2.9359448,1.3299164,2.1161673,2.015506,2.5507784,0.52374727,1.2436098,1.4024278,1.7933439,0.11905587,0.72519493,NaN,NaN,NaN,NaN,NaN,-0.347412109375,0.0255126953125,0.9378662109375,5.09918212890625,-4.50103759765625,0.299072265625,1,1.0,1.0,1.0,1.0,60.00
2021-04-20 08:37:44.640,3.5885384,3.501174,3.5100155,3.2866623,2.631484,2.4471755,2.4632373,2.3658473,2.8753486,2.5900295,2.5805192,2.624539,2.1465995,1.9341837,1.9552794,1.8764746,1.53729,1.3522954,1.3817647,1.3045735,NaN,NaN,NaN,NaN,NaN,-0.34002685546875,0.02801513671875,0.9365234375,4.53094482421875,-4.88983154296875,0.76263427734375,1,1.0,1.0,1.0,1.0,60.00
2021-04-20 08:37:45.159,3.8402364,3.4289227,3.6625557,3.4032054,2.8800848,2.4213681,2.6354382,2.9569836,3.0034723,2.5900295,2.602547,3.5669217,2.378459,1.9142746,2.1313622,2.4098744,1.773089,1.3022574,1.5558468,1.9241453,816.7399,798.60803,796.1905,NaN,758.71796,-0.34002685546875,0.02801513671875,0.9365234375,4.91973876953125,-4.8150634765625,0.83740234375,1,1.0,1.0,1.0,4.0,60.00
2021-04-20 08:37:45.704,3.9718103,3.293466,3.6625557,3.3814425,3.410328,3.3241374,2.6354382,3.4108622,3.2346058,3.5760093,2.602547,3.5669217,2.7940989,2.7605422,2.1313622,2.8485289,2.1176882,2.3003306,1.5558468,2.3928342,NaN,NaN,NaN,NaN,NaN,-0.32940673828125,0.03228759765625,0.94647216796875,4.91973876953125,-4.8150634765625,0.83740234375,1,1.0,1.0,1.0,1.0,60.00
2021-04-20 08:37:46.225,3.8200243,2.8218286,3.6625557,3.3249555,3.3622928,2.786492,2.6354382,3.356068,3.5734484,3.1339054,2.602547,3.5842037,2.8134494,2.2330718,2.1313622,2.7923195,2.3114083,1.7716726,1.5558468,2.3117683,NaN,NaN,NaN,NaN,NaN,-0.339599609375,0.0279541015625,0.942626953125,4.42626953125,-4.673004150390625,0.291595458984375,1,4.0,1.0,1.0,1.0,60.00
2021-04-20 08:37:46.745,4.1802692,3.574213,3.2768555,4.2822523,3.2176938,2.867519,2.2108645,3.2498126,3.0640423,3.0753126,2.459647,3.0604508,2.6693878,2.3302307,1.7247285,2.762255,2.109607,1.8195603,1.1325754,2.1780646,804.2491,794.9817,801.02563,806.6667,764.7619,-0.33984375,0.02960205078125,0.94110107421875,4.568328857421875,-4.66552734375,0.9869384765625,1,1.0,1.0,1.0,1.0,60.00
2021-04-20 08:37:47.252,3.7647083,3.445671,3.0548646,3.6911151,2.8129556,2.453994,2.089056,2.6785653,2.9431975,2.4963927,2.3743541,2.6906853,2.2917013,1.9594353,1.6295104,2.141537,1.7013391,1.3593118,1.0396711,1.5875628,NaN,NaN,817.5458,NaN,NaN,-0.34063720703125,0.02801513671875,0.9393310546875,4.6954345703125,-4.3963623046875,1.143951416015625,1,1.0,1.0,1.0,1.0,60.00
2021-04-20 08:37:47.794,3.7647083,3.3033276,2.848413,3.6911151,2.8129556,2.3198647,1.9487034,2.6785653,2.9431975,2.4963927,2.3232017,2.6906853,2.2917013,1.8266935,1.5080725,2.141537,1.7013391,1.237569,0.9354282,1.5875628,810.696,791.3553,807.47253,816.337,823.5897,-0.3424072265625,0.0311279296875,0.944580078125,4.807586669921875,-5.061798095703125,0.396270751953125,1,1.0,1.0,1.0,1.0,60.00
2021-04-20 08:37:48.311,3.4576058,2.873314,2.7714477,3.2844021,2.5228915,1.9877081,1.8571421,2.2597194,2.7052772,2.3168502,2.3884687,2.378364,1.9805,1.5244447,1.4477009,1.7818645,1.3812557,0.9551141,0.86885476,1.2370212,828.4249,805.05493,800.2198,NaN,966.2271,-0.35687255859375,0.03741455078125,0.9395751953125,4.732818603515625,-3.99261474609375,0.8074951171875,1,1.0,1.0,1.0,1.0,60.00
2021-04-20 08:37:48.812,3.4576058,2.4805048,2.7665274,3.2844021,2.5228915,1.5655314,1.81905,2.2597194,2.7052772,2.0185068,2.3884687,2.378364,1.9805,1.1571141,1.4021152,1.7818645,1.3812557,0.576294,0.8327006,1.2370212,813.5165,804.65204,802.23444,801.4286,747.03296,-0.36431884765625,0.06146240234375,0.93157958984375,3.70849609375,-4.538421630859375,-0.426177978515625,1,1.0,1.0,1.0,1.0,60.00
2021-04-20 08:37:49.355,3.4576058,0.25440395,2.7844777,3.2844021,2.5228915,-0.068188,1.8225583,2.2597194,2.7052772,0.16058865,2.3884687,2.378364,1.9805,-0.41478968,1.3856843,1.7818645,1.3812557,-0.6688189,0.8306021,1.2370212,786.1172,804.65204,793.7729,792.96704,755.4945,-0.384033203125,0.03936767578125,0.92425537109375,3.46923828125,-1.308441162109375,-1.9439697265625,1,1.0,1.0,1.0,1.0,60.00
2021-04-20 08:37:49.879,3.4576058,0.7713065,1.7897828,3.2844021,2.5228915,0.19778487,0.9984412,2.2597194,2.7052772,0.17900631,1.4402251,2.378364,1.9805,-0.2020446,0.60832334,1.7818645,1.3812557,-0.5390459,0.19717199,1.2370212,806.26373,795.38464,805.8608,804.2491,624.94507,-0.36846923828125,0.02947998046875,0.93115234375,4.38140869140625,-6.35528564453125,1.12152099609375,1,2.0,1.0,1.0,2.0,60.00
2021-04-20 08:37:50.422,3.4576058,0.7225546,0.49091288,3.2844021,2.5228915,0.20095076,0.1489376,2.2597194,2.7052772,0.2205235,0.23087424,2.378364,1.9805,-0.04721643,0.110999,1.7818645,1.3812557,-0.36046284,-0.23005404,1.2370212,815.5311,796.1905,798.60803,810.696,817.1429,-0.371337890625,0.0283203125,0.9351806640625,4.777679443359375,-5.196380615234375,1.31591796875,1,2.0,1.0,1.0,2.0,60.00
2021-04-20 08:37:50.962,0.15556456,0.6548877,0.41110146,0.5157001,-0.2961197,0.10347514,0.109592296,0.1550907,0.30635762,0.206245,0.22053033,0.30324477,0.40224394,-0.057901368,0.052473612,0.3427991,0.029808009,-0.34497634,-0.2773568,0.1360531,772.4176,797.3993,806.6667,778.0586,814.7253,-0.35516357421875,0.02734375,0.93060302734375,4.015045166015625,-5.301055908203125,0.91217041015625,1,1.0,1.0,1.0,1.0,60.00
2021-04-20 08:37:51.471,0.25634944,0.22778128,0.20943353,0.5197248,-0.34897822,-0.11632372,-0.2551414,0.16221574,0.3643005,0.25965327,0.20329496,0.3784738,0.43279603,-0.016898634,-0.10698242,0.3868721,0.033657566,-0.31806517,-0.325865,0.13198112,751.4652,786.1172,825.6044,757.50916,811.9048,-0.35809326171875,0.0234375,0.93438720703125,4.687957763671875,-5.510406494140625,1.21124267578125,1,1.0,1.0,1.0,1.0,60.00
2021-04-20 08:37:51.986,0.29301283,0.7835128,0.8062512,0.5197248,-0.4204536,0.1827847,-0.017988406,0.16221574,0.29057547,0.4188169,0.33344036,0.3784738,0.41845256,-0.016058967,-0.17944822,0.3868721,0.03350369,-0.37997487,-0.29954338,0.13198112,810.696,805.05493,810.293,809.0842,658.3883,-0.35650634765625,0.0303955078125,0.9405517578125,4.6356201171875,-5.271148681640625,1.7047119140625,1,1.0,1.0,1.0,1.0,60.00
2021-04-20 08:37:52.498,0.33487645,1.0066855,1.1043586,0.5166018,-0.52206457,0.26831448,0.1590144,0.21732087,0.26466274,0.43115446,0.38226894,0.3784738,0.41072798,0.077280805,-0.16088736,0.442149,0.032934126,-0.3415153,-0.28915367,0.1541678,798.20514,799.011,807.8755,790.54944,792.5641,-0.35577392578125,0.03070068359375,0.9388427734375,4.448699951171875,-5.06927490234375,1.742095947265625,1,1.0,1.0,1.0,1.0,60.00
2021-04-20 08:37:53.019,0.530955,0.9936868,1.0815393,0.5311038,0.34717962,0.26800779,0.13843995,0.5749077,0.3219992,0.53498745,0.35881004,0.59976417,0.41724578,0.07546643,-0.026055222,0.5286126,-0.107924454,-0.38480005,-0.27439332,0.18335415,812.71063,789.7436,812.71063,815.12823,851.79486,-0.34893798828125,0.033203125,0.94415283203125,4.732818603515625,-5.809478759765625,0.67291259765625,1,1.0,1.0,1.0,1.0,60.00
2021-04-20 08:37:53.527,0.58628,0.68739045,0.8404695,0.4923541,0.6400946,-0.012344486,-0.069415614,0.47010466,1.1255131,0.45734483,0.3378543,0.7236679,0.3940259,0.025776075,0.017237088,0.49096423,0.1884152,-0.37147343,-0.34123453,0.13590819,802.6374,790.9524,815.12823,816.7399,876.3736,-0.35107421875,0.0313720703125,0.93560791015625,4.56085205078125,-4.702911376953125,1.069183349609375,1,1.0,1.0,1.0,1.0,60.00
2021-04-20 08:37:54.058,0.5777557,0.2881062,0.40711033,0.4584155,0.66102684,0.113032155,-0.07993255,0.4455454,1.1505879,0.6511528,0.30710983,0.82585686,0.45541024,-0.041023854,0.11363471,0.52169645,0.14294073,-0.45543265,-0.31830367,0.11061391,797.8022,790.14655,799.011,809.0842,743.4066,-0.3486328125,0.0281982421875,0.93975830078125,4.66552734375,-4.68048095703125,1.114044189453125,1,1.0,1.0,1.0,1.0,60.00
2021-04-20 08:37:54.578,0.6540431,0.80298376,0.8586925,0.62686706,0.62088317,0.4289806,0.2759273,0.32882988,1.1618645,0.82213885,0.43393648,0.81000876,0.44519508,-0.12998284,0.064896114,0.49626443,0.18864742,-0.4684114,-0.22391847,0.09998993,806.26373,807.0696,817.9487,803.8461,525.42126,-0.34991455078125,0.030517578125,0.93670654296875,4.807586669921875,-4.732818603515625,1.502838134765625,1,1.0,1.0,1.0,1.0,60.00
2021-04-20 08:37:55.088,0.57146746,0.83043414,0.8785645,0.62078345,0.40255338,0.44266087,0.31977963,0.26986524,1.1253318,0.82193685,0.4529319,0.7845606,0.43299967,-0.1404285,0.06418227,0.53510386,0.117086045,-0.50047415,-0.18989235,0.1955016,814.3223,797.3993,800.6227,804.2491,707.5458,-0.35986328125,0.0301513671875,0.93731689453125,4.62066650390625,-4.17205810546875,0.859832763671875,1,1.0,1.0,1.0,1.0,60.00
2021-04-20 08:37:55.628,0.4806041,0.78037924,0.751964,0.5897842,0.21905462,0.39573488,0.23741835,0.24463364,0.85200244,0.82320786,0.45330837,0.81803334,0.2948824,-0.11620313,0.004649278,0.46783483,0.07931382,-0.5177779,-0.15000603,0.2166721,813.1135,802.23444,806.6667,815.9341,807.47253,-0.35687255859375,0.03076171875,0.935546875,4.366455078125,-4.11224365234375,1.263580322265625,1,1.0,1.0,1.0,1.0,65.00
2021-04-20 08:37:56.152,0.15126279,0.2129224,0.0025502613,0.24993297,0.30057618,0.057027932,-0.072484024,0.23498923,0.70626074,0.4101834,0.28607404,0.7358901,0.23562227,0.051609527,0.015451881,0.46863508,-0.021554913,-0.4787781,-0.2383475,0.18849078,808.68134,798.60803,805.4579,805.8608,733.3333,-0.34722900390625,0.02935791015625,0.93359375,4.418792724609375,-4.6954345703125,0.441131591796875,1,1.0,1.0,1.0,1.0,65.00
2021-04-20 08:37:56.670,-0.013318427,0.065543205,-0.17753544,0.003489456,0.34896374,0.04291436,-0.08630709,0.13681723,0.6535394,0.30625856,0.29585508,0.76499623,0.21005918,0.19455166,0.08302054,0.38121492,-0.09672448,-0.42555487,-0.2939755,0.022319349,809.0842,795.78754,811.50183,814.7253,768.3883,-0.35333251953125,0.02630615234375,0.935791015625,4.314117431640625,-4.598236083984375,1.278533935546875,1,1.0,1.0,1.0,1.0,65.00
2021-04-20 08:37:57.189,0.35759085,-3.325654E-4,-0.13437131,-0.045498878,0.37919825,-0.028787067,-0.11294557,0.04491927,0.71572727,0.2626691,0.2937967,0.659093,0.25927588,0.15127915,0.13636015,0.382828,-0.059440583,-0.40844473,-0.33997276,4.106065E-4,809.89014,794.17584,801.8315,802.6374,693.44324,-0.35455322265625,0.03057861328125,0.93975830078125,4.493560791015625,-4.5758056640625,1.33087158203125,1,1.0,1.0,1.0,1.0,65.00
2021-04-20 08:37:57.729,0.6961417,0.014873751,-0.050107755,-0.23672381,0.492821,-0.033307664,-0.35400772,-0.090941295,0.7399295,0.19326489,0.12704481,0.53617543,0.29480517,0.008788592,0.11477201,0.36663938,0.0010815487,-0.42725667,-0.32643032,-0.045426168,800.2198,794.17584,792.5641,812.71063,888.86444,-0.35504150390625,0.02734375,0.934326171875,4.5758056640625,-3.8580322265625,1.1962890625,1,1.0,1.0,1.0,1.0,65.00
2021-04-20 08:37:58.280,0.87669694,-0.004342746,0.3906143,0.7368315,0.5480944,-0.09142777,-0.35224968,0.49373713,0.8539696,0.24951178,-0.106330566,0.5640298,0.3343015,-0.139135,0.07551038,0.32013875,0.019844607,-0.42231533,-0.33737716,0.11565659,784.10254,788.5348,807.0696,782.49084,649.92676,-0.35504150390625,0.02899169921875,0.936279296875,4.44122314453125,-4.553375244140625,1.278533935546875,1,1.0,1.0,1.0,1.0,65.00
2021-04-20 08:37:58.790,0.79677296,-0.070875734,0.45482066,0.69904345,0.55007833,0.0059138546,-0.19623668,0.6613332,0.86792433,0.27762222,0.061119877,0.6535068,0.3305648,-0.037627123,0.040812057,0.32525232,0.10254848,-0.37133995,-0.2630879,0.033949807,791.75824,795.78754,809.4872,792.1612,754.2857,-0.35565185546875,0.02752685546875,0.93487548828125,4.523468017578125,-4.5458984375,0.844879150390625,1,1.0,1.0,1.0,1.0,65.00
2021-04-20 08:37:59.300,0.74024254,0.081632055,0.55941063,0.69904345,0.52610576,0.0977777,-0.10452182,0.6613332,0.78192914,0.35280597,0.08204646,0.6535068,0.3308679,0.036970828,0.09291049,0.32525232,0.1313805,-0.3483954,-0.16821565,0.033949807,805.05493,799.81683,811.0989,808.2784,784.90845,-0.35626220703125,0.02593994140625,0.937255859375,4.717864990234375,-3.828125,1.099090576171875,1,1.0,1.0,1.0,1.0,65.00
2021-04-20 08:37:59.836,0.76093245,0.32928854,0.49497703,0.6466563,0.6365477,0.22268221,-0.114324465,0.807525,0.6135457,0.31888324,0.16644911,0.5791081,0.33526766,0.07743865,0.06273182,0.33156076,0.1700898,-0.37892067,-0.10772141,-0.0960845,792.5641,800.6227,799.011,796.99634,707.5458,-0.3555908203125,0.02764892578125,0.93182373046875,4.68048095703125,-4.20196533203125,0.829925537109375,1,1.0,1.0,1.0,1.0,65.00
2021-04-20 08:38:00.372,0.3897233,0.4552168,0.58706385,0.6571252,0.1196688,0.33121914,0.12130101,0.45016077,0.46567866,0.41393948,0.18047933,0.5697637,0.24022584,0.028527457,0.033360746,0.19355026,-0.11825925,-0.3829376,-0.13807897,-0.26724163,810.696,793.36993,811.50183,800.2198,779.2674,-0.36273193359375,0.0284423828125,0.93231201171875,5.21881103515625,-3.93280029296875,1.495361328125,1,1.0,1.0,1.0,1.0,65.00
2021-04-20 08:38:00.889,0.49305516,0.42500243,0.4365668,0.5632669,0.123789884,0.34848934,0.18082437,0.3926899,0.5146604,0.3699043,0.12010779,0.6285598,0.19118561,0.03180673,0.020927466,0.24287087,-0.040650293,-0.3538732,-0.2610876,-0.15320942,803.44324,801.02563,802.23444,809.0842,763.1502,-0.35546875,0.03399658203125,0.9361572265625,5.674896240234375,-4.1571044921875,0.88226318359375,1,1.0,1.0,1.0,1.0,65.00
2021-04-20 08:38:01.434,0.73698044,0.2695509,0.30572164,0.69415736,0.15633865,0.28469014,0.18472184,0.27842537,0.5251978,0.4715267,0.15504633,0.7165289,0.14736082,0.09915152,0.042403355,0.28967288,-0.061644357,-0.35287893,-0.24007353,-0.12662242,815.5311,795.38464,796.1905,813.1135,718.4249,-0.38800048828125,0.0423583984375,0.92474365234375,4.448699951171875,-0.9271240234375,2.3028564453125,1,1.0,1.0,1.0,1.0,65.00
2021-04-20 08:38:01.942,1.0101656,0.22977552,-0.03878483,0.8027184,0.3780406,0.19777352,-0.010205244,0.13922775,0.4594738,0.53950787,0.13261436,0.6820558,0.15982074,0.13483596,0.12469687,0.33201572,0.03756097,-0.3570398,-0.18049106,0.00188211,808.2784,798.60803,809.0842,810.293,799.81683,-0.38140869140625,0.04815673828125,0.9215087890625,4.852447509765625,-6.759033203125,1.435546875,1,1.0,1.0,1.0,1.0,65.00
2021-04-20 08:38:02.461,1.0863936,0.27284458,0.086210534,0.9327673,0.5783162,0.25230634,-0.0461733,0.3995206,0.55877405,0.5800648,0.13330562,0.60060346,0.22870141,0.08518563,0.14797485,0.40248916,0.02058598,-0.40125078,-0.12453535,0.14941554,806.6667,787.72894,800.2198,810.293,713.9927,-0.37689208984375,0.04095458984375,0.9249267578125,4.1571044921875,-4.2767333984375,0.590667724609375,1,1.0,1.0,1.0,1.0,65.00
2021-04-20 08:38:02.988,0.9159582,0.31210688,0.22387996,0.74435043,0.52253133,0.2501674,-0.06315143,0.3912288,0.56250733,0.5394518,0.086479485,0.5470817,0.36248535,0.111144856,0.1469637,0.44666952,0.025845608,-0.39329764,-0.07978308,0.2573871,797.8022,781.28204,797.8022,799.41394,979.12085,-0.37225341796875,0.04638671875,0.92913818359375,4.658050537109375,-4.0374755859375,1.024322509765625,1,1.0,1.0,1.0,1.0,65.00
2021-04-20 08:38:03.509,0.8223253,0.1780854,0.2837546,0.83338535,0.41595432,0.17836687,-0.04624867,0.35475436,0.5896439,0.38420337,0.09593795,0.73337257,0.35704377,0.029208813,0.13374342,0.50429994,-0.057222303,-0.412965,-0.1559515,0.22486769,787.72894,799.011,799.41394,790.9524,804.65204,-0.38580322265625,0.0528564453125,0.9237060546875,6.1907958984375,-5.084228515625,1.592559814453125,1,1.0,1.0,1.0,1.0,65.00
2021-04-20 08:38:04.038,0.64704597,0.10258236,0.1761267,0.8777402,0.055012085,-0.039294466,-0.14009026,0.1132367,0.65049464,0.43255055,0.267693,0.7047023,0.4021272,0.0683346,0.18717727,0.55511713,-0.0052698534,-0.38392326,-0.18033537,0.21696018,800.2198,799.011,801.02563,800.2198,819.9634,-0.39801025390625,0.05596923828125,0.91571044921875,4.269256591796875,-3.895416259765625,0.725250244140625,1,1.0,1.0,1.0,1.0,65.00
2021-04-20 08:38:04.553,0.60509574,-0.10773018,-0.040968847,0.92319375,0.22387719,-0.16729791,-0.07929696,0.3099878,0.6377438,0.2993662,0.267693,0.72008866,0.46027368,-0.057230398,0.14241476,0.53222805,4.976462E-4,-0.4790846,-0.24537908,0.12657697,800.2198,805.8608,809.89014,792.1612,835.6777,-0.394287109375,0.04083251953125,0.91925048828125,3.222503662109375,-4.35150146484375,-1.2860107421875,1,1.0,1.0,1.0,1.0,65.00
2021-04-20 08:38:05.060,0.45091984,0.24831569,-0.27969918,0.42341053,0.42530242,-0.04581579,-0.1731627,0.31213853,0.81238616,0.45379,0.23233308,0.5255093,0.4562553,0.026177362,0.012210797,0.19653404,0.041281752,-0.55872613,-0.2266448,0.032115716,806.26373,803.8461,814.7253,805.05493,702.3077,-0.3878173828125,0.02923583984375,0.9171142578125,4.97955322265625,-4.598236083984375,2.0635986328125,1,1.0,1.0,1.0,1.0,65.00
2021-04-20 08:38:05.597,0.9241371,0.8597328,0.5801622,1.0267681,0.6662408,0.33334723,0.33538735,0.61494523,1.0041656,0.4997458,0.37892523,0.9597644,0.3994578,0.04895234,-0.031631213,0.33272576,0.051127285,-0.5475733,-0.24476583,0.11102642,811.0989,805.8608,805.4579,814.7253,825.2015,-0.3822021484375,0.032470703125,0.9249267578125,4.762725830078125,-6.886138916015625,0.979461669921875,1,1.0,1.0,1.0,1.0,65.00
2021-04-20 08:38:06.124,1.0719099,0.91896766,0.8129016,1.1515813,0.744348,0.49877524,0.41210476,0.6733244,0.98054934,0.49544942,0.37951285,0.9597644,0.31226924,0.068416856,0.014884546,0.34317714,0.09811241,-0.4401001,-0.2842359,0.1374069,811.0989,801.4286,799.81683,807.8755,861.8681,-0.38201904296875,0.0343017578125,0.92401123046875,4.643096923828125,-5.57769775390625,-0.441131591796875,1,1.0,1.0,1.0,1.0,65.00
2021-04-20 08:38:06.670,1.093899,0.86520314,0.813524,1.2166735,0.69458526,0.50632674,0.4119772,0.71435785,0.98162836,0.40814313,0.43683732,0.965303,0.33789003,0.025603993,0.028409526,0.4793272,0.042951558,-0.3989602,-0.26582876,0.14653124,809.0842,790.14655,805.05493,805.8608,752.27106,-0.36968994140625,0.02557373046875,0.93243408203125,4.8150634765625,-5.27862548828125,0.478515625,1,1.0,1.0,1.0,1.0,65.00
2021-04-20 08:38:07.212,0.0060212966,0.30006677,0.31923538,0.20567422,-0.28278506,0.290099,-0.04095074,-0.23420043,0.45357475,0.03364876,0.3265266,0.4175841,0.31292385,0.062605724,-0.0033016785,0.36080933,-0.17990553,-0.47694004,-0.22646232,0.19930468,801.02563,801.4286,805.05493,809.89014,925.12823,-0.36895751953125,0.0294189453125,0.93194580078125,4.9945068359375,-5.5328369140625,1.457977294921875,1,1.0,1.0,1.0,1.0,65.00
2021-04-20 08:38:07.748,0.14090173,0.38635528,0.11987796,0.22150263,-0.07087999,0.11461438,-0.032177534,-0.20289719,0.54028684,0.41580293,0.23460269,0.49423003,0.3357427,0.16403994,0.075796545,0.3625456,-0.11381504,-0.5141465,-0.26200622,0.22570601,776.04395,782.49084,823.1868,775.64105,747.03296,-0.36114501953125,0.036865234375,0.92919921875,5.061798095703125,-4.5458984375,1.607513427734375,1,1.0,1.0,1.0,1.0,65.00
2021-04-20 08:38:08.264,0.90395164,0.59181213,0.36475024,1.0036864,0.43132493,0.2605393,0.16343267,0.43852606,0.95865697,0.50719863,0.16571796,0.98074037,0.3832823,0.20479858,0.15643138,0.38469088,0.015212583,-0.5592873,-0.26470387,0.19778107,818.3516,793.36993,800.6227,828.8278,752.27106,-0.353515625,0.0343017578125,0.93414306640625,3.69354248046875,-4.41131591796875,0.7476806640625,1,1.0,1.0,1.0,1.0,65.00
2021-04-20 08:38:08.781,1.138702,0.79578817,0.39954486,1.2150005,0.64427656,0.2442513,0.329141,0.64263487,0.9584302,0.5377388,0.1267416,0.98074037,0.45963985,0.17263067,0.1416348,0.4344616,0.1235582,-0.49212536,-0.2967913,0.107673824,800.6227,789.7436,810.293,801.4286,743.8095,-0.35699462890625,0.03912353515625,0.93572998046875,4.66552734375,-3.828125,1.6448974609375,1,1.0,1.0,1.0,1.0,65.00
2021-04-20 08:38:09.284,1.2933828,0.95347875,0.4542759,1.4365958,0.76161677,0.29072246,0.3917446,0.8523197,0.9546408,0.4853629,0.3644368,0.98074037,0.5018796,0.07887715,0.13238849,0.47855,0.16911672,-0.40134954,-0.2469944,-0.120277755,818.3516,762.74725,832.8571,832.0513,735.7509,-0.35687255859375,0.0389404296875,0.93634033203125,4.344024658203125,-3.81317138671875,1.368255615234375,1,1.0,1.0,1.0,1.0,65.00
2021-04-20 08:38:09.804,1.2933828,1.1096221,0.7851944,1.4365958,0.76161677,0.5691748,0.5165441,0.8523197,0.9546408,0.44974428,0.50195533,0.98074037,0.5018796,0.10408727,0.12353003,0.47855,0.16911672,-0.32962218,-0.25565872,-0.120277755,812.71063,787.326,812.3077,820.3663,778.0586,-0.36456298828125,0.03900146484375,0.93316650390625,4.523468017578125,-4.493560791015625,0.897216796875,1,1.0,1.0,1.0,1.0,65.00
2021-04-20 08:38:10.340,1.2933828,1.0830392,0.87140304,1.4365958,0.76161677,0.64037627,0.39518067,0.8523197,0.9546408,0.4640954,0.5399441,0.98074037,0.5018796,0.07208437,0.14278722,0.47855,0.16911672,-0.30172172,-0.28652936,-0.120277755,802.6374,792.5641,812.71063,798.60803,701.50183,-0.3695068359375,0.03692626953125,0.93231201171875,4.553375244140625,-3.7384033203125,1.054229736328125,1,1.0,1.0,1.0,1.0,65.00
2021-04-20 08:38:10.875,1.2933828,1.1108361,0.87138647,0.87464356,0.76161677,0.71822214,0.53787786,0.37661988,0.9546408,0.5352261,0.5485162,0.11432415,0.5018796,0.08470857,0.1994522,0.2520613,0.16911672,-0.35437232,-0.301957,-0.00472068,824.7985,797.8022,804.2491,822.7839,986.3736,-0.37030029296875,0.03485107421875,0.92767333984375,4.68048095703125,-3.656158447265625,0.85235595703125,1,1.0,1.0,1.0,1.0,65.00
2021-04-20 08:38:11.394,1.0413952,0.992963,0.5949011,0.9826254,0.49218518,0.558227,0.3720914,0.31476653,0.61789286,0.5292177,0.47676936,0.42458865,0.13547124,0.01573803,0.18316907,0.27948838,-0.09953914,-0.41537973,-0.3343228,0.1229649,788.93774,790.54944,812.71063,801.8315,747.8388,-0.37750244140625,0.0386962890625,0.92822265625,4.605712890625,-4.643096923828125,1.03179931640625,1,1.0,1.0,1.0,1.0,65.00
2021-04-20 08:38:11.938,0.80985606,0.98619443,0.48170573,0.8496351,0.3503959,0.5877442,0.34364825,0.180666,0.65034306,0.51100904,0.4658248,0.42458865,0.089712024,-0.03585304,0.20475017,0.255135,-0.124005735,-0.5000084,-0.37132442,0.1079645,805.4579,796.1905,807.8755,811.9048,731.7216,-0.379150390625,0.04168701171875,0.92913818359375,4.5458984375,-4.388885498046875,1.1663818359375,1,1.0,1.0,1.0,1.0,65.00
2021-04-20 08:38:12.443,0.6092884,0.74397695,0.2251739,0.7193903,0.22060807,0.34352946,-0.41779447,0.043635163,0.8262407,0.4233156,0.097013414,0.41777825,0.17877366,-0.09103025,0.11273207,0.24626268,-0.11730186,-0.505405,-0.34979206,0.14092623,808.2784,803.0403,806.6667,813.1135,776.8498,-0.377685546875,0.03662109375,0.9295654296875,4.6954345703125,-3.850555419921875,0.829925537109375,1,1.0,1.0,1.0,1.0,65.00
2021-04-20 08:38:12.980,-0.12548906,0.5352396,0.006039406,0.21632475,0.033743653,0.25792408,-0.4260603,0.054470025,0.7982147,0.22990698,0.073831186,0.3538151,0.3092337,0.020935683,0.08195567,0.3226955,-0.018523071,-0.5021768,-0.40601528,0.047088746,815.5311,793.36993,806.26373,815.9341,701.50183,-0.3828125,0.03680419921875,0.92572021484375,4.725341796875,-4.687957763671875,1.55517578125,1,1.0,1.0,1.0,1.0,65.00
2021-04-20 08:38:13.493,0.500893,0.31751505,0.16109286,0.6376244,0.23969786,0.057326663,0.039287675,0.19917333,0.9010568,0.2693091,0.063947275,0.66661906,0.48793837,0.06979278,0.047360554,0.41426337,0.05355037,-0.5081746,-0.42290288,-0.010993046,797.8022,796.1905,801.4286,796.5934,743.4066,-0.3758544921875,0.04364013671875,0.927490234375,4.493560791015625,-4.05242919921875,1.188812255859375,1,1.0,1.0,1.0,1.0,65.00
2021-04-20 08:38:14.034,0.6142249,0.31703645,0.14370465,0.7411924,0.29691282,0.07332075,0.07718831,0.24174513,0.7754902,0.29886094,0.049874634,0.709551,0.45863098,0.04719484,-0.032298908,0.43072295,0.034030084,-0.48529476,-0.4317681,-0.059722602,796.1905,798.20514,815.5311,794.9817,807.0696,-0.3782958984375,0.038330078125,0.92962646484375,4.5159912109375,-4.194488525390625,1.09161376953125,1,1.0,1.0,1.0,1.0,65.00
2021-04-20 08:38:14.567,0.61097354,0.2792035,0.19065028,0.70953393,0.35052302,0.24068415,0.07682324,0.19319525,0.84831786,0.28952336,0.07490971,0.73592395,0.37909985,0.010449717,0.01956416,0.29757878,0.04011704,-0.49153748,-0.39966157,0.006032656,814.3223,803.8461,803.0403,813.91943,801.02563,-0.37884521484375,0.04266357421875,0.92633056640625,4.463653564453125,-5.93658447265625,1.278533935546875,1,1.0,1.0,1.0,1.0,65.00
2021-04-20 08:38:15.083,0.390103,0.24623764,6.0554995E-4,0.17543831,0.15119046,0.29616833,-0.28463334,0.08508876,0.7114089,0.28165764,0.05753484,0.48196158,0.13294546,0.08646699,0.09229397,0.18942706,-0.022970572,-0.46915615,-0.40342945,-0.004788059,783.69965,792.1612,808.68134,797.3993,801.4286,-0.378173828125,0.0379638671875,0.9246826171875,4.613189697265625,-4.88983154296875,1.517791748046875,1,1.0,1.0,1.0,1.0,65.00
2021-04-20 08:38:15.597,0.30790833,0.013584387,-0.15544577,0.103134565,0.16925722,0.25579438,-0.4056254,0.034009993,0.6068161,0.2285075,0.05805156,0.51845527,0.14684422,0.12688379,0.10318165,0.2068015,0.08386239,-0.51480186,-0.47992998,-0.008088206,803.8461,794.57874,815.9341,801.4286,720.0366,-0.3739013671875,0.043701171875,0.92877197265625,4.613189697265625,-4.658050537109375,1.413116455078125,1,1.0,1.0,1.0,1.0,65.00
2021-04-20 08:38:16.133,0.2844395,0.21564773,-0.34092087,0.10571975,0.15619367,0.1679017,-0.45906484,0.055180274,0.6159184,0.2964328,0.047002926,0.5000666,0.26201308,0.076368146,0.029330505,0.20597225,0.083404705,-0.44087663,-0.47192785,-0.057049066,804.2491,801.4286,805.05493,811.0989,963.8095,-0.36865234375,0.0399169921875,0.9281005859375,4.224395751953125,-3.70849609375,1.368255615234375,1,1.0,1.0,1.0,1.0,65.00
2021-04-20 08:38:16.678,0.18408795,0.12176099,-0.17695542,0.19581349,0.20895089,0.06093067,-0.31488496,0.10626295,0.46372524,0.33231425,-0.0014401485,0.38339788,0.24895903,0.011643529,-0.06842022,0.18871054,0.06305416,-0.42289072,-0.37847215,-0.12157041,800.2198,798.20514,811.0989,792.1612,781.685,-0.370849609375,0.03607177734375,0.93280029296875,4.6356201171875,-5.136566162109375,1.173858642578125,1,1.0,1.0,1.0,1.0,65.00
2021-04-20 08:38:17.221,0.15305844,0.083958104,0.044911966,0.27221048,0.118613966,-0.0015671342,0.0015644022,0.12668867,0.45060885,0.29207817,0.023022486,0.30432907,0.13008118,-0.024774833,-0.023813749,0.225688,-0.051286638,-0.40922964,-0.31007108,-0.16646127,805.8608,799.41394,803.0403,799.81683,788.5348,-0.36724853515625,0.0394287109375,0.92919921875,4.867401123046875,-4.044952392578125,1.233673095703125,1,1.0,1.0,1.0,1.0,65.00
2021-04-20 08:38:17.779,0.21473889,0.49244967,0.2938311,0.501198,0.19194382,0.03252595,0.1927103,0.23999068,0.34661108,0.3990497,0.17925383,0.2864439,-0.00513409,0.06967023,-0.019961892,0.26340526,-0.07278682,-0.55992395,-0.3579801,-0.12318401,771.6117,799.81683,802.23444,776.04395,744.21246,-0.36968994140625,0.04034423828125,0.9298095703125,4.78515625,-4.56085205078125,1.016845703125,1,1.0,1.0,1.0,1.0,65.00
2021-04-20 08:38:18.296,0.1773664,0.6511083,0.3443333,0.6008412,0.14505896,0.12549645,0.2947645,0.31288704,0.014441692,0.37470865,0.22271506,0.2642316,0.022630809,0.081250265,-0.03727662,0.34506395,0.020321073,-0.5481542,-0.32435545,-0.13809636,807.47253,796.1905,815.5311,813.1135,821.5751,-0.3685302734375,0.0411376953125,0.92767333984375,4.299163818359375,-4.762725830078125,1.383209228515625,1,1.0,1.0,1.0,1.0,65.00
2021-04-20 08:38:18.805,0.21096525,0.656155,0.35813132,0.7577421,0.180767,0.20095114,0.24689256,0.46333298,-0.1453481,0.36196554,0.25891632,0.2642316,0.044945385,0.13974838,-0.065790035,0.38597816,0.060622238,-0.46298847,-0.2824844,-0.163986,816.337,807.0696,807.0696,805.8608,805.4579,-0.369140625,0.03631591796875,0.92864990234375,4.448699951171875,-4.299163818359375,0.560760498046875,1,1.0,1.0,1.0,1.0,65.00
2021-04-20 08:38:19.307,0.6230497,0.38565457,0.2812272,0.1878323,0.77974105,0.20205468,0.12256172,0.58054465,0.7753069,0.3105227,0.26342607,0.42906702,0.07356348,0.083006375,-0.028246494,0.14795992,-0.12220868,-0.45952556,-0.25070235,0.07573426,804.2491,789.7436,799.41394,796.5934,768.7912,-0.362060546875,0.033935546875,0.932373046875,4.1571044921875,-4.867401123046875,1.024322509765625,1,1.0,1.0,1.0,1.0,65.00
2021-04-20 08:38:19.826,0.43218705,0.30929184,0.26032868,0.17653586,0.55899334,0.1657366,-0.20584506,0.4154242,0.8305035,0.2159216,0.2728234,0.42919767,0.0711071,0.04081736,-0.0030855793,0.26630655,-0.10290486,-0.47013682,-0.32797033,0.08701511,805.8608,798.20514,805.4579,811.50183,861.8681,-0.3609619140625,0.033935546875,0.93939208984375,4.598236083984375,-4.568328857421875,1.39068603515625,1,1.0,1.0,1.0,1.0,65.00
2021-04-20 08:38:20.333,0.34054747,0.42651474,0.21269648,0.16838127,0.40171584,0.09585137,-0.44992903,0.33549908,0.84593594,-0.025821822,0.26116908,0.42919767,0.13962802,0.013836863,-0.013621757,0.3264625,-0.14296055,-0.5118187,-0.43695375,0.062349174,799.81683,790.9524,809.4872,801.02563,811.0989,-0.35443115234375,0.03778076171875,0.931640625,4.3963623046875,-4.538421630859375,1.024322509765625,1,1.0,1.0,1.0,1.0,65.00
2021-04-20 08:38:20.858,0.10796604,0.40038043,0.15605547,0.07921169,-0.012020047,0.009325316,-0.39662465,0.15446465,0.6814285,0.079701625,0.1853972,0.43695202,0.17982598,0.108211406,-0.03751513,0.3572548,-0.028511114,-0.48538274,-0.37707245,-0.013935131,794.57874,794.57874,807.47253,795.78754,746.63007,-0.3555908203125,0.03802490234375,0.93865966796875,4.74029541015625,-4.344024658203125,1.069183349609375,1,1.0,1.0,1.0,1.0,65.00
2021-04-20 08:38:21.396,0.07698364,0.26614168,0.07349619,0.21130992,-0.073048204,0.013911877,-0.15083806,0.1382875,0.48657793,0.15025999,-0.11348108,0.5376865,0.1950987,0.10293895,-0.07520822,0.32343,-0.047330018,-0.45919067,-0.30576965,-0.056118656,772.4176,797.3993,805.4579,776.4469,861.4652,-0.348388671875,0.030517578125,0.93609619140625,4.493560791015625,-4.747772216796875,1.099090576171875,1,1.0,1.0,1.0,1.0,65.00
2021-04-20 08:38:21.919,0.0634061,0.38228434,0.2608768,0.27844432,0.035079498,0.07349855,0.028915124,0.13157278,0.43083802,0.30781788,0.2852418,0.5024496,0.16735621,0.012242565,0.004093403,0.24938414,0.0074599595,-0.47827384,-0.30987975,-0.094313264,789.7436,782.8938,809.4872,789.7436,745.82416,-0.34967041015625,0.03753662109375,0.94281005859375,4.702911376953125,-4.44122314453125,1.3458251953125,1,1.0,1.0,1.0,1.0,65.00
2021-04-20 08:38:22.452,0.09055191,0.5288629,0.5110352,0.4291516,0.11839466,0.20799866,0.16100805,0.16157722,0.41533977,0.41222328,0.33784562,0.43595612,0.13394931,-0.09456557,0.09132988,0.22792508,-0.14768943,-0.38679376,-0.33745122,-0.01373824,814.3223,813.91943,795.78754,796.1905,753.8828,-0.35894775390625,0.0343017578125,0.934814453125,5.091705322265625,-3.63372802734375,0.9271240234375,1,1.0,1.0,1.0,1.0,65.00
2021-04-20 08:38:22.984,0.15013875,0.8305025,0.91758543,0.5058608,0.07568475,0.4296498,0.51692843,0.15062119,0.3455164,0.4020113,0.4681507,0.30437902,0.076705284,-0.11693634,0.16567613,0.24224064,-0.12411577,-0.34071735,-0.25972307,0.011113654,796.99634,795.38464,809.0842,787.326,803.44324,-0.3599853515625,0.03594970703125,0.934326171875,4.88983154296875,-4.164581298828125,1.009368896484375,1,1.0,1.0,1.0,1.0,65.00
2021-04-20 08:38:23.491,0.9773642,1.0866846,1.1158957,0.82043874,0.57924026,0.5965618,0.678364,0.6866913,0.9235619,0.6205929,0.62024885,0.9359276,0.19358176,-0.036711544,0.1791062,0.4020329,-0.03337314,-0.37463015,-0.22566564,-0.02469693,811.0989,794.9817,820.7692,802.6374,733.73627,-0.3643798828125,0.0321044921875,0.9329833984375,4.74029541015625,-3.805694580078125,1.09161376953125,1,1.0,1.0,1.0,1.0,65.00
2021-04-20 08:38:24.031,0.94510865,1.1473005,1.1121216,0.9209397,0.6459798,0.5590065,0.715496,0.81483793,0.97103876,0.6065943,0.6265524,0.9393823,0.20763017,8.398044E-4,0.093968034,0.40317604,-0.116934225,-0.5398126,-0.26294306,0.0010897008,813.91943,805.8608,805.4579,810.696,807.47253,-0.37249755859375,0.04205322265625,0.93402099609375,4.897308349609375,-3.820648193359375,1.2860107421875,1,1.0,1.0,1.0,1.0,65.00
2021-04-20 08:38:24.554,0.92999274,0.9391714,0.8551133,0.9329321,0.58424145,0.44760698,0.47133848,0.75757486,0.9017397,0.6306291,0.58610857,0.78201914,0.28055322,-0.0024484394,-0.026669364,0.38784292,-0.09551561,-0.56291515,-0.3364812,0.043523647,809.4872,799.011,804.2491,809.4872,727.28937,-0.3782958984375,0.040283203125,0.9296875,4.762725830078125,-5.09918212890625,1.278533935546875,1,1.0,1.0,1.0,1.0,65.00
2021-04-20 08:38:25.067,0.8117624,0.5864867,0.53455615,0.9103623,0.49895948,0.3043346,0.1789512,0.66343886,0.77566737,0.5043193,0.4582883,0.60206115,0.27509734,-0.0037210938,-0.049141467,0.32696062,-0.08290016,-0.5703517,-0.36147246,0.04127765,804.65204,785.7143,806.6667,810.293,732.1245,-0.37255859375,0.042724609375,0.92730712890625,4.418792724609375,-4.4561767578125,0.800018310546875,1,1.0,1.0,1.0,1.0,65.00
2021-04-20 08:38:25.608,0.53923684,0.101730496,0.23186895,0.46425417,0.15934731,0.23956214,-0.08620292,0.052972924,0.6299121,0.5180376,-0.029840726,0.59536695,0.23953223,0.049181383,0.008686908,0.22230016,-0.012472604,-0.5242889,-0.35923076,0.05682803,807.8755,807.47253,805.8608,811.0989,825.6044,-0.37689208984375,0.044189453125,0.9239501953125,4.493560791015625,-4.246826171875,0.55328369140625,1,1.0,1.0,1.0,1.0,65.00
2021-04-20 08:38:26.115,0.14953001,0.09248226,0.177445,-0.10566673,0.047001615,0.112068914,-0.052448627,-0.008290597,0.5050542,0.396269,-0.017606145,0.44088182,0.13821195,0.020659948,0.038724072,0.23684779,-0.086068206,-0.578781,-0.4655912,0.06944652,790.9524,803.0403,814.7253,786.9231,708.3516,-0.37164306640625,0.04693603515625,0.92901611328125,4.68048095703125,-4.83001708984375,1.607513427734375,1,1.0,1.0,1.0,1.0,65.00
2021-04-20 08:38:26.639,-0.14855058,0.21059431,0.28243542,-0.18770641,-0.18457675,0.044434983,0.091140434,0.0010102056,0.41943023,0.2978394,0.2369424,0.3835127,0.09567607,-0.005637828,0.016340809,0.2646634,-0.07238536,-0.5626621,-0.45259553,0.089176305,817.1429,801.02563,811.0989,805.05493,763.95605,-0.37353515625,0.0455322265625,0.92584228515625,4.598236083984375,-4.8748779296875,0.9271240234375,1,1.0,1.0,1.0,1.0,65.00
2021-04-20 08:38:27.160,0.22391775,0.82032835,0.7953684,-0.22011699,-0.052425835,0.27522406,0.35283202,-0.047171954,0.43364337,0.4551616,0.3410203,-0.061351735,0.07804659,0.08346551,0.08591689,0.29992774,-0.11311764,-0.5667715,-0.4357131,0.08988565,811.9048,788.93774,815.5311,817.9487,734.5421,-0.3685302734375,0.04156494140625,0.93133544921875,4.65057373046875,-4.463653564453125,0.79254150390625,1,1.0,1.0,1.0,1.0,65.00
2021-04-20 08:38:27.689,0.6497846,0.89974624,0.8340175,-0.23096108,0.43709213,0.2868746,0.42349285,-0.095109515,0.5998774,0.4601665,0.41313857,-0.1502423,0.2913682,0.17141074,0.10079568,0.30327168,-0.068089634,-0.5551591,-0.38344538,0.07449348,815.5311,805.05493,813.1135,811.50183,889.2674,-0.36431884765625,0.04296875,0.93316650390625,4.673004150390625,-4.62066650390625,0.904693603515625,1,1.0,1.0,1.0,1.0,65.00
2021-04-20 08:38:28.205,0.6520381,0.8899761,0.7214496,0.61348855,0.42372307,0.35114518,0.35659912,0.28958237,0.81691056,0.6442611,0.4015346,0.7450976,0.3915892,0.19705118,0.09866956,0.5102631,-0.1088631,-0.53939,-0.3946686,-0.009305149,814.3223,801.8315,813.91943,819.9634,872.74725,-0.3660888671875,0.04046630859375,0.93560791015625,4.269256591796875,-4.5758056640625,0.829925537109375,1,1.0,1.0,1.0,1.0,65.00
2021-04-20 08:38:28.717,0.59464574,0.5273967,0.24432804,0.55894107,0.3816583,0.18843485,0.23725529,0.31671003,0.8114561,0.5694669,0.26377973,0.8127797,0.38181427,0.11142758,0.028954597,0.46975997,-0.123474896,-0.54904157,-0.28931412,0.0051846225,804.2491,796.5934,804.65204,803.8461,770.80585,-0.36358642578125,0.04241943359375,0.92401123046875,4.9346923828125,-4.41131591796875,1.1065673828125,1,1.0,1.0,1.0,1.0,65.00
2021-04-20 08:38:29.252,0.5050997,0.38678265,0.23503757,0.52280354,0.1381168,0.21975772,0.2585159,0.20817451,0.7405136,0.5694419,0.27284876,0.7966198,0.3136923,-0.022742359,0.037768424,0.45703784,-0.106056616,-0.5333788,-0.2091229,-0.011768111,799.41394,795.38464,810.696,803.0403,828.4249,-0.36181640625,0.0433349609375,0.9315185546875,4.538421630859375,-4.284210205078125,1.00189208984375,1,1.0,1.0,1.0,1.0,65.00
2021-04-20 08:38:29.795,0.5590375,0.3294764,0.40290296,0.69295335,0.1552632,0.13273512,0.24241233,0.33863238,0.28499854,0.22934052,0.2248996,0.7361271,0.28993544,-0.12703522,-0.0022151398,0.45143998,-0.07002396,-0.5555654,-0.10737679,0.028841719,772.4176,799.011,811.50183,773.6264,769.59705,-0.3536376953125,0.03302001953125,0.9339599609375,4.194488525390625,-5.106658935546875,-0.171966552734375,1,1.0,1.0,1.0,1.0,65.00
2021-04-20 08:38:30.306,0.54671705,0.3675509,0.37965003,0.9983702,0.13472176,0.039559953,0.11860505,0.65941906,0.2014577,0.19356887,0.22507775,0.6579049,0.26479012,-0.12707946,-0.023288632,0.46330303,-0.04203674,-0.42645735,-0.06985069,0.040492225,811.0989,799.81683,803.8461,818.7546,749.45056,-0.36407470703125,0.04852294921875,0.92486572265625,9.383392333984375,-7.10296630859375,3.147735595703125,1,1.0,1.0,1.0,1.0,65.00
2021-04-20 08:38:30.827,0.6374294,0.43519348,0.28875297,1.128253,0.31993198,0.004287028,-0.11333211,0.8260635,0.025504751,0.27031398,0.33021757,0.6298535,0.3242841,-0.08642631,0.0069717853,0.48111176,-0.063234024,-0.30549136,-0.08079123,0.06944322,803.0403,799.41394,799.41394,802.6374,827.2161,-0.36663818359375,0.07281494140625,0.93157958984375,2.572021484375,-6.332855224609375,2.310333251953125,1,1.0,1.0,1.0,1.0,65.00
2021-04-20 08:38:31.354,0.7679479,0.32112443,0.10303899,1.2853634,0.28836784,0.061949592,-0.2527829,0.9918734,0.4599615,0.17475136,0.26115286,0.6075991,0.4066908,0.0010941407,0.03366128,0.45603967,0.02525984,-0.27792925,-0.20255518,0.091506444,742.1978,784.90845,811.50183,740.18317,710.3663,-0.3792724609375,0.051513671875,0.92193603515625,3.626251220703125,-4.747772216796875,0.31402587890625,1,1.0,1.0,1.0,1.0,65.00
2021-04-20 08:38:31.874,0.7679479,0.31488523,0.20016816,1.2853634,0.28836784,0.19847092,-0.29797003,0.9918734,0.4599615,0.27879512,0.31445786,0.6075991,0.4066908,0.05467386,0.0844914,0.45603967,0.02525984,-0.36060095,-0.44781017,0.091506444,804.65204,801.02563,811.50183,822.7839,823.1868,-0.38946533203125,0.0577392578125,0.92047119140625,3.955230712890625,-2.803802490234375,1.577606201171875,1,1.0,1.0,1.0,1.0,65.00
2021-04-20 08:38:32.376,0.7679479,0.36742046,0.3712726,1.2853634,0.28836784,0.22189218,0.048749596,0.9918734,0.4599615,0.23682684,0.3246458,0.6075991,0.4066908,0.0932989,0.09194355,0.45603967,0.02525984,-0.47002447,-0.49698067,0.091506444,806.6667,799.011,808.68134,793.36993,790.14655,-0.398193359375,0.0399169921875,0.91851806640625,4.239349365234375,-5.14404296875,0.8074951171875,1,1.0,1.0,1.0,1.0,65.00
2021-04-20 08:38:32.889,0.7679479,0.37497956,0.28633308,1.2853634,0.28836784,0.1881591,0.05802209,0.9918734,0.4599615,0.19051994,0.28495908,0.6075991,0.4066908,0.046988767,0.065787956,0.45603967,0.02525984,-0.4943065,-0.46509832,0.091506444,809.4872,805.8608,811.50183,811.50183,702.3077,-0.37890625,0.03857421875,0.9219970703125,4.14215087890625,-6.078643798828125,1.353302001953125,1,2.0,1.0,1.0,2.0,65.00
2021-04-20 08:38:33.412,0.0493866,0.28415293,0.16816801,0.3551152,0.10391711,0.107442975,0.05011124,0.0646003,0.6711314,-0.055816755,0.22316252,0.63027114,0.31845665,0.018542133,-0.031013746,0.48269972,-0.07802935,-0.5302528,-0.4447275,0.044265848,803.8461,797.3993,799.011,794.17584,855.82416,-0.36956787109375,0.03546142578125,0.93341064453125,4.56085205078125,-5.301055908203125,0.605621337890625,1,1.0,1.0,1.0,1.0,65.00
2021-04-20 08:38:33.943,0.22890303,-0.07755466,-0.34509632,0.36902755,0.35640803,-0.034761176,-0.32296476,0.1334859,0.7416076,0.03561449,0.15975402,0.6644451,0.34494698,-0.075988054,-0.12511465,0.49105498,-0.052353974,-0.5138101,-0.48160058,0.047488164,767.1795,790.14655,811.0989,764.35895,727.6923,-0.3634033203125,0.0352783203125,0.93218994140625,4.523468017578125,-5.203857421875,1.054229736328125,1,1.0,1.0,1.0,1.0,65.00
2021-04-20 08:38:34.456,0.9180473,0.3875977,0.29525083,0.81841165,0.4803979,-0.13716091,-0.09582156,0.27179214,0.8838187,0.14365435,0.067608096,0.9988729,0.3290537,-0.021125246,-0.030968975,0.44840866,-0.13558713,-0.4639503,-0.44052392,0.0018796814,820.3663,807.8755,813.5165,807.0696,793.7729,-0.36572265625,0.03631591796875,0.93023681640625,4.74029541015625,-4.523468017578125,0.8074951171875,1,1.0,1.0,1.0,1.0,65.00
2021-04-20 08:38:34.981,1.208155,0.7623149,0.70025605,1.1433676,0.58137614,0.1267648,0.26595223,0.39182895,0.9071493,0.18515082,0.26059443,1.0212299,0.30892065,0.119328916,0.079609066,0.4209364,-0.15837795,-0.4958746,-0.3796899,-0.03052871,809.89014,801.02563,805.05493,809.0842,856.2271,-0.362548828125,0.03765869140625,0.93280029296875,4.66552734375,-4.568328857421875,0.710296630859375,1,1.0,1.0,1.0,1.0,65.00
2021-04-20 08:38:35.539,1.3690463,0.81733257,0.7451945,1.2268842,0.4983811,0.2367611,0.36341488,0.40822938,0.9071493,0.65599984,0.25025815,1.0212299,0.22837311,0.20369023,0.100492276,0.30471888,-0.24838604,-0.47104007,-0.3227783,-0.07365558,817.1429,812.71063,816.337,824.3956,699.89014,-0.36737060546875,0.03851318359375,0.93023681640625,4.762725830078125,-3.955230712890625,1.398162841796875,1,1.0,1.0,1.0,1.0,65.00
2021-04-20 08:38:36.057,0.3106028,0.6571309,0.52866656,0.78347254,-0.35303408,0.20477833,0.26371363,0.18154587,0.29290906,0.6142723,0.24116051,0.88205,0.20827329,0.24468592,0.058671422,0.3105587,-0.040612806,-0.5200458,-0.312225,-0.05695417,809.0842,800.2198,800.2198,817.1429,911.02563,-0.36578369140625,0.03717041015625,0.92791748046875,5.09918212890625,-4.254302978515625,0.88226318359375,1,1.0,1.0,1.0,1.0,65.00
2021-04-20 08:38:36.584,0.18287258,0.2864497,0.034823,0.279626,-0.2926972,-0.11346154,-0.23139524,0.21517509,0.47372395,0.64353126,0.06799406,0.26363137,0.19921245,0.11270526,-0.03688817,0.32251343,-0.0725242,-0.526935,-0.21190187,-0.105926305,790.9524,801.02563,808.68134,784.10254,725.6777,-0.3687744140625,0.041748046875,0.9300537109375,4.5758056640625,-3.8580322265625,0.829925537109375,1,1.0,1.0,1.0,1.0,65.00
2021-04-20 08:38:37.088,0.5441197,0.24031153,-0.076687805,0.30869162,0.2935803,0.059598394,-0.474778,0.27440664,0.61361957,0.47725034,0.049149502,0.21035986,0.23115653,0.0663464,0.0022759922,0.3492636,-0.030786594,-0.6342619,-0.21512814,-0.1419876,818.7546,807.0696,803.44324,815.12823,753.47986,-0.369384765625,0.0399169921875,0.9276123046875,4.822540283203125,-4.97955322265625,1.547698974609375,1,1.0,1.0,1.0,1.0,65.00
2021-04-20 08:38:37.615,0.6340689,0.15744467,-0.107880026,0.59563506,0.3605299,0.13698913,-0.33793342,0.43940592,0.6128679,0.27310735,-0.038914483,0.55941916,0.27536082,-0.0714821,-0.020346915,0.22430754,-0.0039203377,-0.55171984,-0.28186435,-0.10016777,794.57874,793.36993,801.4286,802.23444,773.22345,-0.3719482421875,0.04345703125,0.93023681640625,4.6356201171875,-4.493560791015625,1.2261962890625,1,1.0,1.0,1.0,1.0,65.00
2021-04-20 08:38:38.117,0.6278593,0.07559859,-0.10315275,0.45986715,0.36206937,0.229213,-0.16188535,0.26215622,0.54744595,0.23653612,0.11625232,0.5635801,0.2835255,-0.041212495,-0.014712284,0.19061193,0.016536996,-0.5109651,-0.44768295,0.004316855,807.8755,805.4579,809.0842,808.68134,730.9158,-0.37554931640625,0.0394287109375,0.9283447265625,4.553375244140625,-4.329071044921875,1.0467529296875,1,1.0,1.0,1.0,1.0,65.00
2021-04-20 08:38:38.657,0.29573867,-0.057131484,-0.13015412,0.33433744,0.10218957,0.045581874,-0.13079599,0.15880352,0.45612636,0.29807457,0.121614695,0.56383795,0.26027837,-0.07979937,-0.120780356,0.2279729,-0.0038755424,-0.5286527,-0.51753503,-0.07124297,804.2491,795.78754,806.26373,800.6227,757.9121,-0.37420654296875,0.04168701171875,0.92535400390625,4.7552490234375,-5.659942626953125,1.5252685546875,1,1.0,1.0,1.0,1.0,65.00
2021-04-20 08:38:39.212,0.15795153,0.128433,0.067776434,-0.12971304,0.10666875,-0.10192033,-0.27824825,-0.14028288,0.25349736,0.2217679,0.117091864,0.3475495,0.20201826,-0.012874676,-0.13051228,0.30611053,-0.029073527,-0.6837127,-0.5003237,-0.23262414,801.4286,803.44324,802.23444,799.81683,722.0513,-0.379638671875,0.04779052734375,0.92510986328125,4.418792724609375,-4.47113037109375,1.532745361328125,1,1.0,1.0,1.0,1.0,65.00
2021-04-20 08:38:39.719,0.17933138,0.13283437,0.110984065,-0.08507062,0.15816215,-0.15061018,-0.48622826,-0.09994829,0.37636214,0.2042323,0.32496217,0.3837029,0.12781705,0.00257976,-0.11584636,0.31037715,-0.09020743,-0.6493703,-0.36929148,-0.25499603,803.44324,797.8022,811.50183,799.011,750.2564,-0.3768310546875,0.04296875,0.9281005859375,4.77020263671875,-4.418792724609375,0.979461669921875,1,1.0,1.0,1.0,1.0,65.00
2021-04-20 08:38:40.254,0.24062467,0.17122889,0.09987039,0.05812967,0.19456281,-0.102593005,-0.67661273,0.019649532,0.34219304,0.25136575,0.2984719,0.3280514,0.06861706,0.038612664,-0.036917556,0.27313378,-0.16390865,-0.44335824,-0.28248483,-0.22783223,804.2491,803.0403,805.4579,799.81683,720.0366,-0.37005615234375,0.03961181640625,0.9288330078125,4.29168701171875,-4.2169189453125,1.375732421875,1,1.0,1.0,1.0,1.0,65.00
2021-04-20 08:38:40.808,0.25630188,0.17609884,-0.086902,0.1761184,0.13376161,-0.07906111,-0.5279482,0.06580927,0.39075297,0.20598814,0.27593356,0.3560533,0.13767236,-0.018497368,-0.03583086,0.2150173,-0.17522319,-0.31634587,-0.26782504,-0.24093567,770.0,793.36993,808.68134,768.7912,755.89746,-0.37005615234375,0.0423583984375,0.92559814453125,4.538421630859375,-4.844970703125,1.233673095703125,1,1.0,1.0,1.0,1.0,65.00
2021-04-20 08:38:41.318,0.3206717,0.22674318,-0.16926184,0.23395085,0.12534122,-0.0816667,-0.42468143,0.14411467,0.28672028,0.2109946,0.25505224,0.07176594,0.17726237,-0.0047244267,-0.04418498,0.19235097,-0.13776125,-0.3667097,-0.35913396,-0.31725985,799.81683,796.1905,807.47253,805.05493,751.8681,-0.37158203125,0.04443359375,0.92510986328125,4.553375244140625,-4.32159423828125,1.173858642578125,1,1.0,1.0,1.0,1.0,65.00
2021-04-20 08:38:41.859,0.42012665,0.66134006,0.5919955,0.27745655,-0.117505826,0.08953112,0.30041558,0.11709586,0.28540853,0.4991237,0.4053712,0.06745092,0.2919911,0.057277717,0.067806005,0.23041548,-0.12029914,-0.4756343,-0.44141293,-0.40582138,812.71063,805.8608,807.47253,820.7692,747.4359,-0.37237548828125,0.04595947265625,0.9288330078125,4.717864990234375,-4.643096923828125,0.777587890625,1,1.0,1.0,1.0,1.0,65.00
2021-04-20 08:38:42.380,0.87808365,1.1588948,0.90874887,0.27745655,0.66522115,0.5556857,0.58140934,0.11709586,0.74206036,0.60998505,0.58263403,0.06745092,0.2377159,0.22728351,0.15783755,0.23041548,-0.41281024,-0.52262264,-0.44507417,-0.40582138,788.1319,771.2088,831.2454,804.2491,778.46155,-0.3663330078125,0.04254150390625,0.93170166015625,4.486083984375,-4.246826171875,0.9869384765625,1,1.0,1.0,1.0,1.0,65.00
2021-04-20 08:38:42.904,1.2762251,1.334488,1.1946409,0.27745655,0.64906967,0.7680204,0.7360575,0.11709586,0.75924027,0.7758967,0.6393818,0.06745092,0.28718075,0.21864086,0.22668627,0.23041548,-0.38716713,-0.40819287,-0.47156334,-0.40582138,817.1429,817.5458,799.81683,810.696,767.5824,-0.36322021484375,0.04290771484375,0.93121337890625,3.805694580078125,-4.90478515625,2.31781005859375,1,1.0,1.0,1.0,1.0,65.00
2021-04-20 08:38:43.410,1.2762251,1.2931528,1.1788539,1.1702231,0.64906967,0.73388356,0.6623358,0.7372955,0.75924027,0.7583536,0.64226514,0.70075685,0.28718075,0.17370445,0.07018858,0.2741723,-0.38716713,-0.3149178,-0.5071386,-0.025935216,811.9048,798.60803,803.8461,816.337,736.55676,-0.36993408203125,0.0445556640625,0.9307861328125,4.5159912109375,-4.05242919921875,1.024322509765625,1,1.0,1.0,1.0,1.0,65.00
2021-04-20 08:38:43.927,1.2462776,1.0851768,1.0671303,0.7071375,0.43830374,0.554721,0.5174369,0.4411462,0.31544605,0.6314468,0.61635697,0.63959545,0.22020899,0.079700254,-0.009007282,0.2587177,-0.25018784,-0.29509875,-0.48416105,0.052607935,807.8755,796.99634,809.4872,809.0842,778.0586,-0.3626708984375,0.03680419921875,0.93536376953125,4.942169189453125,-4.747772216796875,1.054229736328125,1,1.0,1.0,1.0,1.0,65.00
2021-04-20 08:38:44.495,0.4855432,0.52447534,0.440347,0.55665296,0.061036173,-0.06010451,0.14947309,0.35738677,0.46879038,0.31417066,0.22602695,0.7034722,0.13946053,-0.041511267,-0.13200466,0.22430462,-0.1318382,-0.3768014,-0.4486523,-0.009420575,801.4286,801.8315,798.20514,789.7436,711.978,-0.35565185546875,0.03509521484375,0.9306640625,4.5758056640625,-4.403839111328125,1.2261962890625,1,1.0,1.0,1.0,1.0,65.00
2021-04-20 08:38:45.031,0.3927058,0.23325576,-0.25506622,0.3712931,-0.026101664,-0.022509383,-0.2822255,0.2400942,0.4989011,0.28012905,0.1578902,0.7031633,0.13880078,-0.096813925,-0.043068837,0.17792667,-0.15051217,-0.45911667,-0.35896167,-0.054068428,795.78754,790.14655,798.20514,791.75824,805.4579,-0.3634033203125,0.0443115234375,0.9334716796875,4.88983154296875,-4.246826171875,1.21124267578125,1,1.0,1.0,1.0,1.0,65.00
2021-04-20 08:38:45.541,0.17749798,0.26723665,-0.0869436,0.15725045,0.019395139,0.062957846,-0.29976848,0.17008317,0.5113532,0.21583341,0.33462626,0.5415787,0.19391467,-0.15509653,-0.0019218543,0.22725733,-0.18368657,-0.552784,-0.3708571,-0.09397339,807.0696,797.3993,799.41394,792.96704,849.3773,-0.3616943359375,0.03973388671875,0.93133544921875,4.0673828125,-4.358978271484375,1.7047119140625,1,1.0,1.0,1.0,1.0,65.00
2021-04-20 08:38:46.082,0.27075896,0.3317483,-0.14886503,0.12874635,0.24614844,0.06727871,-0.19353105,0.2531656,0.519636,0.18355495,0.3857867,0.51734495,0.11748184,-0.13980289,0.05043337,0.26174858,-0.14516735,-0.55296063,-0.3950762,-0.07698119,807.0696,807.0696,801.8315,794.9817,689.81683,-0.3538818359375,0.0350341796875,0.93084716796875,4.5458984375,-5.8917236328125,1.024322509765625,1,1.0,1.0,1.0,1.0,65.00
2021-04-20 08:38:46.622,0.5727932,0.28974822,-0.085457906,0.34895298,0.39093572,-0.015398816,-0.115204275,0.30103898,0.59084284,0.4439723,0.37154877,0.54820055,0.05941378,0.005090649,0.044336446,0.25445873,-0.12762547,-0.51334,-0.4302301,-0.029494723,795.78754,799.81683,803.8461,799.011,827.2161,-0.36322021484375,0.04010009765625,0.93231201171875,4.38140869140625,-4.0673828125,1.368255615234375,1,1.0,1.0,1.0,1.0,65.00
2021-04-20 08:38:47.162,0.84739166,0.43784052,0.37993512,0.7597082,0.5514738,0.22217289,0.04870217,0.5030551,0.602659,0.74106574,0.30068827,0.66045856,0.1693099,0.069081694,0.037454028,0.2392781,-0.12153056,-0.50954926,-0.4309162,-0.021165645,816.337,799.41394,809.4872,825.2015,771.2088,-0.35809326171875,0.03643798828125,0.93389892578125,4.66552734375,-5.7421875,1.203765869140625,1,1.0,1.0,1.0,1.0,65.00
2021-04-20 08:38:47.670,1.0991726,0.4526496,0.40157625,1.0015272,0.6741656,0.3098532,-0.031898245,0.5552528,0.70227104,0.74106574,0.1945792,0.6400883,0.38112828,0.15658501,-0.019789586,0.30865777,-0.16517533,-0.5273287,-0.47824755,0.06661757,800.6227,800.2198,807.0696,800.2198,784.90845,-0.35552978515625,0.04205322265625,0.9337158203125,4.628143310546875,-4.4561767578125,0.6280517578125,1,1.0,1.0,1.0,1.0,65.00
2021-04-20 08:38:48.188,1.0741531,0.35231298,0.34809956,1.0582215,0.7396426,0.3166063,-0.06302121,0.65916276,0.87374777,0.70563763,0.51233226,1.2234702,0.5515458,0.29260084,0.05985375,0.43789107,-0.11850614,-0.39814314,-0.42818087,0.10240093,802.6374,801.4286,807.47253,799.81683,804.65204,-0.35382080078125,0.03826904296875,0.939208984375,4.5159912109375,-4.366455078125,1.457977294921875,1,1.0,1.0,1.0,1.0,65.00
2021-04-20 08:38:48.710,0.9849008,0.08495516,0.08057834,0.7733527,0.65004057,0.020678975,-0.12456058,0.5382876,0.90303826,0.41720206,0.5190844,1.2338058,0.464014,0.33685896,0.075071454,0.39510405,-0.07787346,-0.3492195,-0.46342525,0.051554862,806.26373,801.8315,807.0696,816.7399,813.5165,-0.3555908203125,0.041748046875,0.9365234375,4.762725830078125,-5.1739501953125,1.36077880859375,1,1.0,1.0,1.0,1.0,65.00
2021-04-20 08:38:49.233,0.62210286,0.08457036,0.049116727,0.452308,0.3867588,-0.0039933184,-0.03163818,0.46328327,0.86398345,0.33463824,0.5238609,1.2291611,0.39966404,0.33068922,0.072378166,0.37705356,-6.535599E-5,-0.2823804,-0.4091357,3.9070068E-4,809.4872,800.6227,809.4872,805.4579,767.98535,-0.35833740234375,0.047119140625,0.9365234375,4.538421630859375,-4.53094482421875,1.09161376953125,1,1.0,1.0,1.0,1.0,65.00
2021-04-20 08:38:49.789,0.59466535,0.12981433,0.13094233,0.46404654,0.28779873,-0.06469523,-0.024599107,0.29297444,0.8613463,0.10505037,0.4220418,1.1867024,0.33723602,0.14442873,0.00890227,0.4314347,0.02817732,-0.3233842,-0.43636024,-0.051830336,806.6667,808.2784,815.5311,801.02563,697.0696,-0.35675048828125,0.04193115234375,0.9368896484375,4.42626953125,-3.96270751953125,0.8074951171875,1,1.0,1.0,1.0,1.0,65.00
2021-04-20 08:38:50.335,0.5827137,0.16334328,0.006461284,0.573852,0.31929803,0.11844811,-0.023139982,0.26681933,0.6206239,0.052658457,0.31887984,0.63545775,0.3435307,0.16078007,0.094185315,0.4511696,0.039527725,-0.35787934,-0.35772857,-0.06608415,817.1429,817.9487,805.05493,814.7253,896.1172,-0.35650634765625,0.03997802734375,0.9346923828125,4.74029541015625,-5.682373046875,0.994415283203125,1,1.0,1.0,1.0,1.0,65.00
2021-04-20 08:38:50.840,0.56851196,0.15193321,0.09076962,0.56687886,0.37630972,0.07828278,-0.06074614,0.30164495,0.6337682,0.09977249,0.21267171,0.50592965,0.27645007,0.17471908,0.059221562,0.476129,-0.045206327,-0.4342258,-0.4175642,-0.024140842,793.36993,802.23444,801.02563,791.3553,651.13556,-0.3599853515625,0.04302978515625,0.93585205078125,4.269256591796875,-4.702911376953125,1.31591796875,1,1.0,1.0,1.0,1.0,65.00
2021-04-20 08:38:51.370,0.80014485,0.6921858,0.4652161,0.9896983,0.4813351,0.2775836,0.16799346,0.6294168,0.727583,0.48576927,0.40329823,0.8266106,0.23359339,0.18204892,0.00226163,0.5024047,-0.057126638,-0.41131973,-0.43031678,-0.025967984,805.8608,790.14655,809.0842,799.41394,684.9817,-0.35107421875,0.04168701171875,0.93780517578125,4.5159912109375,-4.77020263671875,1.30096435546875,1,1.0,1.0,1.0,1.0,65.00
2021-04-20 08:38:51.913,0.85321134,0.8073176,0.8364205,1.0867198,0.6335039,0.2776396,0.36481988,0.70552486,0.7344895,0.48403242,0.44666398,0.7975858,0.25717348,0.046538226,-0.11365718,0.5422363,-0.015136575,-0.37524405,-0.47286493,-0.017344955,804.65204,813.5165,789.34064,800.6227,794.57874,-0.34814453125,0.0399169921875,0.93707275390625,4.867401123046875,-5.66741943359375,0.64300537109375,1,1.0,1.0,1.0,1.0,65.00
2021-04-20 08:38:52.425,0.81124055,0.83202726,0.8753686,1.0487087,0.62058145,0.3763136,0.37466884,0.63559175,0.71265906,0.5125296,0.44666398,0.85111034,0.34675425,0.05600936,0.0064942166,0.4943573,0.08718664,-0.37313962,-0.43011492,-0.06778201,799.41394,802.6374,821.5751,800.2198,655.56775,-0.33447265625,0.04083251953125,0.94061279296875,4.777679443359375,-8.03009033203125,2.280426025390625,1,1.0,1.0,1.0,1.0,65.00
2021-04-20 08:38:52.945,0.5489087,0.39493853,0.7713157,0.033471905,0.5267497,0.24974555,0.20348753,0.2087582,0.7058454,0.16498843,0.3939294,0.55501896,0.37669325,0.05723975,-0.013535475,0.4691901,0.16523206,-0.27965197,-0.25796688,0.07373234,812.71063,809.4872,808.68134,804.2491,787.72894,-0.33135986328125,0.05426025390625,0.94342041015625,5.106658935546875,-5.09918212890625,2.594451904296875,1,1.0,1.0,1.0,1.0,65.00
2021-04-20 08:38:53.471,0.5811304,0.52088183,0.37096137,0.3508226,0.41789946,0.25024143,-0.11027274,0.37315762,0.67532367,0.25360346,0.2828781,0.61483353,0.37399885,0.07243747,0.036607176,0.45293817,0.17918147,-0.31240764,-0.221046,0.09369028,805.05493,795.38464,811.0989,807.0696,658.7912,-0.35333251953125,0.04595947265625,0.94677734375,3.22998046875,-1.9439697265625,0.321502685546875,1,1.0,1.0,1.0,1.0,65.00
2021-04-20 08:38:54.013,0.7603382,0.6435673,0.42470855,0.63930976,0.46118313,0.11823938,0.15203552,0.45313188,0.67796594,0.23669629,0.48274592,0.6280853,0.40112522,0.078613505,0.06493496,0.53034073,0.19515431,-0.3237346,-0.25822887,0.17354237,802.23444,799.41394,802.23444,798.20514,701.0989,-0.35858154296875,0.04119873046875,0.9276123046875,5.256195068359375,-0.22430419921875,-0.52337646484375,1,1.0,1.0,1.0,1.0,65.00
2021-04-20 08:38:54.540,0.88747674,0.72949284,0.5794359,1.0465585,0.49382725,0.2774105,0.25248662,0.5913021,0.6142676,0.34268025,0.50403154,0.5795422,0.39705232,0.051516145,0.112165414,0.53432274,0.17507547,-0.36697295,-0.4235777,0.3366002,826.0073,797.3993,815.12823,830.84247,707.1429,-0.36102294921875,0.0380859375,0.9326171875,4.403839111328125,-7.19268798828125,0.58319091796875,1,1.0,1.0,1.0,1.0,65.00
2021-04-20 08:38:55.063,1.039915,0.7268913,0.6388245,1.2096319,0.45638952,0.28225508,0.37153128,0.5905958,0.688869,0.33047628,0.5407625,0.52407753,0.3746916,0.044528797,0.109386615,0.6050547,0.10747155,-0.3874124,-0.51248276,0.45415232,805.4579,799.41394,804.2491,801.02563,765.9707,-0.35296630859375,0.0379638671875,0.939208984375,4.523468017578125,-4.9346923828125,1.6448974609375,1,1.0,1.0,1.0,1.0,65.00
2021-04-20 08:38:55.606,0.95335853,0.6854121,0.58965486,1.3819014,0.40817016,0.35742468,0.27485225,0.7082859,0.69661736,0.28663182,0.4837127,0.5055407,0.28922904,0.018203879,0.040027007,0.54731536,-0.0783577,-0.44762015,-0.43762743,0.58256257,800.2198,794.9817,800.6227,803.44324,713.9927,-0.34710693359375,0.032958984375,0.9361572265625,4.403839111328125,-4.987030029296875,0.46356201171875,1,1.0,1.0,1.0,1.0,65.00
2021-04-20 08:38:56.124,0.7868674,0.7695772,0.6074167,0.29923266,0.34221342,0.40684,0.32670754,0.43256024,0.6946738,0.17842695,0.46081147,0.8401297,0.3519051,-0.0072958623,0.009701759,0.13492133,-0.07000371,-0.5296578,-0.4306954,-0.19063617,801.8315,792.5641,806.26373,799.011,636.63007,-0.34759521484375,0.03814697265625,0.94110107421875,4.957122802734375,-4.822540283203125,0.755157470703125,1,1.0,1.0,1.0,1.0,65.00
2021-04-20 08:38:56.645,-0.03804812,0.6417635,0.5426968,0.0942282,0.124939986,0.3234913,0.21407971,0.2888661,0.8492107,0.44434088,0.34319624,0.91018003,0.33350998,-0.051119532,-0.026180817,0.20400892,-0.028559595,-0.453734,-0.47746876,-0.02568742,784.10254,798.60803,807.8755,780.4762,834.4689,-0.33367919921875,0.03961181640625,0.94146728515625,5.046844482421875,-4.68048095703125,2.100982666015625,1,1.0,1.0,1.0,1.0,65.00
2021-04-20 08:38:57.172,0.36133942,0.66303,0.4814006,0.517267,0.65152615,0.3162683,0.19059655,0.58952737,1.2235663,0.83121586,0.38370204,1.0537741,0.40873328,0.058261,0.036859874,0.3660904,0.0027222766,-0.40952975,-0.4900487,-0.052424427,818.7546,803.8461,811.50183,818.7546,732.52747,-0.34857177734375,0.02874755859375,0.9376220703125,3.312225341796875,-11.7535400390625,-8.142242431640625,1,1.0,1.0,1.0,1.0,65.00
2021-04-20 08:38:57.700,0.90022564,0.5261764,0.2018032,0.95017666,0.8355515,0.16680261,0.10531944,0.65534043,1.2235663,0.8309033,0.30251694,0.99844015,0.33646005,0.10575058,0.1312746,0.5112932,-0.022387085,-0.3142367,-0.43002698,0.035815775,804.2491,808.68134,806.6667,810.696,717.619,-0.32354736328125,0.05609130859375,0.939453125,12.164764404296875,-5.764617919921875,3.701019287109375,1,1.0,1.0,1.0,1.0,65.00
2021-04-20 08:38:58.243,0.9129411,0.5010322,0.16892548,0.96733046,0.7982233,0.21799631,0.05197455,0.6416692,1.2235663,0.8309033,0.29824427,0.99844015,0.47402588,0.11547371,0.16158196,0.5304579,0.057654202,-0.30135366,-0.354839,0.11139219,810.696,800.6227,813.91943,813.5165,808.68134,-0.33795166015625,0.031005859375,0.93707275390625,3.013153076171875,-4.59075927734375,-2.983245849609375,1,1.0,1.0,1.0,1.0,65.00
2021-04-20 08:38:58.779,0.76825196,0.39135796,0.035593234,0.8153319,0.23575848,0.1637401,0.024521507,0.30908856,0.79503894,0.37493286,0.1968413,0.77756125,0.5194646,-0.026257236,0.076109976,0.47429612,0.17212324,-0.32125577,-0.3665711,0.26874506,759.92676,810.293,801.02563,756.30035,830.4396,-0.34808349609375,0.057373046875,0.935302734375,3.69354248046875,-5.54779052734375,2.115936279296875,1,1.0,1.0,1.0,1.0,65.00
2021-04-20 08:38:59.323,0.81088185,0.3428613,-0.02785942,0.26451114,0.16817722,0.118482,-0.098688595,0.020661823,0.7477787,0.26027942,0.14771849,0.5765235,0.58845335,0.010797694,0.025238955,0.3786007,0.15469319,-0.41295522,-0.3680316,0.34385315,801.02563,801.8315,805.8608,796.5934,774.0293,-0.357666015625,0.04534912109375,0.94097900390625,3.820648193359375,-4.47113037109375,1.816864013671875,1,1.0,1.0,1.0,1.0,65.00
2021-04-20 08:38:59.832,0.97993684,0.57999146,0.11383807,0.4287063,0.38642752,0.20581308,0.106050566,0.36495066,0.77783215,0.40456828,0.11135923,0.63891935,0.52893686,0.012864331,0.044336848,0.43634716,0.05684284,-0.43474412,-0.33694682,0.35831553,803.44324,805.8608,806.6667,805.4579,705.12823,-0.3377685546875,0.02130126953125,0.93963623046875,3.90289306640625,-4.2169189453125,0.246734619140625,1,1.0,1.0,1.0,1.0,65.00
2021-04-20 08:39:00.379,1.2368901,1.0206851,0.65633386,0.76309836,0.8329563,0.49849597,0.46710187,0.8250339,0.7216674,0.5409202,0.5152819,0.6902332,0.47173825,0.10822273,0.0643769,0.21320367,-0.06087734,-0.48757973,-0.27902725,0.07005069,817.5458,813.5165,805.8608,807.47253,752.674,-0.3299560546875,0.02130126953125,0.95361328125,2.071075439453125,-2.4822998046875,0.28411865234375,1,1.0,1.0,1.0,1.0,65.00
2021-04-20 08:39:00.906,1.1538001,1.1844501,0.934961,0.81677854,0.89429814,0.6262237,0.6501591,0.8007975,0.70994693,0.5914377,0.53499997,0.6902332,0.3247305,0.06648283,0.08027948,0.19795161,-0.05207531,-0.45499521,-0.2785054,0.037701745,801.8315,797.3993,798.60803,804.65204,783.69965,-0.37115478515625,0.02398681640625,0.92816162109375,5.944061279296875,-5.271148681640625,0.695343017578125,1,1.0,1.0,1.0,1.0,65.00
2021-04-20 08:39:01.449,1.1219463,1.3028637,1.0912066,0.8423491,0.75924385,0.69398403,0.7216844,0.7996567,0.69634485,0.63661486,0.5383004,0.6443915,0.32842448,0.041469015,0.068015546,0.18838225,-0.051848225,-0.4228137,-0.3058888,0.017392209,820.3663,796.99634,814.3223,813.5165,695.05493,-0.36083984375,0.0203857421875,0.9383544921875,3.9776611328125,-3.93280029296875,0.6878662109375,1,1.0,1.0,1.0,1.0,65.00
2021-04-20 08:39:01.959,0.7904073,1.1340883,0.9889871,0.5945514,0.47221228,0.550238,0.62839246,0.6774293,0.67180693,0.5662147,0.48545507,0.86805373,0.24286588,-0.0063215983,0.2146224,0.3548076,-0.03393153,-0.35173714,-0.27370915,0.055505145,803.0403,802.6374,810.293,799.011,751.8681,-0.35760498046875,0.015625,0.936279296875,4.18701171875,-4.53094482421875,0.366363525390625,1,1.0,1.0,1.0,1.0,65.00
2021-04-20 08:39:02.474,0.5070413,0.9307618,0.70926803,0.45717868,0.41532788,0.3919263,0.44478068,0.6491091,0.7720295,0.52140427,0.35296106,0.90558493,0.2269188,0.07056072,0.22484568,0.4419402,-0.026191246,-0.4613679,-0.30102667,0.055682734,799.41394,803.44324,807.47253,792.96704,690.6227,-0.363037109375,0.01123046875,0.93109130859375,4.4561767578125,-5.031890869140625,0.201873779296875,1,1.0,1.0,1.0,1.0,65.00
2021-04-20 08:39:03.012,0.39562216,0.8234361,0.7347996,0.61959666,0.5240834,0.4196981,0.56470984,0.6277337,0.85133064,0.61685425,0.41513687,0.95627606,0.2454991,0.11575099,0.25233263,0.43962726,-0.07275852,-0.52923,-0.32536823,0.11099787,819.15753,817.1429,816.337,816.337,677.326,-0.36505126953125,0.017822265625,0.9366455078125,4.486083984375,-4.299163818359375,1.069183349609375,1,1.0,1.0,1.0,1.0,65.00
2021-04-20 08:39:03.524,0.58514595,0.9123427,0.80094403,0.7095683,0.6852683,0.42130086,0.589022,0.6611707,0.9521306,0.55116224,0.38958904,0.9708415,0.29071522,0.14169475,0.21662389,0.42846847,-0.17992635,-0.58442247,-0.43195596,0.045003034,818.3516,812.3077,811.50183,817.5458,813.5165,-0.36383056640625,0.01446533203125,0.9403076171875,5.0543212890625,-4.366455078125,1.368255615234375,1,1.0,1.0,1.0,1.0,65.00
2021-04-20 08:39:04.044,0.6240873,0.7679207,0.68339944,0.69420123,0.6844867,0.25661603,0.4766696,0.5890496,0.9521306,0.5435598,0.40686604,0.91975605,0.3572729,0.007311661,-0.05427299,0.41234946,-0.11056206,-0.59913343,-0.3703055,0.07364916,781.685,817.1429,788.93774,761.53845,726.4835,-0.36175537109375,0.01470947265625,0.9366455078125,4.702911376953125,-4.50103759765625,0.94207763671875,1,1.0,1.0,1.0,1.0,65.00
2021-04-20 08:39:04.554,0.66698474,0.99152845,0.980877,0.719767,0.71020055,0.39727232,0.34289116,0.5247502,1.1687961,0.69056696,0.5973703,1.0530646,0.4411748,0.14902635,-0.102581725,0.38220206,-0.009032394,-0.5356613,-0.42825797,-0.03260091,812.3077,806.6667,801.4286,816.337,865.09155,-0.3634033203125,0.01324462890625,0.92974853515625,4.56085205078125,-4.433746337890625,0.575714111328125,1,1.0,1.0,1.0,1.0,65.00
