TimeStamp,Delta_TP9,Delta_AF7,Delta_AF8,Delta_TP10,Theta_TP9,Theta_AF7,Theta_AF8,Theta_TP10,Alpha_TP9,Alpha_AF7,Alpha_AF8,Alpha_TP10,Beta_TP9,Beta_AF7,Beta_AF8,Beta_TP10,Gamma_TP9,Gamma_AF7,Gamma_AF8,Gamma_TP10,RAW_TP9,RAW_AF7,RAW_AF8,RAW_TP10,AUX_RIGHT,Accelerometer_X,Accelerometer_Y,Accelerometer_Z,Gyro_X,Gyro_Y,Gyro_Z,HeadBandOn,HSI_TP9,HSI_AF7,HSI_AF8,HSI_TP10,Battery,Elements
2021-04-27 08:36:00.913,0.29619157,0.0,0.5580246,0.09755482,0.6216419,0.0,0.08658908,0.86061656,0.4690969,0.0,0.40192485,0.93789333,0.7688644,0.0,0.3490303,0.8696316,0.37527958,0.0,-0.07177454,0.47127852,805.4579,848.5714,821.978,799.81683,743.8095,0.080810546875,0.03607177734375,0.99896240234375,4.583282470703125,-5.24871826171875,1.457977294921875,1,2.0,1.0,1.0,2.0,85.00
2021-04-27 08:36:01.227,,,,,,,,,,,,,,,,,,,,,,,,,,,,,,,,,,,,,,/muse/elements/blink
2021-04-27 08:36:01.425,0.29619157,0.0,0.42859602,0.09755482,0.6216419,0.0,0.17718792,0.86061656,0.4690969,0.0,0.41396043,0.93789333,0.7688644,0.0,0.35483277,0.8696316,0.37527958,0.0,-0.06891945,0.47127852,808.2784,808.68134,830.4396,796.99634,780.07324,0.10296630859375,0.03875732421875,0.989501953125,6.093597412109375,-5.69732666015625,-4.3963623046875,1,2.0,1.0,1.0,2.0,85.00
2021-04-27 08:36:01.930,0.29619157,0.0,0.41993684,0.09755482,0.6216419,0.0,0.1501043,0.86061656,0.4690969,0.0,0.33514258,0.93789333,0.7688644,0.0,0.34754178,0.8696316,0.37527958,0.0,-0.08197062,0.47127852,762.74725,831.6484,821.5751,786.9231,773.6264,0.11669921875,0.085693359375,0.98883056640625,7.237548828125,-6.3702392578125,-7.020721435546875,1,2.0,1.0,1.0,2.0,85.00
2021-04-27 08:36:02.309,,,,,,,,,,,,,,,,,,,,,,,,,,,,,,,,,,,,,,/muse/elements/blink
2021-04-27 08:36:02.457,0.29619157,0.0,0.48203725,0.09755482,0.6216419,0.0,0.125346,0.86061656,0.4690969,0.0,0.24770653,0.93789333,0.7688644,0.0,0.2840111,0.8696316,0.37527958,0.0,-0.13336743,0.47127852,769.19415,802.23444,808.2784,755.89746,776.4469,0.0863037109375,0.10107421875,0.97906494140625,4.822540283203125,-4.366455078125,-4.85992431640625,1,2.0,1.0,1.0,2.0,85.00
2021-04-27 08:36:02.967,0.29619157,0.0,0.7522174,0.09755482,0.6216419,0.0,0.23689872,0.86061656,0.4690969,0.0,0.3181379,0.93789333,0.7688644,0.0,0.2836771,0.8696316,0.37527958,0.0,-0.1236868,0.47127852,802.6374,801.02563,827.2161,796.5934,761.13556,-0.01007080078125,0.10137939453125,0.99322509765625,5.779571533203125,-0.46356201171875,5.63751220703125,1,2.0,1.0,1.0,2.0,85.00
2021-04-27 08:36:03.478,0.29619157,0.0,0.8261239,0.09755482,0.6216419,0.0,0.2648117,0.86061656,0.4690969,0.0,0.40409306,0.93789333,0.7688644,0.0,0.30697867,0.8696316,0.37527958,0.0,-0.06224507,0.47127852,793.36993,841.7216,829.6337,804.65204,802.23444,0.0396728515625,0.10955810546875,0.98260498046875,4.6954345703125,-1.71966552734375,0.530853271484375,1,2.0,1.0,1.0,2.0,85.00
2021-04-27 08:36:03.752,,,,,,,,,,,,,,,,,,,,,,,,,,,,,,,,,,,,,,/muse/elements/jaw_clench
2021-04-27 08:36:03.983,0.29619157,0.0,0.7886772,0.09755482,0.6216419,0.0,0.30072373,0.86061656,0.4690969,0.0,0.39612988,0.93789333,0.7688644,0.0,0.1990565,0.8696316,0.37527958,0.0,0.12706976,0.47127852,795.78754,809.89014,806.6667,800.6227,846.55676,-0.03668212890625,0.09576416015625,1.0018310546875,2.58697509765625,-3.5888671875,7.798309326171875,1,2.0,1.0,1.0,2.0,85.00
2021-04-27 08:36:04.488,0.29619157,0.0,0.4396279,0.8030889,0.6216419,0.0,0.22291118,0.82730174,0.4690969,0.0,0.39203182,0.5677758,0.7688644,0.0,0.27275595,0.94102734,0.37527958,0.0,0.04100591,0.58539766,799.81683,826.0073,811.9048,801.8315,763.95605,-0.02984619140625,0.07574462890625,0.995361328125,3.1402587890625,-4.478607177734375,-3.342132568359375,1,2.0,1.0,1.0,2.0,85.00
2021-04-27 08:36:05.001,0.11898077,0.0,0.38957408,0.7890171,0.32123625,0.0,0.17866054,0.82640505,0.51746595,0.0,0.39065176,0.5956812,0.8896788,0.0,0.25484636,0.9334349,0.53806114,0.0,0.02048452,0.5619043,770.0,887.25275,821.5751,763.95605,792.5641,0.01068115234375,0.082763671875,1.021484375,2.130889892578125,-3.431854248046875,-4.418792724609375,1,1.0,1.0,1.0,1.0,85.00
2021-04-27 08:36:05.544,0.11898077,0.0,0.6297733,0.6670491,0.32123625,0.0,0.14771283,0.80953956,0.51746595,0.0,0.30704275,0.51607776,0.8896788,0.0,0.32557532,0.9223288,0.53806114,0.0,-0.0201542,0.40431315,821.978,791.3553,829.2308,820.7692,810.293,0.00238037109375,0.07452392578125,1.0074462890625,4.598236083984375,-3.431854248046875,0.76263427734375,1,1.0,1.0,1.0,1.0,85.00
2021-04-27 08:36:06.053,0.11898077,0.0,0.7007264,0.6670491,0.32123625,0.0,-0.0029571897,0.80953956,0.51746595,0.0,0.22319981,0.51607776,0.8896788,0.0,0.26299068,0.9223288,0.53806114,0.0,0.016387815,0.40431315,801.02563,835.2747,823.5897,791.75824,745.0183,-0.03515625,0.056640625,0.98883056640625,2.190704345703125,-0.052337646484375,-5.211334228515625,1,1.0,1.0,1.0,1.0,85.00
2021-04-27 08:36:06.490,,,,,,,,,,,,,,,,,,,,,,,,,,,,,,,,,,,,,,/muse/elements/blink
2021-04-27 08:36:06.562,0.11898077,0.0,0.7284712,0.6670491,0.32123625,0.0,0.024950402,0.80953956,0.51746595,0.0,0.22534037,0.51607776,0.8896788,0.0,0.28265843,0.9223288,0.53806114,0.0,-0.03345264,0.40431315,791.3553,796.1905,817.9487,798.60803,633.4066,-0.1396484375,0.01507568359375,0.9832763671875,1.8243408203125,9.7796630859375,7.22259521484375,1,1.0,1.0,1.0,1.0,85.00
2021-04-27 08:36:07.077,0.11898077,0.0,0.94460094,0.6670491,0.32123625,0.0,0.28110927,0.80953956,0.51746595,0.0,0.40713924,0.51607776,0.8896788,0.0,0.26454127,0.9223288,0.53806114,0.0,-0.09627788,0.40431315,768.3883,801.8315,816.7399,790.9524,786.9231,-0.21124267578125,0.0504150390625,0.9718017578125,8.17962646484375,1.1065673828125,1.637420654296875,1,1.0,1.0,1.0,1.0,85.00
2021-04-27 08:36:07.583,0.11898077,0.0,1.0487921,0.6670491,0.32123625,0.0,0.3082272,0.80953956,0.51746595,0.0,0.46213388,0.51607776,0.8896788,0.0,0.27200755,0.9223288,0.53806114,0.0,-0.09572864,0.40431315,774.43225,851.79486,819.5604,809.4872,785.31134,-0.2449951171875,0.05859375,0.96954345703125,-5.802001953125,-3.386993408203125,23.7164306640625,1,2.0,1.0,1.0,2.0,85.00
2021-04-27 08:36:07.706,,,,,,,,,,,,,,,,,,,,,,,,,,,,,,,,,,,,,,/muse/elements/jaw_clench
2021-04-27 08:36:08.099,0.11898077,0.0,1.144816,0.6670491,0.32123625,0.0,0.3810768,0.80953956,0.51746595,0.0,0.40934727,0.51607776,0.8896788,0.0,0.24953568,0.9223288,0.53806114,0.0,-0.08078897,0.40431315,806.6667,783.69965,805.4579,803.44324,805.4579,-0.186279296875,0.0535888671875,0.96771240234375,8.32916259765625,-14.871368408203125,4.074859619140625,1,2.0,1.0,1.0,2.0,85.00
2021-04-27 08:36:08.627,0.11898077,0.0,0.8737889,1.1562561,0.32123625,0.0,0.17675647,0.8287553,0.51746595,0.0,0.3896325,0.6054237,0.8896788,0.0,0.27008444,0.81166416,0.53806114,0.0,0.014470708,0.2634733,813.91943,742.6007,797.3993,829.6337,956.55676,-0.16094970703125,0.03466796875,0.9749755859375,2.923431396484375,-6.332855224609375,-3.30474853515625,1,1.0,1.0,1.0,1.0,85.00
2021-04-27 08:36:08.923,,,,,,,,,,,,,,,,,,,,,,,,,,,,,,,,,,,,,,/muse/elements/blink
2021-04-27 08:36:09.150,0.11898077,0.0,0.72508883,1.221,0.32123625,0.0,0.1862488,0.92051136,0.51746595,0.0,0.2924078,0.7410078,0.8896788,0.0,0.35843235,0.79717594,0.53806114,0.0,0.043589104,0.32787016,777.6557,880.40295,809.4872,789.7436,697.8755,-0.1468505859375,-0.0169677734375,1.022216796875,5.8319091796875,-12.060089111328125,21.376190185546875,1,1.0,1.0,1.0,1.0,85.00
2021-04-27 08:36:09.630,,,,,,,,,,,,,,,,,,,,,,,,,,,,,,,,,,,,,,/muse/elements/blink
2021-04-27 08:36:09.654,0.11898077,0.0,0.61860156,1.3035436,0.32123625,0.0,0.23848458,0.93243366,0.51746595,0.0,0.36537558,0.7151759,0.8896788,0.0,0.38053894,0.7663157,0.53806114,0.0,0.043443054,0.39544842,739.7802,820.7692,808.68134,846.9597,864.2857,0.07177734375,0.07061767578125,0.93096923828125,9.562835693359375,-9.622650146484375,-24.845428466796875,1,1.0,1.0,1.0,1.0,85.00
2021-04-27 08:36:10.172,0.11898077,0.0,0.68844104,1.3494554,0.32123625,0.0,0.2179405,0.9730897,0.51746595,0.0,0.52601624,0.71146774,0.8896788,0.0,0.3472338,0.7541116,0.53806114,0.0,-0.047699492,0.45257673,815.9341,819.15753,809.0842,745.82416,804.65204,0.01654052734375,0.03277587890625,1.0028076171875,-3.192596435546875,2.40753173828125,-2.699127197265625,1,1.0,1.0,1.0,1.0,85.00
2021-04-27 08:36:10.683,0.11898077,0.0,0.9736626,1.3494554,0.32123625,0.0,0.46829545,0.9730897,0.51746595,0.0,0.55110264,0.71146774,0.8896788,0.0,0.34131855,0.7541116,0.53806114,0.0,-0.101407655,0.45257673,794.17584,871.9414,825.6044,792.1612,815.9341,-0.037109375,0.05859375,1.004150390625,6.482391357421875,-6.527252197265625,-6.856231689453125,1,1.0,1.0,1.0,1.0,85.00
2021-04-27 08:36:11.208,0.11898077,0.0,0.92457265,1.3494554,0.32123625,0.0,0.44669217,0.9730897,0.51746595,0.0,0.4698344,0.71146774,0.8896788,0.0,0.35867307,0.7541116,0.53806114,0.0,-0.18201004,0.45257673,804.2491,817.1429,818.7546,823.1868,855.0183,-0.03729248046875,0.04119873046875,0.99981689453125,2.58697509765625,-5.181427001953125,-2.908477783203125,1,1.0,1.0,1.0,1.0,80.00
2021-04-27 08:36:11.277,,,,,,,,,,,,,,,,,,,,,,,,,,,,,,,,,,,,,,/muse/elements/jaw_clench
2021-04-27 08:36:11.738,0.11898077,0.0,0.8564927,1.3494554,0.32123625,0.0,0.41843244,0.9730897,0.51746595,0.0,0.45610544,0.71146774,0.8896788,0.0,0.3630047,0.7541116,0.53806114,0.0,-0.28645396,0.45257673,790.14655,875.9707,815.12823,726.08057,726.4835,-0.0318603515625,0.01116943359375,0.9884033203125,2.071075439453125,-7.58148193359375,7.454376220703125,1,2.0,1.0,1.0,2.0,80.00
2021-04-27 08:36:12.246,1.4780065,0.0,0.38196823,1.3494554,1.0284352,0.0,0.15727332,0.9730897,1.079561,0.0,0.41041264,0.71146774,0.7207235,0.0,0.28796858,0.7541116,0.20161895,0.0,-0.32122487,0.45257673,809.89014,799.011,805.05493,811.9048,840.9158,-0.0111083984375,0.059326171875,1.02734375,6.482391357421875,-11.37969970703125,1.009368896484375,1,1.0,1.0,1.0,1.0,80.00
2021-04-27 08:36:12.770,1.4456414,0.0,0.2352969,1.3494554,1.0375437,0.0,-0.04936845,0.9730897,1.079561,0.0,0.35096785,0.71146774,0.73411334,0.0,0.25013715,0.7541116,0.09385689,0.0,-0.32455188,0.45257673,818.7546,806.6667,822.381,821.1722,800.2198,-0.01959228515625,0.06475830078125,0.99493408203125,9.263763427734375,-6.4300537109375,2.03369140625,1,1.0,1.0,1.0,1.0,80.00
2021-04-27 08:36:13.275,1.4477273,0.0,0.45237762,1.3494554,1.0202085,0.0,-0.04977679,0.9730897,1.079561,0.0,0.32557264,0.71146774,0.7199094,0.0,0.21538118,0.7541116,0.095227085,0.0,-0.20678358,0.45257673,801.4286,833.663,813.5165,802.6374,723.663,1.220703125E-4,0.0821533203125,0.9959716796875,6.392669677734375,-4.972076416015625,0.46356201171875,1,1.0,1.0,1.0,1.0,80.00
2021-04-27 08:36:13.782,1.4477273,0.0,0.44282216,1.3494554,1.0202085,0.0,-0.15756696,0.9730897,1.079561,0.0,0.32078195,0.71146774,0.7199094,0.0,0.20081186,0.7541116,0.095227085,0.0,-0.20401266,0.45257673,812.71063,786.52014,813.5165,830.84247,851.79486,-0.04669189453125,0.0753173828125,0.99993896484375,3.431854248046875,-3.050537109375,0.2691650390625,1,1.0,1.0,1.0,1.0,80.00
2021-04-27 08:36:14.303,1.4477273,0.0,0.47602385,1.3494554,1.0202085,0.0,-0.14543216,0.9730897,1.079561,0.0,0.32078195,0.71146774,0.7199094,0.0,0.19822098,0.7541116,0.095227085,0.0,-0.12444837,0.45257673,798.20514,807.47253,816.7399,801.4286,875.56775,-0.05474853515625,0.03472900390625,0.99932861328125,0.979461669921875,-2.94586181640625,2.9608154296875,1,1.0,1.0,1.0,1.0,80.00
2021-04-27 08:36:14.825,0.68734974,0.0,0.18615079,1.4441661,0.30732003,0.0,-0.3744072,1.2453276,0.39829186,0.0,0.10772096,0.89722484,0.5961057,0.0,0.1922782,0.8323471,0.43673605,0.0,-0.11291508,0.34928313,775.2381,831.2454,807.8755,777.25275,705.12823,-0.03912353515625,0.0391845703125,0.9893798828125,2.46734619140625,-4.94964599609375,-1.383209228515625,1,1.0,1.0,1.0,1.0,80.00
2021-04-27 08:36:15.328,0.68734974,0.0,-0.018042337,1.3712149,0.30732003,0.0,-0.3898577,1.188032,0.39829186,0.0,0.167782,0.9614365,0.5961057,0.0,0.21446326,0.81468546,0.43673605,0.0,-0.13093075,0.3610109,839.707,725.2747,821.1722,874.35895,1027.8755,-0.01800537109375,0.03265380859375,1.00482177734375,5.899200439453125,-4.867401123046875,0.695343017578125,1,1.0,1.0,1.0,1.0,80.00
2021-04-27 08:36:15.839,0.9526461,0.0,0.1465197,1.3562348,0.45908928,0.0,-0.122712284,1.2093992,0.7046334,0.0,0.3773618,0.9614365,0.57769805,0.0,0.25297585,0.78149015,0.43246496,0.0,-0.14749369,0.3597916,778.86444,833.2601,830.84247,755.4945,711.5751,0.02386474609375,0.04534912109375,0.98028564453125,6.392669677734375,-5.8319091796875,2.37762451171875,1,1.0,1.0,1.0,1.0,80.00
2021-04-27 08:36:16.141,,,,,,,,,,,,,,,,,,,,,,,,,,,,,,,,,,,,,,/muse/elements/blink
2021-04-27 08:36:16.360,1.2536917,0.0,0.5308594,1.1538534,0.6008152,0.0,0.021851428,1.0014112,0.69590765,0.0,0.5186984,0.928437,0.65768456,0.0,0.2869907,0.7366258,0.41657686,0.0,-0.2037497,0.38359407,805.8608,791.3553,820.3663,795.38464,790.9524,8.544921875E-4,0.068359375,1.03509521484375,5.061798095703125,-13.061981201171875,6.220703125,1,1.0,1.0,1.0,1.0,80.00
2021-04-27 08:36:16.865,1.2536917,0.0,0.70814234,1.1538534,0.6008152,0.0,0.17653066,1.0014112,0.69590765,0.0,0.5673891,0.928437,0.65768456,0.0,0.30631474,0.7366258,0.41657686,0.0,-0.1300806,0.38359407,788.93774,813.91943,814.3223,772.4176,836.08057,0.01580810546875,0.03778076171875,0.9962158203125,2.444915771484375,-4.366455078125,-1.772003173828125,1,1.0,1.0,1.0,1.0,80.00
2021-04-27 08:36:17.363,,,,,,,,,,,,,,,,,,,,,,,,,,,,,,,,,,,,,,/muse/elements/blink
2021-04-27 08:36:17.391,1.2536917,0.0,0.8631052,1.1538534,0.6008152,0.0,0.26917028,1.0014112,0.69590765,0.0,0.63331634,0.928437,0.65768456,0.0,0.2718383,0.7366258,0.41657686,0.0,-0.14337556,0.38359407,828.8278,871.53845,819.15753,834.87177,746.2271,-0.04205322265625,0.00213623046875,0.96783447265625,6.4599609375,-6.527252197265625,-16.336822509765625,1,1.0,1.0,1.0,1.0,80.00
2021-04-27 08:36:17.910,1.2536917,0.0,0.86712116,1.1538534,0.6008152,0.0,0.52948177,1.0014112,0.69590765,0.0,0.64710444,0.928437,0.65768456,0.0,0.24633293,0.7366258,0.41657686,0.0,-0.082160674,0.38359407,790.14655,774.43225,809.0842,794.9817,784.10254,0.0294189453125,0.02587890625,1.0045166015625,1.80938720703125,-4.553375244140625,5.719757080078125,1,2.0,1.0,1.0,2.0,80.00
2021-04-27 08:36:18.427,1.2536917,0.0,0.8425262,1.1538534,0.6008152,0.0,0.5141083,1.0014112,0.69590765,0.0,0.5611128,0.928437,0.65768456,0.0,0.28329325,0.7366258,0.41657686,0.0,-0.17555352,0.38359407,791.75824,831.6484,809.4872,799.41394,839.707,-0.0152587890625,0.047607421875,1.00701904296875,5.81695556640625,-0.28411865234375,4.074859619140625,1,2.0,1.0,1.0,2.0,80.00
2021-04-27 08:36:18.955,1.2536917,0.0,0.87128204,1.1538534,0.6008152,0.0,0.5481246,1.0014112,0.69590765,0.0,0.5014575,0.928437,0.65768456,0.0,0.26089063,0.7366258,0.41657686,0.0,-0.22459114,0.38359407,805.8608,842.1245,817.9487,813.91943,779.2674,0.01544189453125,0.02166748046875,0.99566650390625,5.181427001953125,-6.10107421875,4.523468017578125,1,2.0,1.0,1.0,2.0,80.00
2021-04-27 08:36:19.480,1.2536917,0.0,0.84905493,1.1538534,0.6008152,0.0,0.40469965,1.0014112,0.69590765,0.0,0.41281602,0.928437,0.65768456,0.0,0.2343325,0.7366258,0.41657686,0.0,-0.3121052,0.38359407,802.6374,809.0842,806.26373,806.6667,835.2747,0.0113525390625,0.02423095703125,1.00048828125,3.46923828125,-3.715972900390625,3.9776611328125,1,2.0,1.0,1.0,2.0,80.00
2021-04-27 08:36:20.007,1.2536917,0.0,0.7647996,1.1538534,0.6008152,0.0,0.38130283,1.0014112,0.69590765,0.0,0.41404608,0.928437,0.65768456,0.0,0.11752179,0.7366258,0.41657686,0.0,-0.3024005,0.38359407,782.0879,857.03296,809.0842,804.65204,742.1978,0.03131103515625,0.04949951171875,1.00592041015625,8.20953369140625,-0.9869384765625,2.82623291015625,1,2.0,1.0,1.0,2.0,80.00
2021-04-27 08:36:20.535,0.972789,0.0,0.5319271,1.1538534,0.78697664,0.0,0.27735537,1.0014112,0.72410345,0.0,0.35332495,0.928437,0.48533955,0.0,0.08946169,0.7366258,0.25239754,0.0,-0.33982468,0.38359407,801.8315,748.6447,806.6667,815.9341,869.12085,-0.06396484375,0.0810546875,1.0079345703125,7.40203857421875,1.428070068359375,0.04486083984375,1,1.0,1.0,1.0,1.0,80.00
2021-04-27 08:36:21.044,0.972789,0.0,0.5416551,1.1538534,0.78697664,0.0,0.16731356,1.0014112,0.72410345,0.0,0.3276126,0.928437,0.48533955,0.0,0.09973485,0.7366258,0.25239754,0.0,-0.27968416,0.38359407,806.6667,812.71063,809.0842,790.14655,670.4762,-0.07208251953125,0.0325927734375,0.99041748046875,-2.310333251953125,-2.983245849609375,4.11224365234375,1,1.0,1.0,1.0,1.0,80.00
2021-04-27 08:36:21.553,1.0726622,0.0,0.5148409,1.1538534,0.9389806,0.0,0.12233239,1.0014112,0.72410345,0.0,0.32156903,0.928437,0.4824503,0.0,0.095066376,0.7366258,0.2753486,0.0,-0.28293192,0.38359407,815.9341,838.49817,808.2784,791.75824,733.3333,-0.07666015625,0.03656005859375,1.00750732421875,2.714080810546875,-7.319793701171875,3.865509033203125,1,1.0,1.0,1.0,1.0,90.00
2021-04-27 08:36:22.077,1.0726622,0.0,0.30812958,1.1538534,0.9389806,0.0,0.0010442312,1.0014112,0.72410345,0.0,0.14401096,0.928437,0.4824503,0.0,0.06494772,0.7366258,0.2753486,0.0,-0.28899497,0.38359407,803.0403,811.50183,814.3223,795.38464,730.5128,-0.00885009765625,0.02734375,1.02838134765625,-0.785064697265625,-10.699310302734375,1.562652587890625,1,1.0,1.0,1.0,1.0,90.00
2021-04-27 08:36:22.589,1.0726622,0.0,0.14848419,0.89995486,0.9389806,0.0,0.2301228,0.6795168,0.72410345,0.0,0.22436357,0.5447751,0.4824503,0.0,0.072000995,0.6617014,0.2753486,0.0,-0.30082497,0.6202388,792.5641,848.1685,811.9048,788.93774,784.5055,0.02520751953125,0.06292724609375,1.0035400390625,5.345916748046875,-4.62066650390625,3.581390380859375,1,1.0,1.0,1.0,1.0,90.00
2021-04-27 08:36:23.092,1.0726622,0.0,0.25936607,0.8945179,0.9389806,0.0,0.4106298,0.7330306,0.72410345,0.0,0.25311634,0.67560166,0.4824503,0.0,0.05802792,0.68089443,0.2753486,0.0,-0.24432121,0.5804455,791.3553,834.4689,807.0696,790.14655,697.8755,0.02008056640625,0.0762939453125,1.0234375,5.091705322265625,-12.119903564453125,1.248626708984375,1,1.0,1.0,1.0,1.0,90.00
2021-04-27 08:36:23.542,,,,,,,,,,,,,,,,,,,,,,,,,,,,,,,,,,,,,,/muse/elements/blink
2021-04-27 08:36:23.611,1.0726622,0.0,0.3042211,0.84173584,0.9389806,0.0,0.38172635,0.79334825,0.72410345,0.0,0.2608029,0.73217696,0.4824503,0.0,0.08589526,0.74095887,0.2753486,0.0,-0.18499905,0.47700086,811.0989,788.5348,812.71063,806.6667,900.54944,-0.0089111328125,0.06964111328125,0.99224853515625,6.572113037109375,-3.1402587890625,2.624359130859375,1,1.0,1.0,1.0,1.0,90.00
2021-04-27 08:36:24.119,1.0726622,0.0,0.26508337,0.81626487,0.9389806,0.0,0.40381584,0.7857172,0.72410345,0.0,0.43512085,0.73198116,0.4824503,0.0,0.08990868,0.7556361,0.2753486,0.0,-0.20310187,0.40310255,814.7253,767.1795,800.2198,810.293,888.0586,0.01519775390625,0.0791015625,1.0064697265625,0.306549072265625,1.256103515625,0.859832763671875,1,1.0,1.0,1.0,1.0,90.00
2021-04-27 08:36:24.381,,,,,,,,,,,,,,,,,,,,,,,,,,,,,,,,,,,,,,/muse/elements/blink
2021-04-27 08:36:24.623,1.0726622,0.0,0.01584002,0.81626487,0.9389806,0.0,0.31271964,0.7857172,0.72410345,0.0,0.43355173,0.73198116,0.4824503,0.0,0.12546533,0.7556361,0.2753486,0.0,-0.21379082,0.40310255,792.96704,847.3626,804.2491,773.22345,751.06226,-0.0640869140625,0.1153564453125,1.00067138671875,7.155303955078125,8.9422607421875,-1.936492919921875,1,1.0,1.0,1.0,1.0,90.00
2021-04-27 08:36:25.143,1.0726622,0.0,-0.028333828,0.81626487,0.9389806,0.0,0.45195073,0.7857172,0.72410345,0.0,0.43287137,0.73198116,0.4824503,0.0,0.15550736,0.7556361,0.2753486,0.0,-0.2970843,0.40310255,805.8608,851.79486,810.696,807.47253,794.9817,-0.232421875,0.04083251953125,0.98028564453125,-2.684173583984375,6.38519287109375,-5.465545654296875,1,1.0,1.0,1.0,1.0,90.00
2021-04-27 08:36:25.655,1.0726622,0.0,0.3854128,0.81626487,0.9389806,0.0,0.31071413,0.7857172,0.72410345,0.0,0.3568081,0.73198116,0.4824503,0.0,0.26152262,0.7556361,0.2753486,0.0,-0.10614439,0.40310255,803.44324,808.2784,804.65204,812.3077,816.7399,-0.32635498046875,0.04791259765625,0.96173095703125,1.936492919921875,-4.53094482421875,2.848663330078125,1,2.0,1.0,1.0,2.0,90.00
2021-04-27 08:36:26.164,1.0726622,0.0,0.4325903,0.81626487,0.9389806,0.0,0.16323152,0.7857172,0.72410345,0.0,0.23270829,0.73198116,0.4824503,0.0,0.2578545,0.7556361,0.2753486,0.0,0.19525026,0.40310255,784.90845,867.1062,811.0989,788.5348,699.4872,-0.25732421875,0.01629638671875,0.97235107421875,4.62066650390625,-4.523468017578125,1.30096435546875,1,2.0,1.0,1.0,2.0,90.00
2021-04-27 08:36:26.665,1.0726622,0.0,0.47611493,0.81626487,0.9389806,0.0,0.0730421,0.7857172,0.72410345,0.0,0.31698024,0.73198116,0.4824503,0.0,0.31353676,0.7556361,0.2753486,0.0,0.15325828,0.40310255,809.4872,785.31134,803.0403,813.1135,808.68134,-0.2691650390625,0.01910400390625,0.966064453125,5.1141357421875,-4.643096923828125,1.03179931640625,1,2.0,1.0,1.0,2.0,90.00
2021-04-27 08:36:27.173,0.52941453,0.0,0.4114988,0.7792758,-0.061192736,0.0,0.07813898,0.34027722,0.6951572,0.0,0.39478523,0.5377699,0.71270454,0.0,0.29310063,0.80507976,0.21538669,0.0,0.09753917,0.50513864,802.23444,820.7692,796.5934,800.2198,778.0586,-0.271728515625,0.0142822265625,0.96636962890625,4.5458984375,-5.555267333984375,1.00189208984375,1,1.0,1.0,1.0,1.0,90.00
2021-04-27 08:36:27.511,,,,,,,,,,,,,,,,,,,,,,,,,,,,,,,,,,,,,,/muse/elements/jaw_clench
2021-04-27 08:36:27.684,0.56051,0.0,0.6354167,0.8658771,0.056266155,0.0,0.40570644,0.36941308,0.74967295,0.0,0.64840895,0.67805505,0.7250736,0.0,0.3119619,0.82726884,0.25078595,0.0,-0.0312038,0.51484096,751.8681,836.08057,805.8608,773.22345,910.6227,-0.21734619140625,0.05450439453125,1.000732421875,0.37384033203125,-17.36114501953125,5.809478759765625,1,1.0,1.0,1.0,1.0,90.00
2021-04-27 08:36:28.086,,,,,,,,,,,,,,,,,,,,,,,,,,,,,,,,,,,,,,/muse/elements/jaw_clench
2021-04-27 08:36:28.122,,,,,,,,,,,,,,,,,,,,,,,,,,,,,,,,,,,,,,/muse/elements/blink
2021-04-27 08:36:28.201,0.53248215,0.0,0.78229153,0.8297745,0.08308335,0.0,0.5727358,0.33844167,0.68849653,0.0,0.65048355,0.6336138,0.74766487,0.0,0.26536795,0.8402183,0.19466653,0.0,-0.018831454,0.48334303,735.7509,929.5604,737.3626,740.989,803.44324,-0.22283935546875,-0.03118896484375,0.9644775390625,9.562835693359375,-4.62066650390625,-5.93658447265625,1,1.0,1.0,1.0,1.0,90.00
2021-04-27 08:36:28.723,0.63213414,0.0,0.9468174,0.8297745,0.19999431,0.0,0.7263599,0.33844167,0.43296543,0.0,0.6140805,0.6336138,0.7428387,0.0,0.27087575,0.8402183,0.28363165,0.0,0.03270534,0.48334303,821.1722,832.4542,837.6923,820.3663,656.77655,-0.24969482421875,0.0167236328125,0.9720458984375,6.74407958984375,-1.00189208984375,-1.009368896484375,1,1.0,1.0,1.0,1.0,90.00
2021-04-27 08:36:29.238,0.63213414,0.0,1.0777621,0.8297745,0.19999431,0.0,0.8222237,0.33844167,0.43296543,0.0,0.5686919,0.6336138,0.7428387,0.0,0.21785463,0.8402183,0.28363165,0.0,0.14222136,0.48334303,794.9817,866.7033,828.4249,793.36993,701.50183,-0.2950439453125,0.02239990234375,0.95758056640625,7.663726806640625,-2.803802490234375,2.310333251953125,1,1.0,1.0,1.0,1.0,90.00
2021-04-27 08:36:29.761,0.63213414,0.0,0.38547638,0.8297745,0.19999431,0.0,0.38142163,0.33844167,0.43296543,0.0,0.06257134,0.6336138,0.7428387,0.0,0.21482883,0.8402183,0.28363165,0.0,-0.42251757,0.48334303,836.4835,803.0403,819.5604,835.2747,824.7985,-0.294189453125,0.0091552734375,0.951416015625,4.366455078125,-5.809478759765625,1.57012939453125,1,1.0,1.0,1.0,1.0,90.00
2021-04-27 08:36:30.286,0.63213414,0.0,0.27495524,0.74471074,0.19999431,0.0,0.19355477,0.22316964,0.43296543,0.0,0.09842776,0.3953662,0.7428387,0.0,0.17041151,0.6723443,0.28363165,0.0,-0.43764773,0.45826492,822.381,823.5897,815.9341,816.337,736.9597,-0.2958984375,0.0072021484375,0.95733642578125,4.35150146484375,-4.42626953125,1.099090576171875,1,1.0,1.0,1.0,1.0,90.00
2021-04-27 08:36:30.810,0.9896454,0.0,0.33806658,0.8235818,0.61463314,0.0,0.10929558,0.41399372,0.61750174,0.0,0.09842776,0.64097375,0.5884065,0.0,0.14843307,0.6342366,0.29862636,0.0,-0.38854325,0.52536565,820.7692,805.8608,804.65204,813.1135,753.8828,-0.29718017578125,0.017333984375,0.95782470703125,7.110443115234375,-4.987030029296875,0.67291259765625,1,1.0,1.0,1.0,1.0,90.00
2021-04-27 08:36:31.319,0.88399,0.0,0.4314254,0.79446936,0.5072139,0.0,-0.05709699,0.42443055,0.7344165,0.0,0.1584835,0.63233715,0.5840704,0.0,0.047189053,0.63186854,0.267417,0.0,-0.39550057,0.51176554,809.4872,809.0842,804.65204,809.89014,794.9817,-0.3017578125,0.0223388671875,0.9552001953125,5.2935791015625,-3.925323486328125,0.097198486328125,1,1.0,1.0,1.0,1.0,90.00
2021-04-27 08:36:31.830,0.71764684,0.0,0.547483,0.63287836,0.35137463,0.0,0.122858115,0.46438298,0.73050594,0.0,0.34705618,0.6616811,0.5138983,0.0,0.034159645,0.55690014,0.26154462,0.0,-0.37288722,0.48005635,790.14655,835.2747,820.3663,788.1319,722.0513,-0.30145263671875,0.02264404296875,0.9564208984375,4.403839111328125,-4.254302978515625,1.173858642578125,1,1.0,1.0,1.0,1.0,85.00
2021-04-27 08:36:32.343,0.40819487,0.0,0.57751167,0.030437468,0.11366802,0.0,0.15442099,0.31423005,0.6469726,0.0,0.34705618,0.36630186,0.5053174,0.0,-0.017467948,0.5461602,0.25292686,0.0,-0.3952956,0.33819863,775.2381,811.50183,809.89014,772.8205,735.34796,-0.30194091796875,0.01922607421875,0.9501953125,4.246826171875,-3.3197021484375,1.472930908203125,1,1.0,1.0,1.0,1.0,85.00
2021-04-27 08:36:32.857,0.2476983,0.0,0.69675356,0.030437468,0.038627665,0.0,0.16715911,0.31423005,0.56295085,0.0,0.3451279,0.36630186,0.46465248,0.0,0.093754284,0.5461602,0.27296978,0.0,-0.30899084,0.33819863,791.75824,819.9634,801.8315,799.011,767.5824,-0.30291748046875,0.01385498046875,0.9521484375,4.8748779296875,-4.299163818359375,1.502838134765625,1,1.0,1.0,1.0,1.0,85.00
2021-04-27 08:36:33.359,0.13487786,0.0,0.6738377,-0.2582102,-0.13427153,0.0,0.032302547,0.34015608,0.22552565,0.0,0.08342061,0.31104758,0.4902613,0.0,0.062936895,0.5653186,0.25511366,0.0,-0.26665142,0.32159755,796.99634,880.40295,805.05493,774.43225,741.39197,-0.32696533203125,0.0269775390625,0.95330810546875,5.18890380859375,-3.12530517578125,2.265472412109375,1,1.0,1.0,1.0,1.0,85.00
2021-04-27 08:36:33.867,0.8406832,0.0,0.6854583,0.85954267,0.88135356,0.0,0.12999466,0.9387069,0.96404,0.0,0.31970605,0.8866992,0.6779664,0.0,0.12701136,0.7164277,0.29924643,0.0,-0.27526575,0.48698854,805.8608,798.60803,808.68134,803.44324,816.337,-0.324462890625,0.07147216796875,0.9578857421875,12.000274658203125,-3.45428466796875,10.116119384765625,1,1.0,1.0,1.0,1.0,85.00
2021-04-27 08:36:34.377,1.2300037,0.0,0.7540515,1.0085063,1.1404823,0.0,0.24751161,1.076961,1.025915,0.0,0.34088367,0.99877936,0.7066564,0.0,0.18875091,0.6351995,0.20482448,0.0,-0.23794164,0.47885725,808.68134,823.1868,803.8461,818.3516,741.79486,-0.31744384765625,0.03729248046875,0.94940185546875,3.386993408203125,-3.768310546875,0.949554443359375,1,1.0,1.0,1.0,1.0,85.00
2021-04-27 08:36:34.889,1.2040503,0.0,0.91181576,1.0868167,1.1037855,0.0,0.48599485,1.0440809,1.0417359,0.0,0.5659972,0.99893165,0.6725826,0.0,0.24377815,0.6197463,0.19837558,0.0,-0.17476875,0.46115986,798.20514,822.381,813.91943,798.60803,675.7143,-0.303466796875,0.01885986328125,0.952880859375,2.9608154296875,-5.69732666015625,1.83929443359375,1,1.0,1.0,1.0,1.0,85.00
2021-04-27 08:36:35.410,1.3357602,0.0,0.89154124,1.1977545,1.2008703,0.0,0.47743237,1.1062437,1.0381356,0.0,0.53377044,0.99023944,0.6691836,0.0,0.20392236,0.5345645,0.12088944,0.0,-0.12925777,0.4417226,841.31866,720.0366,798.20514,844.5421,1109.2675,-0.29571533203125,0.01446533203125,0.94970703125,4.029998779296875,-5.570220947265625,0.381317138671875,1,1.0,1.0,1.0,1.0,85.00
2021-04-27 08:36:35.918,1.0506573,0.0,0.7285354,1.2377728,0.7625926,0.0,0.41978928,0.7601347,0.8268687,0.0,0.53377044,0.9560399,0.4457885,0.0,0.12556837,0.522854,0.2545961,0.0,-0.13117152,0.41643333,817.5458,844.94507,798.60803,808.68134,817.1429,-0.29132080078125,0.00732421875,0.9599609375,4.127197265625,-5.18890380859375,1.054229736328125,1,1.0,1.0,1.0,1.0,85.00
2021-04-27 08:36:36.436,1.1194863,0.0,0.36552116,1.228397,0.56131905,0.0,0.18112189,0.7507798,0.8874095,0.0,0.292757,0.9560399,0.5242948,0.0,0.15502529,0.5257007,0.29263875,0.0,-0.16278118,0.43801156,792.1612,859.85345,809.4872,784.90845,740.58606,-0.300048828125,0.01763916015625,0.9556884765625,4.747772216796875,-4.568328857421875,1.48040771484375,1,1.0,1.0,1.0,1.0,85.00
2021-04-27 08:36:36.951,1.1194863,0.0,0.21621424,1.228397,0.56131905,0.0,0.16450942,0.7507798,0.8874095,0.0,0.28850245,0.9560399,0.5242948,0.0,0.19944188,0.5257007,0.29263875,0.0,-0.1455631,0.43801156,763.5531,763.95605,826.0073,784.90845,809.0842,-0.293212890625,0.01324462890625,0.95513916015625,4.366455078125,-4.246826171875,1.428070068359375,1,1.0,1.0,1.0,1.0,85.00
2021-04-27 08:36:37.456,1.1552943,0.0,0.4763804,1.2937881,0.6601758,0.0,0.32132238,0.8879744,0.8874095,0.0,0.3607157,0.40960407,0.63394415,0.0,0.15451236,0.7476649,0.30504152,0.0,-0.1913574,0.18150903,791.3553,850.18317,799.011,785.31134,706.7399,-0.29400634765625,0.01336669921875,0.953369140625,4.3963623046875,-3.45428466796875,1.099090576171875,1,1.0,1.0,1.0,1.0,85.00
2021-04-27 08:36:37.967,1.1552943,0.0,0.82154405,1.3978693,0.6601758,0.0,0.45744434,0.92105675,0.8874095,0.0,0.5249334,0.50203407,0.63394415,0.0,0.005767406,0.752486,0.30504152,0.0,-0.24981226,0.17119054,807.47253,808.2784,807.8755,803.8461,757.9121,-0.2978515625,0.01556396484375,0.9520263671875,4.074859619140625,-4.2767333984375,0.91217041015625,1,1.0,1.0,1.0,1.0,85.00
2021-04-27 08:36:38.473,1.1552943,0.0,0.90106934,1.3978693,0.6601758,0.0,0.4292102,0.92105675,0.8874095,0.0,0.52729946,0.50203407,0.63394415,0.0,-0.07193906,0.752486,0.30504152,0.0,-0.33888403,0.17119054,797.3993,808.2784,810.696,795.78754,869.12085,-0.307373046875,0.01019287109375,0.95025634765625,4.194488525390625,-4.2169189453125,0.91217041015625,1,1.0,1.0,1.0,1.0,85.00
2021-04-27 08:36:38.984,1.286348,0.0,0.84660536,1.1288677,0.69308347,0.0,0.34041792,0.64246154,0.57807004,0.0,0.52410173,0.44405046,0.51812494,0.0,-0.02713871,0.5874471,0.27015206,0.0,-0.36549303,0.41732776,793.36993,828.4249,802.23444,782.49084,745.0183,-0.30657958984375,0.01513671875,0.952392578125,4.628143310546875,-3.9178466796875,1.816864013671875,1,1.0,1.0,1.0,1.0,85.00
2021-04-27 08:36:39.494,0.21564987,0.0,0.4118073,1.1288677,0.29841822,0.0,0.060291894,0.64246154,0.31012622,0.0,0.2819312,0.44405046,0.41970605,0.0,0.054247964,0.5874471,0.29930973,0.0,-0.36056072,0.41732776,796.5934,793.36993,810.293,797.8022,807.47253,-0.31561279296875,0.015380859375,0.95196533203125,4.493560791015625,-5.5926513671875,1.936492919921875,1,1.0,1.0,1.0,1.0,85.00
2021-04-27 08:36:40.009,0.21564987,0.0,0.18929663,1.1288677,0.29841822,0.0,0.055761248,0.64246154,0.31012622,0.0,0.22364055,0.44405046,0.41970605,0.0,0.05818448,0.5874471,0.29930973,0.0,-0.3045208,0.41732776,794.17584,823.5897,813.5165,784.10254,847.3626,-0.3111572265625,0.017578125,0.95391845703125,4.29168701171875,-3.8580322265625,0.695343017578125,1,1.0,1.0,1.0,1.0,85.00
2021-04-27 08:36:40.527,0.31801918,0.0,-0.044188045,1.1288677,0.31403607,0.0,0.086677976,0.64246154,0.4081905,0.0,0.32088524,0.44405046,0.40322006,0.0,0.0460184,0.5874471,0.3118997,0.0,-0.2873035,0.41732776,730.9158,796.1905,811.50183,729.304,774.83514,-0.3160400390625,0.0118408203125,0.94970703125,4.68048095703125,-4.725341796875,0.919647216796875,1,1.0,1.0,1.0,1.0,85.00
2021-04-27 08:36:41.040,0.31801918,0.0,0.15960228,1.1288677,0.31403607,0.0,0.105740875,0.64246154,0.4081905,0.0,0.16464444,0.44405046,0.40322006,0.0,0.05970353,0.5874471,0.3118997,0.0,-0.27248248,0.41732776,804.65204,793.36993,804.2491,809.89014,932.7839,-0.319580078125,0.009033203125,0.95013427734375,4.85992431640625,-3.940277099609375,1.30096435546875,1,1.0,1.0,1.0,1.0,85.00
2021-04-27 08:36:41.552,0.31801918,0.0,0.36725625,1.1288677,0.31403607,0.0,0.10379775,0.64246154,0.4081905,0.0,0.2926962,0.44405046,0.40322006,0.0,0.089236885,0.5874471,0.3118997,0.0,-0.29466054,0.41732776,798.20514,842.52747,815.5311,800.2198,731.31866,-0.30084228515625,0.0152587890625,0.956787109375,4.90478515625,-7.13287353515625,1.435546875,1,1.0,1.0,1.0,1.0,85.00
2021-04-27 08:36:42.063,0.31801918,0.0,0.38748989,1.1288677,0.31403607,0.0,0.03303958,0.64246154,0.4081905,0.0,0.26705602,0.44405046,0.40322006,0.0,0.085517935,0.5874471,0.3118997,0.0,-0.29913387,0.41732776,813.1135,813.1135,808.68134,811.9048,750.2564,-0.29559326171875,0.02056884765625,0.95892333984375,6.796417236328125,-0.366363525390625,-1.15142822265625,1,2.0,1.0,1.0,2.0,90.00
2021-04-27 08:36:42.568,0.42182043,0.0,0.49318203,0.49292183,0.267718,0.0,0.15520263,0.42759404,0.45299387,0.0,0.4170912,0.2974705,0.5609925,0.0,0.08435768,0.71194637,0.3358234,0.0,-0.28822106,0.4443808,796.99634,744.21246,807.47253,815.9341,1050.0366,-0.31878662109375,0.0269775390625,0.94573974609375,3.805694580078125,-3.730926513671875,1.502838134765625,1,1.0,1.0,1.0,1.0,90.00
2021-04-27 08:36:43.078,0.5973957,0.0,0.5021222,0.49292183,0.32278752,0.0,0.23803024,0.42759404,0.70436823,0.0,0.44348884,0.2974705,0.49938384,0.0,0.12109016,0.71194637,0.34982997,0.0,-0.32424712,0.4443808,800.2198,840.5128,806.6667,805.8608,729.707,-0.3267822265625,0.0174560546875,0.94342041015625,4.209442138671875,-4.508514404296875,1.71966552734375,1,1.0,1.0,1.0,1.0,90.00
2021-04-27 08:36:43.588,0.74112946,0.0,0.7287242,0.53312546,0.41590574,0.0,0.3186777,0.34605724,0.8449374,0.0,0.49376738,0.23271242,0.46197438,0.0,0.24086082,0.71418744,0.30848232,0.0,-0.288612,0.48091304,814.3223,813.91943,794.9817,809.89014,731.31866,-0.34332275390625,0.00738525390625,0.9461669921875,3.887939453125,-1.60003662109375,-0.306549072265625,1,1.0,1.0,1.0,1.0,90.00
2021-04-27 08:36:44.090,0.9212249,0.0,0.89365137,0.53312546,0.4548156,0.0,0.3510133,0.34605724,0.92333853,0.0,0.3906928,0.23271242,0.46541297,0.0,0.23326749,0.71418744,0.24752757,0.0,-0.26773235,0.48091304,807.0696,827.619,799.81683,806.6667,819.9634,-0.3438720703125,0.02191162109375,0.94793701171875,3.96270751953125,-4.44122314453125,1.682281494140625,1,1.0,1.0,1.0,1.0,90.00
2021-04-27 08:36:44.607,0.8365403,0.0,0.8650083,0.53312546,0.40994072,0.0,0.2837103,0.34605724,0.9203169,0.0,0.30580994,0.23271242,0.47532603,0.0,0.15993927,0.71418744,0.19659834,0.0,-0.21802312,0.48091304,773.22345,853.4066,804.65204,763.95605,713.1868,-0.33599853515625,0.0032958984375,0.9425048828125,3.117828369140625,-4.643096923828125,0.007476806640625,1,1.0,1.0,1.0,1.0,90.00
2021-04-27 08:36:45.115,0.8486369,0.0,0.7135101,0.53312546,0.37931925,0.0,0.19041395,0.34605724,0.83578116,0.0,0.25129595,0.23271242,0.50140727,0.0,0.07576761,0.71418744,0.14983833,0.0,-0.26426923,0.48091304,804.2491,803.8461,808.68134,805.4579,780.07324,-0.32647705078125,-0.00115966796875,0.94696044921875,4.478607177734375,-4.8748779296875,0.770111083984375,1,1.0,1.0,1.0,1.0,90.00
2021-04-27 08:36:45.639,0.25096276,0.0,0.33664563,0.53312546,0.2550946,0.0,0.18515731,0.34605724,0.7050573,0.0,0.22896162,0.23271242,0.4424789,0.0,0.099025995,0.71418744,0.16175401,0.0,-0.35631007,0.48091304,762.3443,801.02563,817.1429,767.5824,713.5897,-0.3187255859375,0.001220703125,0.9527587890625,5.27862548828125,-4.643096923828125,1.801910400390625,1,1.0,1.0,1.0,1.0,90.00
2021-04-27 08:36:46.168,0.19838683,0.0,0.36591706,0.53312546,0.26459825,0.0,0.24565956,0.34605724,0.6988816,0.0,0.35189837,0.23271242,0.44785455,0.0,0.16014837,0.71418744,0.14430676,0.0,-0.4922164,0.48091304,807.0696,819.15753,812.3077,806.6667,714.7985,-0.33197021484375,0.0029296875,0.9466552734375,4.41131591796875,-2.6318359375,0.964508056640625,1,1.0,1.0,1.0,1.0,90.00
2021-04-27 08:36:46.688,0.19838683,0.0,0.28798127,0.53312546,0.26459825,0.0,0.21539061,0.34605724,0.6988816,0.0,0.3886281,0.23271242,0.44785455,0.0,0.12833638,0.71418744,0.14430676,0.0,-0.4785176,0.48091304,805.4579,788.5348,793.7729,805.8608,836.08057,-0.3240966796875,0.00103759765625,0.947998046875,4.448699951171875,-5.884246826171875,0.94207763671875,1,1.0,1.0,1.0,1.0,90.00
2021-04-27 08:36:47.202,0.19838683,0.0,0.20390186,0.53312546,0.26459825,0.0,-0.010274365,0.34605724,0.6988816,0.0,0.49892816,0.23271242,0.44785455,0.0,0.075321764,0.71418744,0.14430676,0.0,-0.38070652,0.48091304,791.75824,836.8865,807.0696,786.1172,776.4469,-0.33001708984375,0.00152587890625,0.93603515625,4.687957763671875,-4.0673828125,0.844879150390625,1,1.0,1.0,1.0,1.0,90.00
2021-04-27 08:36:47.707,0.266427,0.0,0.34442624,0.05725522,0.1957612,0.0,-0.014561914,-0.060040724,0.5180761,0.0,0.44082224,0.53751695,0.48789617,0.0,0.051844865,0.5397427,0.23378654,0.0,-0.25230214,0.36909443,796.1905,811.50183,807.8755,793.7729,753.8828,-0.32879638671875,-0.00537109375,0.944580078125,4.598236083984375,-4.269256591796875,1.457977294921875,1,1.0,1.0,1.0,1.0,90.00
2021-04-27 08:36:48.215,0.30290312,0.0,0.38916218,0.14369538,0.20302816,0.0,-0.059521906,-0.041932058,0.5180761,0.0,0.2935282,0.53751695,0.4906823,0.0,0.049302205,0.53091615,0.2240642,0.0,-0.21160172,0.3613045,773.22345,782.0879,805.4579,774.83514,830.0366,-0.3360595703125,-0.00115966796875,0.94219970703125,4.85992431640625,-3.401947021484375,1.906585693359375,1,1.0,1.0,1.0,1.0,90.00
2021-04-27 08:36:48.728,0.4024706,0.0,0.7972533,0.27449584,0.2062331,0.0,-0.06356329,-0.032799806,0.5137019,0.0,0.17665988,0.521536,0.50638247,0.0,0.031088246,0.53800714,0.20757009,0.0,-0.26145092,0.38923186,781.28204,854.61536,806.6667,775.64105,732.1245,-0.34503173828125,0.008544921875,0.94036865234375,4.538421630859375,-4.089813232421875,2.34771728515625,1,1.0,1.0,1.0,1.0,90.00
2021-04-27 08:36:49.258,0.5047286,0.0,0.92394596,0.42391264,0.19617148,0.0,-0.0513895,-0.05311694,0.3965162,0.0,0.2420069,0.487719,0.51100993,0.0,0.05994667,0.50004387,0.17200305,0.0,-0.3248865,0.3753024,812.71063,785.7143,797.3993,812.71063,819.15753,-0.35430908203125,0.00299072265625,0.93927001953125,4.366455078125,-3.94775390625,0.635528564453125,1,1.0,1.0,1.0,1.0,90.00
2021-04-27 08:36:49.784,1.0151267,0.0,1.0731809,1.5659811,0.7758223,0.0,0.036149137,0.99777687,0.9172835,0.0,0.2420069,1.0399888,0.44272807,0.0,0.07635532,0.51936024,0.2272128,0.0,-0.37095612,0.3387891,807.8755,828.8278,805.8608,810.696,759.5238,-0.3565673828125,0.0089111328125,0.9342041015625,4.97955322265625,-4.852447509765625,1.24114990234375,1,1.0,1.0,1.0,1.0,90.00
2021-04-27 08:36:50.315,1.0263991,0.0,0.7161125,1.5659811,0.55662036,0.0,0.16320723,0.99777687,0.9205001,0.0,0.0109609105,1.0399888,0.40991846,0.0,0.10435049,0.51936024,0.24126591,0.0,-0.2503601,0.3387891,796.99634,842.52747,802.23444,788.1319,730.5128,-0.3565673828125,0.00396728515625,0.938232421875,4.66552734375,-4.553375244140625,0.381317138671875,1,1.0,1.0,1.0,1.0,90.00
2021-04-27 08:36:50.816,0.9964088,0.0,0.16967905,1.3735452,0.46755087,0.0,0.26347333,0.8488749,0.93245065,0.0,-0.06910452,1.0799023,0.38993582,0.0,0.059336074,0.47067493,0.22608997,0.0,-0.38430712,0.3155632,801.4286,807.47253,803.8461,810.696,755.09155,-0.3509521484375,0.0189208984375,0.9488525390625,5.443115234375,-5.99639892578125,0.6280517578125,1,1.0,1.0,1.0,1.0,90.00
2021-04-27 08:36:51.323,0.97440314,0.0,0.31050515,0.8430621,0.32694736,0.0,0.31042424,0.7148316,0.8847666,0.0,0.13654065,0.9590982,0.3651798,0.0,0.16835836,0.52304846,0.17809515,0.0,-0.3861239,0.3502887,779.67035,814.3223,811.50183,778.46155,679.34064,-0.312744140625,-0.005615234375,0.95086669921875,2.654266357421875,-15.589141845703125,3.87298583984375,1,1.0,1.0,1.0,1.0,90.00
2021-04-27 08:36:51.833,1.0680082,0.0,0.39975855,0.95006394,0.5274726,0.0,0.35733402,0.9229903,0.9405673,0.0,0.21211354,1.1032348,0.45873865,0.0,0.21252681,0.5455885,0.13407296,0.0,-0.39586985,0.26286224,787.72894,824.7985,815.12823,794.9817,736.1539,-0.27374267578125,0.04974365234375,0.9788818359375,3.51409912109375,-6.6094970703125,8.05999755859375,1,1.0,1.0,1.0,1.0,90.00
2021-04-27 08:36:52.346,1.4549935,0.0,0.7394864,0.99402386,0.767738,0.0,0.43982875,1.0041734,0.9582366,0.0,0.24270599,1.0474076,0.8699776,0.0,0.1735499,0.5858672,0.28202513,0.0,-0.39000338,0.25610432,806.6667,811.0989,811.9048,801.02563,799.011,-0.27587890625,0.0107421875,0.95330810546875,4.000091552734375,-5.585174560546875,2.803802490234375,1,1.0,1.0,1.0,1.0,85.00
2021-04-27 08:36:52.866,1.5424976,0.0,0.8538722,1.0945157,1.0228964,0.0,0.44225794,1.0788227,0.9051714,0.0,0.17024326,1.0134169,0.90605146,0.0,0.05684671,0.5800027,0.33842936,0.0,-0.39460912,0.23059268,799.011,832.8571,812.3077,787.326,801.8315,-0.302490234375,0.01348876953125,0.96124267578125,1.48040771484375,-3.18511962890625,2.340240478515625,1,1.0,1.0,1.0,1.0,85.00
2021-04-27 08:36:53.368,1.3904907,0.0,0.8289444,0.9581915,0.90499485,0.0,0.37931702,0.78987175,0.88200235,0.0,0.16582225,0.81412864,0.79988235,0.0,-0.013051478,0.68080974,0.4380367,0.0,-0.40999004,0.4924342,814.7253,770.80585,799.41394,823.5897,904.9817,-0.3248291015625,-0.0015869140625,0.94525146484375,2.99072265625,-3.170166015625,3.0206298828125,1,1.0,1.0,1.0,1.0,85.00
2021-04-27 08:36:53.871,1.0744383,0.0,0.55748945,0.9512356,0.85791236,0.0,0.17256178,0.8087688,1.0037141,0.0,0.10558388,0.9589114,0.50009334,0.0,0.008313539,0.6650725,0.4909584,0.0,-0.15371129,0.50150955,798.20514,816.337,814.3223,789.7436,810.293,-0.333251953125,-0.00567626953125,0.9439697265625,5.21881103515625,-1.547698974609375,2.115936279296875,1,1.0,1.0,1.0,1.0,85.00
2021-04-27 08:36:54.382,0.9829283,0.0,0.32366067,0.836288,0.75683635,0.0,0.1011844,0.6607898,1.0430605,0.0,0.06287727,0.80010474,0.45208672,0.0,0.02046366,0.71740264,0.47828,0.0,-0.035335258,0.56795716,761.13556,845.34796,793.36993,748.24176,726.08057,-0.36181640625,-0.0048828125,0.93115234375,4.74029541015625,-2.220611572265625,-0.725250244140625,1,1.0,1.0,1.0,1.0,85.00
2021-04-27 08:36:54.900,1.1477423,0.0,0.48178697,0.91793704,0.9347016,0.0,0.05710563,0.7615259,1.0701995,0.0,0.04840713,0.80010474,0.534246,0.0,0.031219108,0.7621277,0.41968194,0.0,-0.00577199,0.6440329,807.47253,775.2381,805.05493,807.0696,819.5604,-0.35943603515625,-0.0072021484375,0.937255859375,4.0972900390625,-4.628143310546875,3.147735595703125,1,1.0,1.0,1.0,1.0,85.00
2021-04-27 08:36:55.413,1.3330625,0.0,0.7239851,0.91793704,1.2102971,0.0,0.10134022,0.7615259,1.0638853,0.0,-0.06948623,0.80010474,0.5892663,0.0,0.06543199,0.7621277,0.08096677,0.0,-0.08317754,0.6440329,796.5934,739.3773,803.44324,817.9487,1093.5531,-0.35577392578125,-0.00787353515625,0.9339599609375,4.299163818359375,-5.14404296875,1.517791748046875,1,1.0,1.0,1.0,1.0,85.00
2021-04-27 08:36:55.923,1.3080468,0.0,0.7339602,0.91793704,1.2851121,0.0,-0.13108143,0.7615259,0.8019581,0.0,-0.09920739,0.80010474,0.6784264,0.0,0.042145647,0.7621277,0.19985387,0.0,-0.22575858,0.6440329,800.6227,859.45056,809.0842,792.1612,708.3516,-0.35064697265625,-0.013916015625,0.93072509765625,4.388885498046875,-5.3533935546875,0.85235595703125,1,1.0,1.0,1.0,1.0,85.00
2021-04-27 08:36:56.426,0.9582729,0.0,0.59896034,0.6883454,0.98769474,0.0,-0.1170314,0.7469354,0.811194,0.0,-0.100008726,0.69567925,0.6505832,0.0,-0.017459175,0.68592936,0.31535092,0.0,-0.33112416,0.26979345,766.77655,789.34064,805.8608,767.5824,755.89746,-0.33935546875,-0.00811767578125,0.942138671875,5.271148681640625,-4.403839111328125,2.325286865234375,1,1.0,1.0,1.0,1.0,85.00
2021-04-27 08:36:56.933,0.32622513,0.0,0.38196063,0.69213825,0.5749025,0.0,-0.27688646,0.38758466,0.531601,0.0,0.18450901,0.60970265,0.6289099,0.0,-0.018051641,0.61976516,0.36106977,0.0,-0.21138409,0.30111548,786.52014,819.5604,810.293,788.5348,914.2491,-0.33636474609375,-0.0013427734375,0.9478759765625,4.56085205078125,-5.48797607421875,1.218719482421875,1,1.0,1.0,1.0,1.0,85.00
2021-04-27 08:36:57.445,0.3481636,0.0,0.40991327,0.7137671,0.55659986,0.0,-0.32123962,0.39821896,0.5072779,0.0,0.33144432,0.5941008,0.6543411,0.0,-0.0045547616,0.619253,0.36190954,0.0,-0.15892436,0.29418042,811.0989,805.4579,792.5641,809.4872,768.3883,-0.34149169921875,-0.009765625,0.94354248046875,4.344024658203125,-4.583282470703125,0.9869384765625,1,1.0,1.0,1.0,1.0,85.00
2021-04-27 08:36:57.954,0.40764326,0.0,0.37809706,0.8950932,0.4999766,0.0,-0.18441263,0.45684022,0.4679644,0.0,0.48148915,0.5473228,0.67601573,0.0,-0.013823397,0.6034416,0.35246807,0.0,-0.116477184,0.29909953,819.9634,810.696,802.23444,819.15753,803.44324,-0.34698486328125,-0.009765625,0.93524169921875,4.224395751953125,-3.66363525390625,0.76263427734375,1,1.0,1.0,1.0,1.0,85.00
2021-04-27 08:36:58.472,0.7073317,0.0,0.24842149,0.52447236,0.60054684,0.0,-0.12262048,0.4679015,0.7679909,0.0,0.4893425,0.7211398,0.48394975,0.0,-0.032423902,0.48824158,0.27350026,0.0,-0.18280336,0.16126098,801.4286,836.4835,809.4872,802.23444,769.59705,-0.34942626953125,-0.004638671875,0.9407958984375,4.942169189453125,-3.162689208984375,1.2860107421875,1,1.0,1.0,1.0,1.0,85.00
2021-04-27 08:36:58.995,0.5438987,0.0,0.17279786,0.46508908,0.41587093,0.0,0.06467779,0.41384003,0.7776725,0.0,0.41498232,0.72276074,0.50094223,0.0,0.009154197,0.50362396,0.2551536,0.0,-0.32858336,0.08808349,790.54944,782.49084,799.81683,791.75824,823.9927,-0.35205078125,-1.8310546875E-4,0.9393310546875,5.151519775390625,-3.72344970703125,1.7047119140625,1,1.0,1.0,1.0,1.0,85.00
2021-04-27 08:36:59.505,0.5280027,0.12497939,0.2500905,0.46350586,0.38560697,0.0954786,0.08503303,0.39414468,0.7598781,0.45105648,0.31051078,0.6946428,0.5083288,1.3113322,-1.2542545E-4,0.5028678,0.26817226,1.0635704,-0.38119936,0.087624334,805.05493,784.90845,807.0696,807.47253,856.2271,-0.36456298828125,-0.00396728515625,0.93389892578125,4.643096923828125,-3.3795166015625,1.39068603515625,1,1.0,1.0,1.0,1.0,85.00
2021-04-27 08:37:00.016,0.3172232,0.15347809,0.29007077,0.31717038,0.20302394,0.23312463,0.05410601,0.32739764,0.5097809,0.5731275,-0.002538605,0.34865367,0.4934829,1.2920177,-0.038666435,0.5414523,0.1276569,1.0219789,-0.42823538,-0.026028384,768.7912,824.7985,803.0403,763.5531,738.1685,-0.374267578125,-0.00732421875,0.931396484375,4.074859619140625,-4.837493896484375,0.897216796875,1,1.0,1.0,1.0,1.0,85.00
2021-04-27 08:37:00.530,0.63889223,0.15347809,0.2553523,0.9538119,0.65594286,0.23312463,-0.014568717,0.8171351,0.6295269,0.5731275,0.052755237,0.61395663,0.43945047,1.2920177,-0.0870407,0.64045984,0.007663401,1.0219789,-0.39571983,0.08442778,792.96704,803.0403,806.26373,801.02563,764.7619,-0.377197265625,-0.00799560546875,0.92779541015625,4.388885498046875,-3.768310546875,1.158905029296875,1,1.0,1.0,1.0,1.0,85.00
2021-04-27 08:37:01.032,0.6928575,0.18022129,0.20627901,1.1261328,0.8336401,0.3374843,-0.021492045,0.9638858,0.6394295,0.5176929,0.08192084,0.63878345,0.39755592,1.2718041,-0.048769426,0.6848634,0.03887791,0.9759782,-0.3038773,0.16800174,786.9231,817.1429,806.26373,797.8022,735.7509,-0.38018798828125,-0.00567626953125,0.925537109375,4.26177978515625,-4.957122802734375,0.770111083984375,1,1.0,1.0,1.0,1.0,85.00
2021-04-27 08:37:01.549,0.7602788,0.18022129,0.12208337,1.075394,0.79601294,0.3374843,0.08524115,0.8553641,0.70588166,0.5176929,0.12638217,0.7717482,0.43850708,1.2718041,0.04301139,0.6940413,0.11765017,0.9759782,-0.2599969,0.19288875,791.75824,836.8865,810.293,788.1319,757.1062,-0.38336181640625,-0.00732421875,0.93035888671875,4.68048095703125,-4.493560791015625,0.94207763671875,1,1.0,1.0,1.0,1.0,85.00
2021-04-27 08:37:02.057,0.97648495,0.18022129,0.17461589,1.0481212,0.7022559,0.3374843,0.14726102,0.62846607,0.6651831,0.5176929,0.10503723,0.7326055,0.49184427,1.2718041,0.09164554,0.6097402,0.10340271,0.9759782,-0.30887863,0.11934564,809.89014,751.4652,794.57874,813.5165,894.90845,-0.37738037109375,-0.00616455078125,0.9271240234375,4.38140869140625,-4.59075927734375,0.82244873046875,1,1.0,1.0,1.0,1.0,85.00
2021-04-27 08:37:02.573,1.0621489,0.18022129,0.44046673,0.9949744,0.57893485,0.3374843,0.03658243,0.497841,0.6463664,0.5176929,0.32450503,0.65659153,0.5515314,1.2718041,0.1366463,0.5862228,0.10073809,0.9759782,-0.3635989,0.092370495,784.10254,803.44324,815.12823,793.36993,951.31866,-0.384521484375,-0.0228271484375,0.91571044921875,2.91595458984375,-6.17584228515625,-2.9608154296875,1,1.0,1.0,1.0,1.0,80.00
2021-04-27 08:37:03.079,1.1896176,0.18022129,0.7393875,1.0979894,0.6419664,0.3374843,0.17223312,0.5984689,0.5471061,0.5176929,0.3434586,0.56966907,0.5580596,1.2718041,0.14151107,0.4929923,0.016985489,0.9759782,-0.39623323,-0.022410993,811.0989,831.6484,796.99634,801.8315,794.57874,-0.39105224609375,0.012451171875,0.94427490234375,7.9254150390625,-8.314208984375,9.271240234375,1,1.0,1.0,1.0,1.0,80.00
2021-04-27 08:37:03.589,0.9727294,-0.047301166,0.81362885,1.0356436,0.4208765,0.56784475,0.2596423,0.54990965,0.26739207,0.9590614,0.3771562,0.5361216,0.48539287,1.3127451,0.09682596,0.41054246,0.04829873,1.0000013,-0.38915533,-0.070469216,808.68134,808.68134,795.38464,808.2784,792.5641,-0.403564453125,0.01641845703125,0.92657470703125,2.332763671875,-8.815155029296875,1.338348388671875,1,1.0,1.0,1.0,1.0,80.00
2021-04-27 08:37:04.105,0.38404205,-0.022146711,0.7191249,0.62515324,0.8064945,0.6178995,0.29665193,0.62270665,0.70627576,0.9791533,0.29156744,0.81809896,0.38465494,1.2839993,0.008254718,0.43127474,0.039193038,0.93070376,-0.38350716,-0.022392597,800.6227,809.0842,805.8608,790.54944,757.1062,-0.3492431640625,-0.02178955078125,0.930419921875,3.9178466796875,-7.52166748046875,-2.280426025390625,1,1.0,1.0,1.0,1.0,80.00
2021-04-27 08:37:04.613,0.42887637,-0.022146711,0.43629232,0.5886926,0.54732394,0.6178995,0.15284362,0.4601469,0.7450604,0.9791533,0.15461278,0.8698955,0.33082944,1.2839993,0.030235596,0.38507184,0.06098283,0.93070376,-0.40274066,-0.057037927,798.20514,799.81683,801.02563,808.68134,840.9158,-0.3519287109375,-7.9345703125E-4,0.93255615234375,5.084228515625,-3.9178466796875,4.897308349609375,1,1.0,1.0,1.0,1.0,80.00
2021-04-27 08:37:05.138,0.36099663,-0.043367784,0.19110808,0.60265803,0.43002152,0.6004612,-0.17017266,0.39718178,0.7450604,0.88238716,-0.055107165,0.8698955,0.3515555,1.2599926,0.038545858,0.46477446,0.11054271,0.74237996,-0.41613686,0.055113014,791.3553,808.2784,796.99634,797.3993,770.40295,-0.33502197265625,-0.00897216796875,0.94439697265625,4.94964599609375,-6.4898681640625,2.40753173828125,1,1.0,1.0,1.0,1.0,80.00
2021-04-27 08:37:05.666,0.28904703,-0.043367784,0.1640982,0.5434214,0.030598477,0.6004612,-0.22011997,0.16656563,0.44003808,0.88238716,-0.02125442,0.7123722,0.3406441,1.2599926,0.052644644,0.5377397,0.09101493,0.74237996,-0.36875504,0.06576651,783.2967,858.24176,805.8608,775.2381,732.9304,-0.33831787109375,0.00421142578125,0.94378662109375,5.0244140625,-4.306640625,1.86920166015625,1,1.0,1.0,1.0,1.0,80.00
2021-04-27 08:37:06.169,0.4507663,-0.043367784,0.2160188,0.57808,0.1992081,0.6004612,-0.21281017,0.28357512,0.76216984,0.88238716,0.28306815,0.89870584,0.32978123,1.2599926,-0.042024862,0.6139103,0.031196564,0.74237996,-0.3615848,0.09962911,765.16486,790.54944,808.2784,765.9707,789.7436,-0.34991455078125,0.0108642578125,0.9385986328125,4.673004150390625,-4.08233642578125,2.415008544921875,1,1.0,1.0,1.0,1.0,80.00
2021-04-27 08:37:06.678,0.53330827,-0.043367784,0.31328806,0.5594861,0.25210413,0.6004612,-0.086358204,0.304392,0.759915,0.88238716,0.42824158,0.89870584,0.3021928,1.2599926,0.037759826,0.6107746,-0.058552094,0.74237996,-0.30755895,0.031367235,776.4469,822.7839,799.41394,776.4469,786.9231,-0.3331298828125,0.00640869140625,0.9412841796875,4.007568359375,-4.000091552734375,1.158905029296875,1,1.0,1.0,1.0,1.0,80.00
2021-04-27 08:37:07.184,0.7782667,-0.043367784,0.4755442,0.6813975,0.4790028,0.6004612,0.0044243177,0.4979252,0.7589657,0.88238716,0.42614564,0.89870584,0.23923385,1.2599926,0.06968469,0.58065677,-0.118057005,0.74237996,-0.326639,0.05138798,801.4286,804.65204,803.8461,790.14655,774.0293,-0.34130859375,0.00762939453125,0.94097900390625,4.62066650390625,-3.701019287109375,1.383209228515625,1,1.0,1.0,1.0,1.0,80.00
2021-04-27 08:37:07.697,0.7782667,-0.043367784,0.50105244,0.9279278,0.4790028,0.6004612,0.15588848,0.5068884,0.7589657,0.88238716,0.42311892,0.6870654,0.23923385,1.2599926,0.08608327,0.56546426,-0.118057005,0.74237996,-0.35316515,0.03307418,811.50183,790.9524,805.8608,813.1135,787.326,-0.35235595703125,0.0059814453125,0.9366455078125,4.044952392578125,-3.27484130859375,0.85235595703125,1,1.0,1.0,1.0,1.0,80.00
2021-04-27 08:37:08.212,0.7829744,0.20046818,0.37749964,0.8073476,0.49400336,0.46919447,0.23127455,0.5854215,0.8156164,0.8103997,0.22087382,0.80622643,0.17587648,1.3044796,0.0808596,0.60450035,-0.102222584,0.83445036,-0.39769304,0.110169426,807.8755,819.5604,797.8022,796.1905,736.9597,-0.35321044921875,0.00506591796875,0.93292236328125,4.5458984375,-3.349609375,1.51031494140625,1,1.0,1.0,1.0,1.0,80.00
2021-04-27 08:37:08.716,0.6488749,0.1780487,0.29121602,0.7087597,0.45704493,0.45892474,0.2992977,0.6094895,0.8425231,0.8103997,0.054318737,0.8399983,0.13741104,1.3297771,0.06626683,0.5206019,-0.11361752,0.83979785,-0.5215467,0.07556344,812.71063,826.8132,798.60803,805.8608,740.58606,-0.36712646484375,6.103515625E-5,0.9320068359375,4.254302978515625,-4.403839111328125,0.82244873046875,1,1.0,1.0,1.0,1.0,80.00
2021-04-27 08:37:09.226,0.7822019,0.24922585,0.46529567,0.7433251,0.5492876,0.52523226,0.22008212,0.69600695,0.85039455,0.77660626,0.035614654,0.86615956,0.31134444,1.3726331,0.072862945,0.5267141,-0.104042806,0.9196369,-0.5005225,0.06607892,810.293,755.4945,798.60803,825.6044,972.27106,-0.36572265625,0.0025634765625,0.92779541015625,4.583282470703125,-3.768310546875,1.00189208984375,1,1.0,1.0,1.0,1.0,80.00
2021-04-27 08:37:09.731,0.6784513,0.2013884,0.5248957,0.6371369,0.6028574,0.50331444,0.096684985,0.6727491,0.9032259,0.54481566,0.14318074,0.8377754,0.38789585,1.4102453,0.05775466,0.48560032,-0.032939136,0.93887603,-0.47596633,0.10612306,748.24176,799.41394,815.12823,747.03296,780.87915,-0.3697509765625,0.00384521484375,0.932373046875,4.418792724609375,-4.538421630859375,1.07666015625,1,1.0,1.0,1.0,1.0,80.00
2021-04-27 08:37:10.246,0.75831515,0.2013884,0.4449844,0.68530095,0.67265284,0.50331444,0.018406752,0.6641843,0.80115634,0.54481566,0.23992036,0.7561429,0.4831187,1.4102453,-0.028926454,0.54837257,0.0067946194,0.93887603,-0.44023108,0.14544962,808.2784,823.1868,815.5311,804.65204,788.5348,-0.36688232421875,0.0023193359375,0.928466796875,4.807586669921875,-5.435638427734375,1.712188720703125,1,1.0,1.0,1.0,1.0,80.00
2021-04-27 08:37:10.749,0.34363014,0.2013884,0.20158166,0.12186469,0.65456265,0.50331444,0.06945354,0.53129417,0.76718885,0.54481566,0.24077486,0.7172934,0.4287157,1.4102453,-0.104656875,0.526245,0.08287438,0.93887603,-0.48357227,0.23278467,774.43225,774.83514,812.3077,781.28204,834.4689,-0.37823486328125,0.00909423828125,0.9290771484375,4.5159912109375,-4.403839111328125,1.31591796875,1,1.0,1.0,1.0,1.0,80.00
2021-04-27 08:37:11.252,0.24245128,0.2013884,0.16300194,-0.0034406658,0.64579517,0.50331444,0.13184988,0.49329877,0.7536002,0.54481566,0.23456734,0.6469443,0.40376696,1.4102453,-0.14825016,0.5124622,0.069624044,0.93887603,-0.54697955,0.24212399,784.5055,845.34796,804.2491,794.57874,802.6374,-0.36968994140625,0.00640869140625,0.9290771484375,4.66552734375,-4.47113037109375,0.949554443359375,1,1.0,1.0,1.0,1.0,80.00
2021-04-27 08:37:11.752,0.24245128,0.2013884,0.1615117,-0.0034406658,0.64579517,0.50331444,0.11345976,0.49329877,0.7536002,0.54481566,0.319584,0.6469443,0.40376696,1.4102453,-0.10211233,0.5124622,0.069624044,0.93887603,-0.48755246,0.24212399,795.78754,819.9634,811.0989,797.8022,748.6447,-0.36962890625,0.0128173828125,0.92999267578125,4.90478515625,-4.20196533203125,0.859832763671875,1,1.0,1.0,1.0,1.0,80.00
2021-04-27 08:37:12.254,0.24245128,0.2013884,0.14910352,-0.0034406658,0.64579517,0.50331444,0.17562598,0.49329877,0.7536002,0.54481566,0.4748051,0.6469443,0.40376696,1.4102453,-0.015231216,0.5124622,0.069624044,0.93887603,-0.45865166,0.24212399,815.9341,809.4872,806.6667,817.1429,771.2088,-0.35931396484375,0.00421142578125,0.93359375,4.66552734375,-6.228179931640625,0.844879150390625,1,1.0,1.0,1.0,1.0,80.00
2021-04-27 08:37:12.764,0.24245128,0.09041283,0.17365158,-0.0034406658,0.64579517,0.39894196,0.2576572,0.49329877,0.7536002,0.8117816,0.5585147,0.6469443,0.40376696,1.2592328,0.008460164,0.5124622,0.069624044,0.8266259,-0.4496395,0.24212399,799.41394,819.5604,801.8315,791.75824,728.9011,-0.3668212890625,0.0023193359375,0.92755126953125,4.613189697265625,-6.26556396484375,0.844879150390625,1,2.0,1.0,1.0,2.0,85.00
2021-04-27 08:37:13.272,0.55437005,0.076205194,0.24466337,0.25467032,0.12869872,0.40897897,0.17357154,-0.002813779,0.5140909,0.8117816,0.5897751,0.34800526,0.418774,1.2674412,0.052387785,0.6055915,0.15018085,0.8670014,-0.5059491,0.25303766,799.41394,824.7985,803.8461,800.2198,722.4542,-0.3564453125,0.00543212890625,0.93731689453125,4.5159912109375,-5.286102294921875,1.368255615234375,1,1.0,1.0,1.0,1.0,85.00
2021-04-27 08:37:13.789,0.16172221,0.061754737,0.36014944,0.17797779,0.23181516,0.4428913,0.0073236646,-0.019598735,0.28682035,0.7729644,0.5812254,0.34800526,0.3719977,1.2771773,0.028995099,0.5615223,0.14063202,0.9184422,-0.47566193,0.18341526,792.5641,824.7985,804.2491,795.38464,786.9231,-0.3492431640625,0.00384521484375,0.93829345703125,4.4561767578125,-5.330963134765625,1.30096435546875,1,1.0,1.0,1.0,1.0,85.00
2021-04-27 08:37:14.294,0.004796752,0.061754737,0.24407248,0.0642142,0.17909886,0.4428913,-0.25731152,-0.09031253,0.28132454,0.7729644,0.26818505,0.30382845,0.37234768,1.2771773,-0.05740942,0.52276474,0.087833315,0.9184422,-0.39633456,0.17689252,767.98535,800.2198,815.12823,775.64105,762.74725,-0.34869384765625,0.0032958984375,0.9398193359375,4.50103759765625,-5.12908935546875,1.398162841796875,1,1.0,1.0,1.0,1.0,85.00
2021-04-27 08:37:14.805,-0.23950733,0.061754737,0.28088868,0.6868398,0.23533596,0.4428913,-0.0010985086,0.21917626,0.12097819,0.7729644,0.14919007,0.6554616,0.33261532,1.2771773,-0.14748693,0.498482,0.03134958,0.9184422,-0.23220955,0.1552589,796.5934,807.0696,794.57874,792.5641,814.7253,-0.34326171875,0.00531005859375,0.93878173828125,4.41131591796875,-4.3365478515625,0.829925537109375,1,1.0,1.0,1.0,1.0,85.00
2021-04-27 08:37:15.320,1.1826444,0.061754737,0.4863245,1.0177059,0.59245324,0.4428913,0.34413135,0.5727983,0.44513193,0.7729644,0.17927316,0.64136004,0.39586136,1.2771773,0.04916207,0.5491233,0.06912344,0.9184422,-0.16964994,0.28462163,807.0696,747.8388,796.5934,815.5311,1034.3224,-0.3431396484375,0.0023193359375,0.93939208984375,4.66552734375,-3.99261474609375,1.136474609375,1,1.0,1.0,1.0,1.0,85.00
2021-04-27 08:37:15.828,1.2509449,0.061754737,0.55095494,1.1190531,0.68874586,0.4428913,0.38011768,0.7190027,0.4923691,0.7729644,0.18363915,0.7205631,0.359537,1.2771773,0.12044977,0.60530967,0.18774131,0.9184422,-0.16941084,0.2868636,802.6374,861.4652,801.8315,795.38464,673.2967,-0.34796142578125,0.0069580078125,0.93670654296875,4.373931884765625,-4.1571044921875,1.5252685546875,1,1.0,1.0,1.0,1.0,85.00
2021-04-27 08:37:16.343,1.2042637,0.061754737,0.5364604,0.9264355,0.65597993,0.4428913,0.29792574,0.68005663,0.5254137,0.7729644,0.20134886,0.55281264,0.39642128,1.2771773,0.14679055,0.5407005,0.18356262,0.9184422,-0.31628993,0.26034832,809.0842,800.6227,809.89014,818.3516,785.31134,-0.3533935546875,0.00323486328125,0.9371337890625,4.9945068359375,-4.83001708984375,1.099090576171875,1,1.0,1.0,1.0,1.0,85.00
2021-04-27 08:37:16.845,0.84991205,0.061754737,0.22813968,0.66155356,0.43209836,0.4428913,-0.13238187,0.5485745,0.623001,0.7729644,0.28413987,0.47805232,0.429081,1.2771773,-0.03723371,0.5152186,0.13931346,0.9184422,-0.44257775,0.21020709,789.34064,808.2784,803.8461,791.3553,846.9597,-0.3577880859375,0.00732421875,0.93341064453125,4.66552734375,-4.583282470703125,0.9271240234375,1,1.0,1.0,1.0,1.0,85.00
2021-04-27 08:37:17.354,0.8352495,-0.058003098,0.17188624,0.7707719,0.43283027,0.017699672,-0.30629876,0.5557458,0.6096255,0.35255638,0.26832798,0.6431696,0.44246027,1.3122528,-0.039283387,0.5377717,0.054586045,0.74387014,-0.4539664,0.10976624,805.05493,824.7985,803.0403,798.20514,686.99634,-0.3602294921875,0.00164794921875,0.93365478515625,4.306640625,-4.7552490234375,1.383209228515625,1,1.0,1.0,1.0,1.0,85.00
2021-04-27 08:37:17.866,0.74224097,-0.058003098,0.059526686,0.73902005,0.43238488,0.017699672,-0.25977302,0.4231759,0.6019464,0.35255638,0.29618478,0.72882706,0.32136062,1.3122528,-0.0020535896,0.5792345,0.008172129,0.74387014,-0.28953317,-0.011744465,806.26373,728.0952,798.20514,828.022,977.9121,-0.36541748046875,0.00579833984375,0.93341064453125,4.717864990234375,-5.3533935546875,0.88226318359375,1,1.0,1.0,1.0,1.0,85.00
2021-04-27 08:37:18.373,0.7297093,-0.058003098,0.041337613,0.77229196,0.45007792,0.017699672,-0.12240958,0.39200473,0.5396986,0.35255638,0.3697625,0.74712443,0.27047476,1.3122528,0.035479084,0.6021499,0.028090507,0.74387014,-0.1834373,0.10932984,764.35895,810.696,800.6227,767.1795,759.5238,-0.3614501953125,0.00372314453125,0.9317626953125,4.897308349609375,-4.089813232421875,0.889739990234375,1,1.0,1.0,1.0,1.0,85.00
2021-04-27 08:37:18.878,0.40806308,-0.058003098,0.2480583,0.34562114,0.3572455,0.017699672,-0.032091536,0.019377882,0.4701007,0.35255638,0.38435718,0.5363117,0.22726227,1.3122528,-0.038078997,0.6008312,0.053919557,0.74387014,-0.21615349,0.2874702,807.0696,823.9927,807.47253,793.36993,757.1062,-0.36370849609375,0.006591796875,0.93377685546875,4.388885498046875,-3.72344970703125,1.0467529296875,1,1.0,1.0,1.0,1.0,85.00
2021-04-27 08:37:19.379,0.36873195,-0.058003098,0.7007028,0.30600858,0.32916066,0.017699672,0.26610288,0.108154245,0.43932816,0.35255638,0.45393068,0.46026525,0.31965953,1.3122528,-0.04112448,0.60387474,0.05712499,0.74387014,-0.2630004,0.37605628,789.34064,764.7619,815.9341,814.7253,912.23444,-0.3701171875,0.0211181640625,0.9464111328125,6.0711669921875,-4.11224365234375,2.34771728515625,1,1.0,1.0,1.0,1.0,85.00
2021-04-27 08:37:19.898,0.8600564,-0.058003098,0.90788704,0.8079239,0.69023603,0.017699672,0.5046992,0.95421726,0.79012954,0.35255638,0.4345591,1.0124121,0.5109988,1.3122528,-0.040216237,0.56721354,0.28890407,0.74387014,-0.34848008,0.022564614,817.9487,803.44324,808.2784,811.9048,809.4872,-0.359130859375,-0.014404296875,0.9554443359375,10.587158203125,-9.88433837890625,-3.46923828125,1,1.0,1.0,1.0,1.0,85.00
2021-04-27 08:37:20.404,0.9333847,-0.058003098,1.0424485,0.8964621,0.7033521,0.017699672,0.53855395,0.92782974,0.81784916,0.35255638,0.4893311,1.0124121,0.6312523,1.3122528,0.13916126,0.56170976,0.28205398,0.74387014,-0.24374235,0.004812443,808.68134,812.71063,807.47253,797.3993,819.9634,-0.30780029296875,0.044189453125,0.9466552734375,12.2918701171875,-6.960906982421875,-1.428070068359375,1,1.0,1.0,1.0,1.0,85.00
2021-04-27 08:37:20.909,0.99705696,-0.058003098,1.1828288,0.8868608,0.786387,0.017699672,0.5606584,0.90953386,1.0821377,0.35255638,0.4403245,1.0223218,0.8452351,1.3122528,0.16818044,0.66922903,0.35383204,0.74387014,-0.22667831,0.39935255,811.9048,734.1392,800.6227,820.7692,1077.033,-0.2779541015625,0.0341796875,0.95361328125,4.59075927734375,-5.921630859375,2.714080810546875,1,1.0,1.0,1.0,1.0,85.00
2021-04-27 08:37:21.426,1.0540878,-0.058003098,1.0969545,0.89529836,0.84548783,0.017699672,0.3684785,0.6559056,1.0786544,0.35255638,0.40351093,0.738732,1.0190743,1.3122528,0.18722479,0.80341184,0.40751025,0.74387014,-0.16498433,0.58286244,796.99634,836.4835,804.2491,801.02563,841.31866,-0.330078125,0.0042724609375,0.95196533203125,3.7384033203125,4.05242919921875,2.76641845703125,1,1.0,1.0,1.0,1.0,85.00
2021-04-27 08:37:21.931,1.1118811,-0.058003098,1.045949,1.0275625,0.8988306,0.017699672,0.3547639,0.77970845,1.0955911,0.35255638,0.36801204,0.92844635,1.006497,1.3122528,0.21275297,0.8135395,0.49993214,0.74387014,-0.1609229,0.53982264,805.05493,797.8022,795.38464,796.1905,757.50916,-0.36456298828125,-0.003173828125,0.927490234375,4.089813232421875,3.297271728515625,1.816864013671875,1,1.0,1.0,1.0,1.0,85.00
2021-04-27 08:37:22.440,1.0935063,-0.058003098,0.96332526,1.1093208,0.86791325,0.017699672,0.50754243,0.91077185,1.086528,0.35255638,0.6181948,0.9273577,0.9257748,1.3122528,0.2373876,0.8052926,0.48524728,0.74387014,-0.12542377,0.50268865,799.81683,813.91943,793.7729,802.23444,722.0513,-0.41192626953125,-0.00732421875,0.9068603515625,6.018829345703125,-2.011260986328125,6.123504638671875,1,1.0,1.0,1.0,1.0,85.00
2021-04-27 08:37:22.949,1.1778523,-0.058003098,1.1380775,1.2568533,1.0046171,0.017699672,0.6389336,1.067603,1.0244179,0.35255638,0.63153565,0.98590475,0.5743859,1.3122528,0.26624426,0.76940733,0.41359246,0.74387014,-0.1698738,0.4394674,796.1905,836.4835,799.81683,801.02563,837.28937,-0.393310546875,0.00665283203125,0.926025390625,4.658050537109375,-6.20574951171875,2.64678955078125,1,1.0,1.0,1.0,1.0,85.00
2021-04-27 08:37:23.461,1.1709586,-0.058003098,1.0503529,1.1856012,0.9141566,0.017699672,0.6198001,1.0629638,0.9713791,0.35255638,0.6301841,0.90755075,0.3257037,1.3122528,0.07367564,0.6569858,0.1730008,0.74387014,-0.2623053,0.39873484,821.1722,810.696,814.3223,818.3516,743.00366,-0.37762451171875,-0.00445556640625,0.93206787109375,4.66552734375,-6.280517578125,1.92901611328125,1,1.0,1.0,1.0,1.0,85.00
2021-04-27 08:37:23.971,1.0728853,-0.058003098,0.3419165,0.6565889,0.8028043,0.017699672,0.19552454,0.40159997,0.97620976,0.35255638,0.2605409,0.8841717,0.33393237,1.3122528,-0.09790038,0.51422316,0.13235663,0.74387014,-0.31524915,0.03234771,798.60803,816.337,805.4579,791.3553,730.10986,-0.358642578125,0.0057373046875,0.93353271484375,4.5458984375,-5.301055908203125,2.654266357421875,1,1.0,1.0,1.0,1.0,85.00
2021-04-27 08:37:24.482,0.8803702,-0.058003098,0.58867455,0.39244917,0.48041826,0.017699672,0.38779595,0.16173442,0.68588316,0.35255638,0.46911773,0.67727554,0.31778952,1.3122528,-0.08282367,0.45325005,0.12502141,0.74387014,-0.30394432,0.07435868,796.1905,836.8865,812.3077,795.78754,688.20514,-0.3572998046875,9.1552734375E-4,0.9403076171875,4.41131591796875,-4.448699951171875,1.33087158203125,1,1.0,1.0,1.0,1.0,85.00
2021-04-27 08:37:24.994,0.6578991,-0.058003098,0.5754492,0.5414847,0.42543736,0.017699672,0.36828977,0.32438537,0.76498187,0.35255638,0.4656047,0.94199884,0.3279996,1.3122528,-0.07369386,0.45807958,-0.043933205,0.74387014,-0.3084038,0.1123463,803.0403,783.69965,810.696,805.4579,807.8755,-0.35675048828125,-0.00433349609375,0.93438720703125,4.687957763671875,-4.77020263671875,1.256103515625,1,1.0,1.0,1.0,1.0,85.00
2021-04-27 08:37:25.504,0.9083928,-0.058003098,0.90908885,0.909721,0.5970833,0.017699672,0.3754045,0.5464826,0.80260366,0.35255638,0.48415864,0.94738424,0.32614264,1.3122528,-0.032274216,0.45932034,-0.08210371,0.74387014,-0.32946575,0.15848091,805.05493,818.7546,796.5934,809.0842,909.011,-0.3558349609375,6.7138671875E-4,0.92950439453125,5.196380615234375,-4.32159423828125,1.03179931640625,1,1.0,1.0,1.0,1.0,85.00
2021-04-27 08:37:26.015,0.94277,-0.058003098,0.84282106,1.0601684,0.579402,0.017699672,0.12461729,0.69698864,0.7881077,0.35255638,0.21064317,0.9299295,0.3444481,1.3122528,0.005856376,0.52905035,-0.078863844,0.74387014,-0.31220317,0.13984977,797.3993,817.1429,796.1905,786.1172,794.57874,-0.35699462890625,0.00244140625,0.93865966796875,4.702911376953125,-4.673004150390625,0.88226318359375,1,1.0,1.0,1.0,1.0,85.00
2021-04-27 08:37:26.524,0.9856148,-0.058003098,0.8264124,1.068093,0.5172792,0.017699672,0.12519617,0.5666265,0.79462796,0.35255638,0.22889894,0.8944061,0.35730347,1.3122528,0.005337384,0.5693032,-0.07644696,0.74387014,-0.33685148,0.031770345,788.5348,795.78754,789.7436,782.49084,759.92676,-0.36431884765625,-1.8310546875E-4,0.9346923828125,4.942169189453125,-4.2169189453125,0.2392578125,1,1.0,1.0,1.0,1.0,85.00
2021-04-27 08:37:27.032,0.84890896,-0.21874204,0.37921548,0.60521764,0.27530092,-0.10822717,-0.16203688,0.089688465,0.7329693,0.23999895,0.2092437,0.29763776,0.38214818,1.0341787,-0.04187488,0.58187515,-0.023271153,1.1570936,-0.31333295,-0.010714746,806.6667,825.2015,802.6374,794.57874,719.6337,-0.37005615234375,0.00347900390625,0.932861328125,4.7552490234375,-4.9346923828125,2.34771728515625,1,1.0,1.0,1.0,1.0,85.00
2021-04-27 08:37:27.542,0.7556537,-0.21874204,0.43401873,0.60521764,0.07275075,-0.10822717,-0.1675763,0.089688465,0.44059232,0.23999895,0.24726444,0.29763776,0.37097558,1.0341787,-0.08033898,0.58187515,-0.032067318,1.1570936,-0.3668727,-0.010714746,804.65204,821.5751,801.4286,805.05493,705.12823,-0.37310791015625,0.00830078125,0.92730712890625,4.42626953125,-4.35150146484375,1.547698974609375,1,1.0,1.0,1.0,1.0,85.00
2021-04-27 08:37:28.050,0.6844707,-0.20618996,0.5409775,0.55908555,0.072756216,-0.176304,-0.13181742,0.05945147,0.4371347,0.5437141,0.25654414,0.21202143,0.3098161,1.141758,-0.0775505,0.5707684,-0.025711805,1.0586553,-0.39269054,0.0028208317,831.6484,734.94507,798.20514,832.8571,1052.4542,-0.38134765625,0.00335693359375,0.92889404296875,4.523468017578125,-4.015045166015625,0.964508056640625,1,1.0,1.0,1.0,1.0,85.00
2021-04-27 08:37:28.550,0.21679078,-0.042397372,0.5215979,0.23427762,0.20062861,-0.20319681,-0.095741294,0.21751335,0.35829744,0.59354085,0.25117576,0.18467845,0.2465534,1.1513578,-0.028053155,0.2724117,0.020806735,0.97043544,-0.42450815,0.27344817,804.2491,826.8132,802.6374,790.54944,724.4689,-0.3778076171875,0.0023193359375,0.9241943359375,4.508514404296875,-3.90289306640625,0.650482177734375,1,1.0,1.0,1.0,1.0,85.00
2021-04-27 08:37:29.057,0.41491538,-0.020395191,0.19561206,0.24217324,0.29494908,-0.12883916,-0.24490187,0.1434989,0.49019706,0.6228874,0.20919384,0.3959975,0.29949328,1.1598604,0.038499527,0.34003884,0.03351606,0.9497268,-0.40502056,0.21108812,794.17584,808.2784,800.2198,794.17584,721.6484,-0.37811279296875,0.0010986328125,0.92626953125,4.747772216796875,-5.181427001953125,0.76263427734375,1,1.0,1.0,1.0,1.0,85.00
2021-04-27 08:37:29.567,0.32366067,0.020034416,-0.030542342,0.20317525,0.22065187,-0.10483212,-0.30494285,0.11050259,0.49151447,0.59776455,0.063924916,0.3959975,0.28450894,1.1009032,0.136799,0.38118494,0.019367002,0.9619779,-0.39329323,0.20938008,808.68134,803.8461,806.6667,811.50183,805.4579,-0.37689208984375,0.0013427734375,0.92645263671875,4.583282470703125,-5.959014892578125,-0.059814453125,1,1.0,1.0,1.0,1.0,85.00
2021-04-27 08:37:30.073,0.35338283,0.076750726,0.25011146,0.11586667,0.25051212,-0.10442521,-0.204762,0.15072992,0.52304065,0.49741244,0.04792254,0.49451503,0.30984172,1.2459664,0.15708157,0.49099913,0.067353785,0.6732839,-0.38131198,0.13472775,738.5714,822.7839,818.3516,726.4835,737.3626,-0.37548828125,0.00341796875,0.9322509765625,4.35150146484375,-4.6356201171875,1.27105712890625,1,1.0,1.0,1.0,1.0,85.00
2021-04-27 08:37:30.585,0.17998202,0.07764829,0.53950197,0.043951027,0.18582855,-0.15124105,-0.021410815,0.21048073,0.5128942,0.3544535,0.050223235,0.341881,0.290953,1.2686958,0.15585864,0.5194982,0.07289337,0.5622553,-0.36992374,0.14363384,792.96704,826.8132,796.5934,794.9817,698.68134,-0.371826171875,-9.765625E-4,0.93133544921875,4.299163818359375,-2.94586181640625,-0.059814453125,1,1.0,1.0,1.0,1.0,85.00
2021-04-27 08:37:31.096,0.6345681,0.07764829,0.93567795,-0.06395297,0.6427506,-0.15124105,0.2675661,0.39374244,0.7716682,0.3544535,0.4009145,0.3143827,0.4167967,1.2686958,0.07443838,0.58532584,0.214773,0.5622553,-0.3121078,0.06820122,788.93774,815.5311,802.6374,787.72894,804.2491,-0.38323974609375,-0.0010986328125,0.9271240234375,3.985137939453125,-4.11224365234375,0.73272705078125,1,1.0,1.0,1.0,1.0,85.00
2021-04-27 08:37:31.609,0.8866487,0.07764829,1.0928752,-0.06395297,0.9848814,-0.15124105,0.41848874,0.39374244,0.75889003,0.3544535,0.55554307,0.3143827,0.4892142,1.2686958,0.14110109,0.58532584,0.16274065,0.5622553,-0.29951543,0.06820122,824.3956,818.3516,801.02563,815.9341,761.53845,-0.37420654296875,0.00213623046875,0.9268798828125,4.254302978515625,-5.061798095703125,1.57012939453125,1,1.0,1.0,1.0,1.0,85.00
2021-04-27 08:37:32.116,0.85637254,0.07764829,1.0319071,0.96547014,0.9150604,-0.15124105,0.3874639,0.49743888,0.7648082,0.3544535,0.5619721,0.7016898,0.503341,1.2686958,0.14882071,0.42114532,0.14600402,0.5622553,-0.2885147,-0.022590907,815.5311,798.20514,810.696,809.89014,757.50916,-0.36968994140625,0.00152587890625,0.93206787109375,4.628143310546875,-4.867401123046875,1.2261962890625,1,1.0,1.0,1.0,1.0,85.00
2021-04-27 08:37:32.630,0.74495405,0.07764829,0.79397064,0.8286169,0.7092646,-0.15124105,0.23822616,0.46627575,0.7397995,0.3544535,0.531031,0.7016898,0.47605953,1.2686958,0.14228483,0.48509833,0.12692249,0.5622553,-0.29667962,0.09847211,776.4469,835.6777,808.68134,772.01465,728.9011,-0.36920166015625,-0.00732421875,0.93072509765625,4.77020263671875,-5.630035400390625,1.4056396484375,1,1.0,1.0,1.0,1.0,85.00
2021-04-27 08:37:33.137,0.6466746,0.07764829,0.41830567,0.76301086,0.33156615,-0.15124105,0.31657076,0.3908942,0.48029912,0.3544535,0.5731515,0.63950664,0.48562407,1.2686958,0.06665553,0.48667362,0.1282575,0.5622553,-0.3576269,0.12357467,787.326,842.52747,800.6227,789.34064,674.5055,-0.36883544921875,-0.0015869140625,0.93206787109375,4.44122314453125,-4.673004150390625,2.130889892578125,1,1.0,1.0,1.0,1.0,85.00
2021-04-27 08:37:33.645,0.59711,0.07764829,0.5672273,0.72136307,0.15706198,-0.15124105,0.48973638,0.3261539,0.26781082,0.3544535,0.54568684,0.79912627,0.46029225,1.2686958,-0.023994211,0.579641,0.1421183,0.5622553,-0.4114648,0.15110663,805.05493,749.0476,821.5751,819.5604,916.6667,-0.3662109375,-0.00286865234375,0.93609619140625,4.059906005859375,-4.373931884765625,2.310333251953125,1,1.0,1.0,1.0,1.0,75.00
2021-04-27 08:37:34.150,0.6588514,0.07764829,0.94260275,0.8613861,0.13025782,-0.15124105,0.6220944,0.6373899,0.22378227,0.3544535,0.60937375,1.0366895,0.4568777,1.2686958,-0.014373286,0.5359695,0.08740417,0.5622553,-0.4495392,0.13613445,788.1319,806.6667,792.96704,794.17584,716.0073,-0.3636474609375,0.001708984375,0.93499755859375,3.745880126953125,-4.388885498046875,0.4486083984375,1,1.0,1.0,1.0,1.0,75.00
2021-04-27 08:37:34.659,0.43720105,0.07764829,0.9602856,0.7745836,0.70014644,-0.15124105,0.53752136,0.5807377,1.0384698,0.3544535,0.52106696,1.0366895,0.5681985,1.2686958,-0.0417037,0.55481386,0.10069013,0.5622553,-0.3581055,0.16658683,785.31134,826.0073,780.07324,777.6557,659.59705,-0.36297607421875,-9.765625E-4,0.93145751953125,5.03936767578125,-4.2767333984375,1.547698974609375,1,1.0,1.0,1.0,1.0,75.00
2021-04-27 08:37:35.174,0.4948124,0.07764829,0.9614633,0.8351658,0.668227,-0.15124105,0.47076666,0.71710056,1.1150063,0.3544535,0.6703709,1.0233426,0.57098126,1.2686958,0.041236788,0.49861324,0.06143381,0.5622553,-0.25167942,0.22619681,809.4872,781.28204,796.1905,812.71063,822.381,-0.36376953125,-0.00604248046875,0.93304443359375,4.673004150390625,-5.00946044921875,1.323394775390625,1,1.0,1.0,1.0,1.0,75.00
2021-04-27 08:37:35.685,0.5631721,0.07764829,0.8058415,0.8333692,0.6341259,-0.15124105,0.36437201,0.67596436,1.11918,0.3544535,0.6361142,1.0208042,0.5422315,1.2686958,0.027686693,0.50641173,0.041193996,0.5622553,-0.26690754,0.22162259,798.60803,825.6044,792.96704,788.1319,767.98535,-0.3721923828125,8.544921875E-4,0.93292236328125,4.299163818359375,-4.306640625,1.099090576171875,1,1.0,1.0,1.0,1.0,75.00
2021-04-27 08:37:35.687,,,,,,,,,,,,,,,,,,,,,,,,,,,,,,,,,,,,,,/muse/elements/blink
2021-04-27 08:37:36.195,0.98418236,0.07764829,0.7512375,1.2832085,0.67121804,-0.15124105,0.25252458,0.9750946,0.92527556,0.3544535,0.5429529,0.9995655,0.4672931,1.2686958,-0.035622906,0.4551477,0.02771031,0.5622553,-0.27870747,0.18025509,751.06226,776.4469,833.2601,764.7619,742.6007,-0.37420654296875,0.00140380859375,0.931884765625,4.373931884765625,-3.768310546875,1.248626708984375,1,1.0,1.0,1.0,1.0,75.00
2021-04-27 08:37:36.706,1.3536613,0.07764829,0.97918457,1.5633911,0.80249137,-0.15124105,0.46837804,1.1958991,0.85941666,0.3544535,0.589505,0.94414806,0.30209008,1.2686958,-0.101704836,0.48044175,0.07690367,0.5622553,-0.36956808,-0.062484603,780.87915,805.05493,805.05493,774.43225,766.77655,-0.3873291015625,0.00726318359375,0.92401123046875,4.912261962890625,-3.865509033203125,1.308441162109375,1,1.0,1.0,1.0,1.0,75.00
2021-04-27 08:37:37.219,1.4254268,0.07764829,1.0650392,1.709083,0.8357398,-0.15124105,0.5552132,1.3297427,0.8395695,0.3544535,0.44861513,0.9107595,0.3020285,1.2686958,-0.037544884,0.48804128,0.09244381,0.5622553,-0.34978494,-0.17285705,807.47253,840.9158,800.6227,815.12823,638.24176,-0.3843994140625,0.00518798828125,0.9267578125,4.807586669921875,-4.224395751953125,1.60003662109375,1,1.0,1.0,1.0,1.0,75.00
2021-04-27 08:37:37.729,1.4254268,0.07764829,1.0597274,1.709083,0.8357398,-0.15124105,0.56819224,1.3297427,0.8395695,0.3544535,0.43425977,0.9107595,0.3020285,1.2686958,0.033282414,0.48804128,0.09244381,0.5622553,-0.32158083,-0.17285705,823.9927,814.3223,795.38464,826.4103,747.03296,-0.391845703125,0.0064697265625,0.9259033203125,4.837493896484375,-4.254302978515625,1.457977294921875,1,1.0,1.0,1.0,1.0,75.00
2021-04-27 08:37:38.254,1.4254268,0.07764829,1.0037372,1.709083,0.8357398,-0.15124105,0.6160842,1.3297427,0.8395695,0.3544535,0.42742202,0.9107595,0.3020285,1.2686958,0.07588532,0.48804128,0.09244381,0.5622553,-0.28222418,-0.17285705,811.0989,811.9048,797.8022,811.50183,702.71063,-0.38671875,0.00177001953125,0.9202880859375,4.59075927734375,-4.673004150390625,0.590667724609375,1,1.0,1.0,1.0,1.0,75.00
2021-04-27 08:37:38.764,1.4254268,0.07764829,0.84183097,1.709083,0.8357398,-0.15124105,0.51803935,1.3297427,0.8395695,0.3544535,0.42742202,0.9107595,0.3020285,1.2686958,0.021961343,0.48804128,0.09244381,0.5622553,-0.32425115,-0.17285705,805.8608,803.8461,792.96704,791.3553,716.8132,-0.38970947265625,0.00531005859375,0.91998291015625,4.32159423828125,-5.480499267578125,0.844879150390625,1,1.0,1.0,1.0,1.0,75.00
2021-04-27 08:37:39.277,0.21364132,0.07764829,0.741481,0.08668608,0.06839551,-0.15124105,0.47294977,0.25543076,-0.0850696,0.3544535,0.43925932,0.25594026,0.37691626,1.2686958,-0.028912883,0.29523832,0.13961115,0.5622553,-0.39161596,0.056324426,751.06226,777.25275,815.12823,763.1502,749.45056,-0.38531494140625,0.0047607421875,0.924072265625,4.687957763671875,-5.00946044921875,0.560760498046875,1,1.0,1.0,1.0,1.0,75.00
2021-04-27 08:37:39.779,0.7826042,0.24788994,0.3393185,0.70550156,0.58090496,0.18395127,0.20840621,0.6780708,1.1795728,0.3121648,0.12386932,1.0992715,0.4022305,1.189692,-0.07046346,0.33785146,0.12637389,0.85307837,-0.44658536,0.045432214,730.10986,834.0659,780.07324,699.89014,702.71063,-0.38934326171875,-0.00750732421875,0.918212890625,2.8411865234375,-1.7047119140625,-0.657958984375,1,1.0,1.0,1.0,1.0,75.00
2021-04-27 08:37:40.045,,,,,,,,,,,,,,,,,,,,,,,,,,,,,,,,,,,,,,/muse/elements/blink
2021-04-27 08:37:40.304,1.2148808,0.24788994,0.5309541,0.7704253,0.9261517,0.18395127,0.3537486,0.7376044,1.2428676,0.3121648,0.2339974,1.1228056,0.49876824,1.189692,-0.02935234,0.3538762,0.09253582,0.85307837,-0.44714376,0.03038297,805.05493,830.4396,803.0403,790.14655,669.67035,-0.35406494140625,-0.0137939453125,0.925537109375,3.521575927734375,-8.994598388671875,3.60382080078125,1,1.0,1.0,1.0,1.0,75.00
2021-04-27 08:37:40.809,1.4936996,0.24788994,0.5957124,0.99072117,1.1959556,0.18395127,0.39907256,0.930386,1.2428676,0.3121648,0.23248255,1.1208897,0.5938156,1.189692,-0.024827033,0.39733687,0.03973036,0.85307837,-0.44561958,0.0075147534,758.315,784.10254,804.2491,744.21246,799.011,-0.389892578125,-3.0517578125E-4,0.9345703125,1.936492919921875,-8.934783935546875,-6.59454345703125,1,1.0,1.0,1.0,1.0,75.00
2021-04-27 08:37:41.318,1.5800945,0.24788994,0.54324037,1.1131418,1.1826451,0.18395127,0.3520481,1.036668,1.2036731,0.3121648,0.8061834,1.1208897,0.636873,1.189692,0.04648332,0.41432765,0.15859586,0.85307837,-0.3288647,0.02776177,807.47253,817.5458,791.75824,809.4872,783.2967,-0.3876953125,0.0458984375,0.921630859375,7.476806640625,-2.938385009765625,0.321502685546875,1,1.0,1.0,1.0,1.0,75.00
2021-04-27 08:37:41.829,1.6520369,0.24788994,0.58572096,1.1131418,1.182558,0.18395127,0.5814719,1.036668,0.9982483,0.3121648,1.2011857,1.1208897,0.6860564,1.189692,0.21243234,0.41432765,0.22104307,0.85307837,-0.21684854,0.02776177,803.8461,787.72894,815.9341,809.4872,743.4066,-0.39874267578125,0.0032958984375,0.91552734375,2.310333251953125,-3.715972900390625,0.43365478515625,1,1.0,1.0,1.0,1.0,75.00
2021-04-27 08:37:42.336,1.6520369,0.24788994,0.61162716,1.1131418,1.182558,0.18395127,0.754829,1.036668,0.9982483,0.3121648,1.2011857,1.1208897,0.6860564,1.189692,0.3654864,0.41432765,0.22104307,0.85307837,-0.12292776,0.02776177,809.89014,814.7253,803.0403,811.9048,771.6117,-0.39373779296875,0.02154541015625,0.927978515625,4.344024658203125,-6.676788330078125,3.043060302734375,1,1.0,1.0,1.0,1.0,75.00
2021-04-27 08:37:42.854,1.6520369,0.24788994,0.7407048,0.7710817,1.182558,0.18395127,0.9066095,0.34856895,0.9982483,0.3121648,1.2011857,0.3332536,0.6860564,1.189692,0.4935685,0.32430768,0.22104307,0.85307837,-0.08624909,-0.023481747,791.75824,838.49817,863.8828,797.3993,692.23444,-0.37420654296875,0.00909423828125,0.9305419921875,3.745880126953125,-4.53094482421875,0.91217041015625,1,1.0,1.0,1.0,1.0,75.00
2021-04-27 08:37:43.358,1.028966,0.24788994,0.7407048,0.71489143,0.4820784,0.18395127,0.9066095,0.2771346,0.8298339,0.3121648,1.2011857,0.43754107,0.5736674,1.189692,0.4935685,0.42948547,0.124094956,0.85307837,-0.08624909,-0.04176087,773.22345,766.3736,830.0366,770.40295,883.22345,-0.37115478515625,-0.0013427734375,0.93157958984375,4.149627685546875,-5.001983642578125,1.727142333984375,1,1.0,1.0,1.0,1.0,75.00
2021-04-27 08:37:43.867,1.028966,0.13978337,0.7407048,0.6582762,0.4820784,0.24145909,0.9066095,0.23967132,0.8298339,0.43610892,1.2011857,0.40407723,0.5736674,1.0467004,0.4935685,0.43864262,0.124094956,0.87606674,-0.08624909,-0.05723763,800.2198,805.8608,778.86444,808.68134,821.5751,-0.362548828125,0.00640869140625,0.9371337890625,5.33843994140625,-5.301055908203125,2.011260986328125,1,1.0,1.0,1.0,1.0,90.00
2021-04-27 08:37:44.386,1.028966,0.13978337,0.7407048,0.6140613,0.4820784,0.24145909,0.9066095,0.14154091,0.8298339,0.43610892,1.2011857,0.25076595,0.5736674,1.0467004,0.4935685,0.5509234,0.124094956,0.87606674,-0.08624909,-0.07070841,815.5311,842.52747,797.3993,810.293,670.4762,-0.36822509765625,0.00640869140625,0.9315185546875,4.882354736328125,-4.583282470703125,1.60003662109375,1,1.0,1.0,1.0,1.0,90.00
2021-04-27 08:37:44.893,0.02220183,-0.09539262,1.0628867,-0.24090776,0.54146725,-0.043188635,0.82286954,0.48641476,0.6017932,0.33074686,0.87297374,0.87942183,0.24431859,1.0206802,0.5003035,0.3079372,0.17514054,0.809695,0.14311162,-0.17332241,809.0842,795.38464,785.7143,816.7399,765.9707,-0.372314453125,0.0068359375,0.9285888671875,5.15899658203125,-4.2767333984375,1.00189208984375,1,1.0,1.0,1.0,1.0,90.00
2021-04-27 08:37:45.401,0.19652784,-0.09539262,0.96165156,-0.006961149,0.41940305,-0.043188635,0.8667372,0.3568092,0.60719645,0.33074686,0.8862314,0.87942183,0.32081896,1.0206802,0.45206726,0.37973955,0.06786628,0.809695,0.033011947,-0.009826377,813.1135,813.91943,782.49084,802.6374,730.9158,-0.3739013671875,0.00726318359375,0.92694091796875,4.523468017578125,-5.09918212890625,1.2261962890625,1,1.0,1.0,1.0,1.0,90.00
2021-04-27 08:37:45.914,0.21492015,-0.09539262,1.0306607,0.14612831,0.35111642,-0.043188635,0.83776027,0.26781037,0.6263349,0.33074686,0.86998487,0.87942183,0.30458856,1.0206802,0.33133417,0.42330205,0.045326464,0.809695,-0.16878283,-0.023319907,794.57874,829.2308,792.1612,797.8022,602.381,-0.3763427734375,0.0093994140625,0.9222412109375,4.837493896484375,-4.2169189453125,0.934600830078125,1,1.0,1.0,1.0,1.0,90.00
2021-04-27 08:37:46.424,0.5285949,-0.09539262,1.1054927,0.43431488,0.21055408,-0.043188635,0.7984901,0.24892038,0.90303075,0.33074686,0.83916503,0.88957494,0.35027677,1.0206802,0.3496355,0.47194794,-0.022328291,0.809695,-0.18866429,0.007850009,815.9341,799.011,788.93774,821.1722,832.0513,-0.371337890625,0.011474609375,0.9305419921875,4.508514404296875,-5.06927490234375,0.306549072265625,1,1.0,1.0,1.0,1.0,90.00
2021-04-27 08:37:46.928,0.53064585,-0.09539262,1.2648933,0.43997034,0.21378551,-0.043188635,0.65653783,0.31725332,0.9006097,0.33074686,0.8535706,0.8941125,0.4501396,1.0206802,0.35306156,0.5053343,0.12839189,0.809695,-0.1074354,-0.08166429,797.8022,825.2015,802.23444,787.72894,750.2564,-0.37396240234375,0.0118408203125,0.9268798828125,4.448699951171875,-4.68048095703125,1.114044189453125,1,1.0,1.0,1.0,1.0,90.00
2021-04-27 08:37:47.446,0.5670062,-0.09539262,1.2945576,0.53980666,0.30050254,-0.043188635,0.55718625,0.41155592,0.9524232,0.33074686,0.8239654,0.92940915,0.53374255,1.0206802,0.38659844,0.52836007,0.14706273,0.809695,-0.049543194,-0.090501264,791.3553,805.8608,798.60803,797.3993,701.50183,-0.38043212890625,0.0081787109375,0.92730712890625,4.50103759765625,-4.5159912109375,1.2860107421875,1,1.0,1.0,1.0,1.0,90.00
2021-04-27 08:37:47.951,0.5504962,-0.09539262,1.2831825,0.76616764,0.5794924,-0.043188635,0.62765914,0.648107,1.0832604,0.33074686,1.0996228,0.9533136,0.5466924,1.0206802,0.3904992,0.6336743,0.13051148,0.809695,-0.020524405,-0.047847357,799.011,744.61536,790.54944,807.0696,1027.0696,-0.3843994140625,0.010498046875,0.92413330078125,5.316009521484375,-3.611297607421875,1.069183349609375,1,1.0,1.0,1.0,1.0,90.00
2021-04-27 08:37:48.483,0.63400024,-0.09539262,1.1091912,0.87461734,0.81589293,-0.043188635,0.40043098,0.79965746,0.9836861,0.33074686,1.1221696,0.93303436,0.5214275,1.0206802,0.4901548,0.6526571,0.15399225,0.809695,-0.05640341,-0.0023110474,787.326,812.3077,790.14655,786.52014,792.96704,-0.38226318359375,0.00787353515625,0.92388916015625,4.418792724609375,-4.284210205078125,0.88226318359375,1,1.0,1.0,1.0,1.0,90.00
2021-04-27 08:37:48.991,0.57509893,-0.09539262,0.7678994,0.82030636,0.8066697,-0.043188635,0.21484452,0.74921936,1.0823376,0.33074686,1.097705,0.8512502,0.35941198,1.0206802,0.45271492,0.57831055,0.12476761,0.809695,-0.06465867,0.051315654,813.91943,818.7546,815.9341,809.4872,751.8681,-0.3853759765625,0.00909423828125,0.92279052734375,4.717864990234375,-5.63751220703125,0.575714111328125,1,1.0,1.0,1.0,1.0,90.00
2021-04-27 08:37:49.493,0.5579293,-0.09539262,0.6364624,0.57428795,0.67051345,-0.043188635,0.18322738,0.5574208,1.023777,0.33074686,1.0580577,0.63548595,0.25119564,1.0206802,0.44192374,0.4513458,0.119665086,0.809695,-0.07212367,0.06513175,794.57874,804.2491,787.326,803.8461,732.9304,-0.38299560546875,0.0074462890625,0.92547607421875,4.583282470703125,-4.673004150390625,1.51031494140625,1,1.0,1.0,1.0,1.0,90.00
2021-04-27 08:37:50.011,0.49731272,-0.09539262,0.46969542,0.26113647,0.24560268,-0.043188635,0.15719096,-0.013493972,0.84150386,0.33074686,0.9903528,0.36271128,0.19584244,1.0206802,0.44373515,0.33171237,0.057569984,0.809695,-0.07841327,0.05191911,802.6374,846.9597,797.3993,787.326,718.4249,-0.38397216796875,0.00823974609375,0.9273681640625,4.246826171875,-5.360870361328125,1.128997802734375,1,1.0,1.0,1.0,1.0,90.00
2021-04-27 08:37:50.513,0.6882783,0.23508734,0.6235571,0.643344,0.24319442,0.062118243,0.42701626,0.34440404,0.8230567,0.14842205,0.1997222,0.5007432,0.22910647,1.166268,0.16228369,0.38795772,0.082792796,0.6927694,-0.4695636,0.08532118,802.6374,813.91943,801.4286,804.65204,768.7912,-0.3831787109375,0.00616455078125,0.93048095703125,4.47113037109375,-3.985137939453125,1.547698974609375,1,1.0,1.0,1.0,1.0,90.00
2021-04-27 08:37:51.020,1.051735,0.23508734,0.772649,0.85537964,0.46953067,0.062118243,0.47625306,0.5413944,0.6613096,0.14842205,0.26076883,0.49502265,0.60223883,1.166268,0.124479696,0.4615328,-0.07041666,0.6927694,-0.3640002,0.020394355,796.5934,818.7546,806.6667,805.4579,777.25275,-0.37799072265625,0.0028076171875,0.92852783203125,4.194488525390625,-4.6356201171875,0.710296630859375,1,1.0,1.0,1.0,1.0,90.00
2021-04-27 08:37:51.536,0.89621985,0.22148004,0.6526802,0.8964799,0.45616138,0.11541664,0.40817162,0.60545,0.7188235,0.40770474,0.38720515,0.5835438,0.5574229,1.0709478,0.08515316,0.46928713,-0.011299775,0.7856114,-0.3386789,0.100883655,796.5934,832.0513,807.8755,811.50183,682.1612,-0.378662109375,0.001708984375,0.93218994140625,4.5159912109375,-4.987030029296875,1.33087158203125,1,1.0,1.0,1.0,1.0,90.00
2021-04-27 08:37:52.054,0.7934891,0.33154756,0.5151329,0.8798254,0.458819,0.08519829,0.2957357,0.67707264,0.7205528,0.5075326,0.39963374,0.6031995,0.5241849,1.0204296,0.043717846,0.41694945,0.031034984,0.74433315,-0.28529197,0.08932175,802.23444,800.2198,805.4579,809.89014,835.2747,-0.37591552734375,4.8828125E-4,0.92425537109375,4.508514404296875,-4.224395751953125,1.016845703125,1,1.0,1.0,1.0,1.0,90.00
2021-04-27 08:37:52.579,0.5972842,0.33154756,-0.07115479,0.88493764,0.43538934,0.08519829,0.038376488,0.6381805,0.56352156,0.5075326,0.37440616,0.5948711,0.4499898,1.0204296,0.09704146,0.34650394,0.06769949,0.74433315,-0.3584055,0.07226342,777.6557,783.69965,814.3223,784.10254,792.1612,-0.37445068359375,-9.765625E-4,0.925048828125,5.196380615234375,-4.329071044921875,1.039276123046875,1,1.0,1.0,1.0,1.0,90.00
2021-04-27 08:37:53.103,0.6821297,0.33829412,0.4846468,0.87596464,0.41077775,-0.053776916,-0.063305326,0.56217325,0.32338616,0.44514778,0.28363535,0.51184297,0.4056112,1.0543988,0.10027997,0.31171122,0.09131163,0.66342753,-0.29129937,0.06594293,772.4176,802.6374,814.7253,776.8498,640.65936,-0.37420654296875,-3.662109375E-4,0.921630859375,4.29168701171875,-5.390777587890625,0.844879150390625,1,1.0,1.0,1.0,1.0,90.00
2021-04-27 08:37:53.631,0.8703434,0.33829412,0.5814966,0.88652307,0.3665203,-0.053776916,-2.247201E-4,0.26615596,0.29863223,0.44514778,0.36253163,0.43160874,0.4366987,1.0543988,0.095557146,0.4407157,0.113465555,0.66342753,-0.22871262,0.06876539,810.293,778.46155,798.60803,816.337,905.38464,-0.3729248046875,9.1552734375E-4,0.929931640625,4.538421630859375,-4.08233642578125,0.635528564453125,1,1.0,1.0,1.0,1.0,90.00
2021-04-27 08:37:54.139,1.064971,0.33829412,0.64410573,0.9238139,0.3138374,-0.053776916,0.23540483,0.18465912,0.2755172,0.44514778,0.4849807,0.55513614,0.5343513,1.0543988,0.16827066,0.58201754,0.20461072,0.66342753,-0.18826361,0.11897938,786.9231,832.4542,805.4579,798.60803,682.5641,-0.3753662109375,-0.00213623046875,0.936279296875,4.538421630859375,-4.1571044921875,0.94207763671875,1,1.0,1.0,1.0,1.0,90.00
2021-04-27 08:37:54.644,0.8683936,0.33829412,0.36820963,0.88504225,0.5507983,-0.053776916,0.23282284,0.6919535,0.53817844,0.44514778,0.4849807,0.9117139,0.53595656,1.0543988,0.13763459,0.6389782,0.070645265,0.66342753,-0.27861732,0.09835116,784.5055,782.8938,813.1135,785.7143,836.4835,-0.37451171875,-0.001708984375,0.9241943359375,4.508514404296875,-3.895416259765625,1.413116455078125,1,1.0,1.0,1.0,1.0,90.00
2021-04-27 08:37:55.153,0.71309566,0.33829412,0.5292671,0.81867486,0.72661155,-0.053776916,0.28701228,1.0204188,0.65361047,0.44514778,0.4502249,1.1194489,0.56999993,1.0543988,0.19144279,0.64591354,0.098546945,0.66342753,-0.34194806,0.09756762,808.68134,811.0989,796.99634,807.8755,707.5458,-0.3853759765625,0.0068359375,0.92437744140625,6.05621337890625,-4.66552734375,2.699127197265625,1,1.0,1.0,1.0,1.0,90.00
2021-04-27 08:37:55.670,0.6868811,0.33829412,0.7067789,0.6152447,0.8419015,-0.053776916,0.17340991,1.1261574,0.7975201,0.44514778,0.3449463,1.1650132,0.5332308,1.0543988,0.19341247,0.5679916,0.14822721,0.66342753,-0.26652178,0.17500825,795.38464,813.91943,800.6227,783.2967,714.3956,-0.37646484375,0.01422119140625,0.93048095703125,4.927215576171875,-5.001983642578125,2.37762451171875,1,1.0,1.0,1.0,1.0,90.00
2021-04-27 08:37:56.171,0.6933229,0.33829412,0.8442081,0.58376396,0.8414068,-0.053776916,0.10368634,0.99851817,0.7867517,0.44514778,0.35514617,1.1650132,0.529342,1.0543988,0.2529199,0.47481766,0.16045049,0.66342753,-0.23228243,0.1496965,813.5165,751.8681,790.14655,812.3077,952.9304,-0.376708984375,0.0111083984375,0.9310302734375,4.20196533203125,-4.732818603515625,0.82244873046875,1,1.0,1.0,1.0,1.0,90.00
2021-04-27 08:37:56.690,0.7712932,0.33829412,0.8271456,0.572506,0.7915536,-0.053776916,0.076866835,0.7718916,0.8054105,0.44514778,0.35837403,0.95043886,0.4540917,1.0543988,0.23951782,0.4677115,0.11190538,0.66342753,-0.2950836,0.14937082,808.68134,806.26373,790.9524,792.96704,701.50183,-0.3758544921875,-6.103515625E-4,0.9288330078125,4.3365478515625,-5.33843994140625,-0.2093505859375,1,1.0,1.0,1.0,1.0,90.00
2021-04-27 08:37:57.192,0.794564,0.33829412,0.68342435,0.8132066,0.5993806,-0.053776916,0.0014364083,0.74294156,0.5853548,0.44514778,0.31708443,0.7599819,0.40979537,1.0543988,0.1945473,0.49932128,-0.031180138,0.66342753,-0.40009513,0.042343557,788.93774,815.5311,789.7436,797.8022,728.9011,-0.38702392578125,0.00482177734375,0.9263916015625,6.160888671875,-5.345916748046875,2.07855224609375,1,1.0,1.0,1.0,1.0,90.00
2021-04-27 08:37:57.709,0.9877975,0.33829412,0.6012111,0.90943944,0.8434985,-0.053776916,0.05927104,0.7887631,0.77492386,0.44514778,0.30459315,0.77689856,0.35384694,1.0543988,0.11607777,0.45518896,0.019335095,0.66342753,-0.4560415,0.047184154,803.0403,794.17584,788.93774,818.7546,864.2857,-0.38037109375,0.03192138671875,0.93450927734375,5.81695556640625,-3.940277099609375,2.684173583984375,1,1.0,1.0,1.0,1.0,90.00
2021-04-27 08:37:58.235,1.0131476,0.3331363,0.6373628,0.9373083,0.8911327,0.34619188,0.14011367,0.7389958,0.7670674,0.38696653,0.46766794,0.8893812,0.26633394,0.9994434,0.12691504,0.38256538,0.026868343,0.7755503,-0.4256416,0.028217584,790.14655,805.4579,799.81683,772.8205,784.10254,-0.31610107421875,0.0355224609375,0.9532470703125,3.84307861328125,-3.312225341796875,-2.1533203125,1,1.0,1.0,1.0,1.0,90.00
2021-04-27 08:37:58.765,1.0824294,0.3331363,0.96498024,1.0546551,0.9584774,0.34619188,0.406001,0.85508794,0.93408185,0.38696653,0.54354054,0.91776866,0.4015345,0.9994434,0.103590325,0.45243803,0.08751224,0.7755503,-0.47054097,0.049385294,764.7619,741.79486,800.2198,773.6264,732.9304,-0.324951171875,-0.001220703125,0.95166015625,3.416900634765625,-1.173858642578125,-6.2506103515625,1,1.0,1.0,1.0,1.0,90.00
2021-04-27 08:37:59.292,1.3879666,0.3331363,0.9838148,1.4525398,1.0592822,0.34619188,0.49527666,1.0180675,0.9065408,0.38696653,0.5461064,0.9086331,0.5147345,0.9994434,0.17302582,0.5663598,0.20083903,0.7755503,-0.45121756,0.051277462,795.38464,810.293,764.7619,794.17584,819.5604,-0.3778076171875,-0.004638671875,0.933349609375,3.24493408203125,-1.188812255859375,0.3887939453125,1,1.0,1.0,1.0,1.0,90.00
2021-04-27 08:37:59.817,1.4205757,0.3331363,1.0452801,1.6163285,1.1016886,0.34619188,0.5235557,1.1814569,0.89504,0.38696653,0.48893622,0.883916,0.5355167,0.9994434,0.17244065,0.6446353,0.22438744,0.7755503,-0.419625,0.09868811,779.2674,817.9487,797.8022,780.4762,717.619,-0.36376953125,0.00262451171875,0.91314697265625,2.758941650390625,-3.222503662109375,1.517791748046875,1,1.0,1.0,1.0,1.0,90.00
2021-04-27 08:38:00.325,1.631381,0.3331363,0.9881227,1.8419801,1.2317535,0.34619188,0.43819258,1.2251184,0.87064064,0.38696653,0.37754253,0.8273547,0.58882445,0.9994434,0.16068706,0.6650904,0.3198798,0.7755503,-0.38049495,0.05776824,783.69965,776.04395,794.17584,788.1319,930.3663,-0.3695068359375,0.0185546875,0.92755126953125,5.30853271484375,-1.951446533203125,-0.545806884765625,1,1.0,1.0,1.0,1.0,90.00
2021-04-27 08:38:00.828,1.631381,0.3331363,1.085742,1.8419801,1.2317535,0.34619188,0.43516693,1.2251184,0.87064064,0.38696653,0.368222,0.8273547,0.58882445,0.9994434,0.13557266,0.6650904,0.3198798,0.7755503,-0.38596997,0.05776824,803.0403,823.5897,799.81683,782.8938,755.09155,-0.4093017578125,0.0206298828125,0.9144287109375,4.246826171875,-1.62994384765625,2.968292236328125,1,1.0,1.0,1.0,1.0,90.00
2021-04-27 08:38:01.332,1.631381,0.3331363,0.85983574,1.8419801,1.2317535,0.34619188,0.62145126,1.2251184,0.87064064,0.38696653,0.2866597,0.8273547,0.58882445,0.9994434,0.26466414,0.6650904,0.3198798,0.7755503,-0.42631447,0.05776824,780.07324,842.52747,785.7143,770.80585,720.84247,-0.3992919921875,0.00518798828125,0.92242431640625,4.299163818359375,-3.536529541015625,0.590667724609375,1,1.0,1.0,1.0,1.0,90.00
2021-04-27 08:38:01.835,0.9294924,0.3331363,0.84950787,0.8608575,0.60165966,0.34619188,0.51861817,1.0336127,0.6405223,0.38696653,0.39050305,0.85529155,0.48926193,0.9994434,0.19892286,0.6081662,0.01361825,0.7755503,-0.3132253,-0.066122904,821.5751,756.7033,801.02563,823.9927,1046.4103,-0.3966064453125,0.0010986328125,0.91778564453125,3.895416259765625,-5.316009521484375,0.366363525390625,1,1.0,1.0,1.0,1.0,90.00
2021-04-27 08:38:02.350,0.830515,0.3331363,0.89627266,0.88490355,0.63357925,0.34619188,0.45709923,0.88601816,0.7318629,0.38696653,0.48241046,0.85821384,0.46724713,0.9994434,0.14132282,0.656329,-0.07238231,0.7755503,-0.30272135,-0.07644286,817.1429,814.7253,811.0989,817.1429,759.5238,-0.405029296875,0.00958251953125,0.918212890625,4.5458984375,-4.23187255859375,0.291595458984375,1,1.0,1.0,1.0,1.0,90.00
2021-04-27 08:38:02.874,0.82606,0.3331363,0.8584641,0.8026376,0.89272785,0.34619188,0.3039147,0.884218,1.1214881,0.38696653,0.48866782,0.8623576,0.5401768,0.9994434,0.03243981,0.6729044,0.025219541,0.7755503,-0.20412238,-0.025768014,800.2198,828.8278,802.6374,794.17584,701.9048,-0.39892578125,0.00274658203125,0.91790771484375,4.224395751953125,-4.433746337890625,0.7476806640625,1,1.0,1.0,1.0,1.0,90.00
2021-04-27 08:38:03.402,0.82164454,0.3331363,0.81833047,0.75999504,0.9705529,0.34619188,0.33551052,0.7517586,1.1455778,0.38696653,0.6173251,0.9560264,0.5274279,0.9994434,0.052915614,0.68219596,0.1068095,0.7755503,-0.2592657,0.18761188,803.44324,822.381,799.011,800.2198,723.663,-0.388916015625,0.00152587890625,0.91229248046875,4.1571044921875,-4.807586669921875,1.443023681640625,1,1.0,1.0,1.0,1.0,90.00
2021-04-27 08:38:03.906,0.91272277,0.3331363,0.7553347,0.73254687,1.0372715,0.34619188,0.30957824,0.8820307,1.1287818,0.38696653,0.61161786,0.9056069,0.54525447,0.9994434,0.08675617,0.6491467,0.17090605,0.7755503,-0.2489648,0.30790776,803.8461,846.9597,798.20514,804.2491,732.9304,-0.39202880859375,0.0040283203125,0.92034912109375,4.628143310546875,-5.0543212890625,1.727142333984375,1,1.0,1.0,1.0,1.0,90.00
2021-04-27 08:38:04.412,0.948779,0.3331363,0.74915886,0.9504078,0.7929874,0.34619188,0.31119263,0.7227219,0.8097248,0.38696653,0.6101633,0.7032744,0.43473864,0.9994434,0.055014018,0.61399657,0.18146303,0.7755503,-0.373179,0.28486028,804.2491,798.60803,808.68134,809.4872,800.2198,-0.3897705078125,0.001953125,0.9296875,4.38140869140625,-3.521575927734375,0.9869384765625,1,1.0,1.0,1.0,1.0,85.00
2021-04-27 08:38:04.934,1.1385412,0.3331363,0.72021276,1.0094448,0.6568276,0.34619188,0.235835,0.5046825,0.7866931,0.38696653,0.57515055,0.6569377,0.5111483,0.9994434,0.020511547,0.68646246,0.18313628,0.7755503,-0.36658278,0.031234933,796.5934,801.02563,809.4872,815.12823,839.707,-0.38824462890625,0.0057373046875,0.923583984375,4.239349365234375,-4.598236083984375,0.49346923828125,1,1.0,1.0,1.0,1.0,85.00
2021-04-27 08:38:05.439,1.1591815,0.3331363,0.8856367,1.1061394,0.6526085,0.34619188,0.3259342,0.60000193,0.7044875,0.38696653,0.45748428,0.9369436,0.54388404,0.9994434,-0.012030124,0.6562077,0.18710616,0.7755503,-0.40225205,0.10360282,806.6667,846.55676,800.6227,796.99634,694.2491,-0.38555908203125,-4.2724609375E-4,0.915771484375,4.97955322265625,-3.446807861328125,1.55517578125,1,1.0,1.0,1.0,1.0,85.00
2021-04-27 08:38:05.966,0.986098,0.3331363,0.82842356,1.0247693,0.6564068,0.34619188,0.32103336,0.5641922,1.0140584,0.38696653,0.45465702,0.9493336,0.38031265,0.9994434,0.002175745,0.6018424,0.021952352,0.7755503,-0.39287677,0.12365866,804.65204,803.8461,800.2198,792.5641,749.85345,-0.38702392578125,0.00567626953125,0.92193603515625,4.35150146484375,-4.538421630859375,1.024322509765625,1,1.0,1.0,1.0,1.0,85.00
2021-04-27 08:38:06.497,0.6453864,0.3331363,0.6909129,0.72817403,0.5876409,0.34619188,0.32747087,0.5191656,0.9774167,0.38696653,0.3628778,1.0465783,0.21684106,0.9994434,-0.05019974,0.4727382,-0.07467578,0.7755503,-0.38411328,0.08003254,781.28204,832.4542,803.8461,775.2381,738.97437,-0.380615234375,1.8310546875E-4,0.92498779296875,4.329071044921875,-4.0673828125,1.009368896484375,1,1.0,1.0,1.0,1.0,85.00
2021-04-27 08:38:07.024,0.8963266,0.3331363,0.68806607,0.6833358,0.9165195,0.34619188,0.25006905,0.71824,1.2028944,0.38696653,0.35092843,1.035275,0.3999786,0.9994434,-0.033097852,0.5291939,-0.05496857,0.7755503,-0.407584,0.12823312,790.54944,811.50183,807.0696,787.72894,722.8571,-0.38134765625,0.0025634765625,0.92138671875,4.77020263671875,-3.27484130859375,1.4654541015625,1,1.0,1.0,1.0,1.0,85.00
2021-04-27 08:38:07.548,0.9791249,0.3331363,0.92300457,0.705237,1.0539725,0.34619188,0.24431434,0.85231715,1.1873773,0.38696653,0.2933274,1.0327739,0.5232784,0.9994434,-0.025385484,0.59065866,0.026651971,0.7755503,-0.4565935,0.17379291,815.12823,813.91943,799.81683,813.5165,778.0586,-0.384765625,-0.00628662109375,0.923095703125,5.09918212890625,-3.7384033203125,0.261688232421875,1,1.0,1.0,1.0,1.0,85.00
2021-04-27 08:38:08.066,1.1273655,0.3331363,0.9060927,0.8763201,1.1994791,0.34619188,0.14174621,1.0543214,1.1873773,0.38696653,0.35095626,1.0284636,0.6109316,0.9994434,0.04959503,0.6494531,0.017925493,0.7755503,-0.57285017,0.2991557,817.9487,811.0989,794.9817,807.8755,648.71796,-0.390625,-0.00921630859375,0.919189453125,4.822540283203125,-4.134674072265625,0.904693603515625,1,1.0,1.0,1.0,1.0,85.00
2021-04-27 08:38:08.573,0.15644291,0.3331363,0.67007643,-0.06750463,0.21312886,0.34619188,-0.0157214,0.26890472,0.7244992,0.38696653,0.2390239,0.50442183,0.3322161,0.9994434,0.057954393,0.3215679,-0.083595455,0.7755503,-0.57611483,0.047672316,804.2491,789.34064,805.8608,810.293,830.84247,-0.3917236328125,-0.002197265625,0.92181396484375,4.358978271484375,-4.18701171875,1.00189208984375,1,1.0,1.0,1.0,1.0,85.00
2021-04-27 08:38:09.085,0.5906155,0.3331363,0.34141016,0.47348028,0.25174072,0.34619188,-0.15156327,0.38427517,0.84405124,0.38696653,0.27336702,0.66165155,0.3325978,0.9994434,0.014815632,0.44507712,0.04284551,0.7755503,-0.50650275,-0.011316987,786.1172,836.4835,792.1612,779.67035,811.9048,-0.39874267578125,-0.0089111328125,0.92266845703125,5.061798095703125,-3.36456298828125,1.4056396484375,1,1.0,1.0,1.0,1.0,85.00
2021-04-27 08:38:09.604,0.89777166,0.3331363,0.6569095,0.62558275,0.2782669,0.34619188,0.03697842,0.45960674,0.85242397,0.38696653,0.40591046,0.68184555,0.4270405,0.9994434,-0.03117476,0.42728785,0.031706575,0.7755503,-0.47529513,-0.033164058,808.2784,794.57874,813.91943,813.5165,697.8755,-0.395263671875,-0.002685546875,0.917724609375,4.658050537109375,-3.940277099609375,1.308441162109375,1,1.0,1.0,1.0,1.0,85.00
2021-04-27 08:38:10.117,0.9921974,0.3331363,0.86311436,0.7886201,0.25065085,0.34619188,0.33810207,0.53990096,0.70069665,0.38696653,0.42194885,0.56079626,0.4411082,0.9994434,0.048873212,0.47784767,0.12955144,0.7755503,-0.38797545,-0.08715614,819.15753,807.0696,809.0842,812.3077,748.24176,-0.39788818359375,-0.004150390625,0.91986083984375,4.643096923828125,-5.585174560546875,0.46356201171875,1,1.0,1.0,1.0,1.0,85.00
2021-04-27 08:38:10.619,0.89954513,0.3331363,0.81190306,0.6286234,0.11089628,0.34619188,0.33066055,0.36164752,0.6255474,0.38696653,0.42718524,0.51532215,0.432268,0.9994434,0.12234569,0.55357325,0.22158466,0.7755503,-0.32969528,-0.008958737,794.17584,833.663,798.20514,791.75824,724.0659,-0.389892578125,0.0018310546875,0.931640625,1.981353759765625,-4.007568359375,-0.04486083984375,1,1.0,1.0,1.0,1.0,85.00
2021-04-27 08:38:11.126,,,,,,,,,,,,,,,,,,,,,,,,,,,,,,,,,,,,,,/muse/elements/blink
2021-04-27 08:38:11.128,0.48153967,0.3331363,0.7514326,1.0092233,0.044609156,0.34619188,0.23541611,0.86683357,0.5777943,0.38696653,0.43975744,1.0233979,0.27653283,0.9994434,0.13356204,0.6189505,0.26792407,0.7755503,-0.28802165,0.05514639,803.44324,804.2491,809.4872,811.0989,747.4359,-0.418701171875,-0.09710693359375,0.89776611328125,15.110626220703125,-8.531036376953125,0.11962890625,1,1.0,1.0,1.0,1.0,85.00
2021-04-27 08:38:11.642,,,,,,,,,,,,,,,,,,,,,,,,,,,,,,,,,,,,,,/muse/elements/blink
2021-04-27 08:38:11.643,0.30080414,0.3331363,0.49020422,1.3556348,0.07029453,0.34619188,-0.045415547,1.0942729,0.5777943,0.38696653,0.348172,1.2157468,0.24695459,0.9994434,0.0167646,0.64100295,0.26968646,0.7755503,-0.34046662,0.0044091945,816.7399,809.0842,805.05493,824.7985,734.1392,-0.3865966796875,0.0296630859375,0.933349609375,10.66192626953125,-7.514190673828125,5.8917236328125,1,1.0,1.0,1.0,1.0,85.00
2021-04-27 08:38:12.150,0.43023005,0.3331363,0.6220015,1.5223062,0.17339611,0.34619188,-0.05607872,1.2588378,0.5557839,0.38696653,0.27915242,1.2157468,0.11997264,0.9994434,0.028423553,0.64568436,0.12832308,0.7755503,-0.36017612,-0.018423405,817.9487,834.87177,790.54944,806.26373,745.0183,-0.35943603515625,0.04779052734375,0.93133544921875,0.306549072265625,-5.704803466796875,-4.306640625,1,1.0,1.0,1.0,1.0,85.00
2021-04-27 08:38:12.668,0.43023005,0.3331363,0.5121358,1.5941879,0.17339611,0.34619188,-0.12828857,1.2616878,0.5557839,0.38696653,0.27915242,1.2120893,0.11997264,0.9994434,0.02126322,0.62976086,0.12832308,0.7755503,-0.37961483,-0.14057201,712.381,753.47986,823.1868,734.1392,817.9487,-0.355712890625,0.0330810546875,0.9371337890625,2.82623291015625,-4.702911376953125,-3.22998046875,1,1.0,1.0,1.0,1.0,85.00
2021-04-27 08:38:12.940,,,,,,,,,,,,,,,,,,,,,,,,,,,,,,,,,,,,,,/muse/elements/blink
2021-04-27 08:38:13.176,0.43023005,0.3331363,0.61636406,1.6131083,0.17339611,0.34619188,-0.09508465,1.2604831,0.5557839,0.38696653,0.19519323,1.2036875,0.11997264,0.9994434,0.058624387,0.6132453,0.12832308,0.7755503,-0.32754758,-0.17540115,796.99634,801.02563,773.22345,788.93774,743.4066,-0.361328125,0.0037841796875,0.93017578125,3.955230712890625,-2.818756103515625,0.76263427734375,1,1.0,1.0,1.0,1.0,85.00
2021-04-27 08:38:13.687,0.43023005,0.3331363,0.5954476,1.6131083,0.17339611,0.34619188,-0.015772248,1.2604831,0.5557839,0.38696653,0.114467464,1.2036875,0.11997264,0.9994434,0.011442412,0.6132453,0.12832308,0.7755503,-0.33576277,-0.17540115,803.0403,837.28937,770.80585,796.1905,692.6374,-0.39166259765625,-0.0037841796875,0.91748046875,2.938385009765625,-1.891632080078125,1.577606201171875,1,1.0,1.0,1.0,1.0,85.00
2021-04-27 08:38:14.191,0.43023005,0.3331363,0.8290097,1.6131083,0.17339611,0.34619188,0.074748464,1.2604831,0.5557839,0.38696653,0.09652504,1.2036875,0.11997264,0.9994434,-0.0062970878,0.6132453,0.12832308,0.7755503,-0.3063375,-0.17540115,799.41394,809.89014,778.0586,789.7436,761.9414,-0.46746826171875,-0.00555419921875,0.8896484375,5.682373046875,-3.22998046875,0.426177978515625,1,1.0,1.0,1.0,1.0,85.00
2021-04-27 08:38:14.706,0.43023005,0.3331363,0.9983686,1.6131083,0.17339611,0.34619188,0.1431928,1.2604831,0.5557839,0.38696653,-0.015396103,1.2036875,0.11997264,0.9994434,0.019746918,0.6132453,0.12832308,0.7755503,-0.28835443,-0.17540115,813.5165,836.8865,790.9524,794.17584,725.2747,-0.4063720703125,-0.00115966796875,0.91375732421875,4.605712890625,-9.64508056640625,1.7047119140625,1,2.0,1.0,1.0,2.0,90.00
2021-04-27 08:38:15.230,0.96141654,0.3331363,0.9890022,1.0591607,0.78356415,0.34619188,0.52624524,0.82024574,0.8903624,0.38696653,0.46004257,0.7133465,0.57027286,0.9994434,0.036237806,0.44526565,0.11354467,0.7755503,-0.34738004,0.3190344,825.2015,833.2601,803.0403,809.4872,695.8608,-0.4134521484375,-0.00128173828125,0.91070556640625,4.366455078125,-4.388885498046875,1.009368896484375,1,1.0,1.0,1.0,1.0,90.00
2021-04-27 08:38:15.751,0.8768923,0.3331363,0.83321464,0.9628404,0.6588652,0.34619188,0.4875835,0.74351704,0.89215827,0.38696653,0.45203954,0.73377967,0.51085615,0.9994434,0.025279254,0.43185353,0.08250535,0.7755503,-0.36819577,0.24929889,770.80585,735.34796,817.9487,801.4286,1046.0073,-0.39910888671875,-0.0050048828125,0.91839599609375,4.418792724609375,-4.9945068359375,1.607513427734375,1,1.0,1.0,1.0,1.0,90.00
2021-04-27 08:38:16.262,0.7248255,0.3331363,0.6995347,1.0578642,0.398665,0.34619188,0.48189694,0.73291487,0.7311843,0.38696653,0.48573747,0.8246849,0.4426521,0.9994434,0.075194456,0.43833843,0.009869673,0.7755503,-0.42163354,0.21621478,805.8608,822.381,797.8022,794.9817,751.8681,-0.40191650390625,-0.005859375,0.91754150390625,4.08233642578125,-4.792633056640625,0.76263427734375,1,1.0,1.0,1.0,1.0,90.00
2021-04-27 08:38:16.778,0.6720803,0.3331363,0.42135093,0.9215743,0.27999422,0.34619188,0.33879974,0.57438266,0.37163627,0.38696653,0.4468957,0.7928892,0.3820949,0.9994434,0.12277302,0.47818342,0.022198463,0.7755503,-0.42356884,0.12808298,811.50183,810.293,807.47253,819.9634,768.7912,-0.40447998046875,-0.005615234375,0.91644287109375,4.897308349609375,-3.730926513671875,2.093505859375,1,1.0,1.0,1.0,1.0,90.00
2021-04-27 08:38:17.285,0.6720803,0.3331363,0.232422,0.96755594,0.27999422,0.34619188,0.2719055,0.70015156,0.37163627,0.38696653,0.27526674,0.841565,0.3820949,0.9994434,0.110632695,0.48125932,0.022198463,0.7755503,-0.41584688,0.13042228,808.68134,767.1795,799.81683,809.4872,981.9414,-0.40234375,-0.002685546875,0.9171142578125,4.717864990234375,-4.807586669921875,2.07855224609375,1,1.0,1.0,1.0,1.0,90.00
2021-04-27 08:38:17.801,0.83493155,0.3331363,0.33375552,0.9232782,0.86167353,0.34619188,0.2277206,0.6853557,0.41761684,0.38696653,0.25819016,0.7784851,0.38615307,0.9994434,0.07827789,0.47225073,0.10818663,0.7755503,-0.35458004,0.14470334,822.7839,833.2601,811.9048,826.4103,782.8938,-0.410888671875,-0.00653076171875,0.9114990234375,4.284210205078125,-3.5888671875,0.755157470703125,1,1.0,1.0,1.0,1.0,90.00
2021-04-27 08:38:18.309,0.83493155,0.3331363,0.39672247,0.9481187,0.86167353,0.34619188,0.004360896,0.773075,0.41761684,0.38696653,0.12429393,0.6706487,0.38615307,0.9994434,0.0019086151,0.43425024,0.10818663,0.7755503,-0.34272513,0.13801314,799.011,792.5641,791.3553,801.8315,819.9634,-0.4129638671875,-0.00579833984375,0.90692138671875,5.316009521484375,-4.91973876953125,1.54022216796875,1,1.0,1.0,1.0,1.0,90.00
2021-04-27 08:38:18.809,0.83493155,0.3331363,0.5150926,0.98992854,0.86167353,0.34619188,-0.024862487,0.69627446,0.41761684,0.38696653,0.06311213,0.64634603,0.38615307,0.9994434,-0.0053603756,0.42737934,0.10818663,0.7755503,-0.37612012,0.13915527,800.6227,806.26373,794.9817,790.9524,807.8755,-0.399658203125,0.00469970703125,0.91650390625,4.478607177734375,-4.18701171875,2.026214599609375,1,1.0,1.0,1.0,1.0,90.00
2021-04-27 08:38:19.320,0.83493155,0.3331363,0.45761907,0.98992854,0.86167353,0.34619188,-0.0900876,0.69627446,0.41761684,0.38696653,0.16549462,0.64634603,0.38615307,0.9994434,-0.0224882,0.42737934,0.10818663,0.7755503,-0.47703615,0.13915527,777.6557,836.4835,807.0696,777.6557,759.5238,-0.40167236328125,-0.00164794921875,0.9190673828125,4.119720458984375,-3.70849609375,0.37384033203125,1,1.0,1.0,1.0,1.0,90.00
2021-04-27 08:38:19.832,0.83493155,0.3331363,0.38363168,0.98992854,0.86167353,0.34619188,0.06163552,0.69627446,0.41761684,0.38696653,0.2418379,0.64634603,0.38615307,0.9994434,-0.022503449,0.42737934,0.10818663,0.7755503,-0.5348191,0.13915527,823.5897,821.1722,819.9634,813.5165,746.63007,-0.4053955078125,-0.00347900390625,0.9122314453125,4.478607177734375,-4.4561767578125,1.1065673828125,1,1.0,1.0,1.0,1.0,90.00
2021-04-27 08:38:20.350,1.4083139,0.3331363,0.12247726,1.0977826,1.1967664,0.34619188,0.071676314,0.8804295,1.0374967,0.38696653,0.2190405,0.9913659,0.44691235,0.9994434,0.04415046,0.528578,0.06277193,0.7755503,-0.5821232,0.14724103,817.9487,818.3516,817.5458,809.89014,784.90845,-0.4033203125,-0.00299072265625,0.9154052734375,4.747772216796875,-4.373931884765625,0.94207763671875,1,1.0,1.0,1.0,1.0,90.00
2021-04-27 08:38:20.859,0.4954455,0.3331363,0.23616886,0.8410175,0.7143134,0.34619188,0.023753515,0.75177217,0.8980611,0.38696653,0.22705725,0.9427189,0.5475444,0.9994434,0.049243867,0.4927803,0.040626314,0.7755503,-0.48017868,0.08619726,796.5934,821.978,801.4286,800.6227,660.80585,-0.40283203125,-0.00439453125,0.91754150390625,4.942169189453125,-5.0244140625,1.158905029296875,1,1.0,1.0,1.0,1.0,90.00
2021-04-27 08:38:21.362,0.61218286,-0.016545981,0.2371906,0.7166282,0.52563226,0.20892379,0.007741231,0.67589366,0.9304562,0.6328212,0.47387823,0.94920903,0.4732115,1.0279292,0.10517802,0.5028444,0.014308542,0.601984,-0.4911908,0.0115149245,797.3993,804.65204,802.23444,809.0842,761.9414,-0.4033203125,-0.0042724609375,0.91571044921875,4.673004150390625,-4.32159423828125,1.413116455078125,1,1.0,1.0,1.0,1.0,90.00
2021-04-27 08:38:21.878,0.78915775,-0.021463644,0.078021534,0.33924305,0.5351295,0.20526965,0.0684014,0.5075586,1.359687,0.6730189,0.4629158,0.8335744,0.43999168,1.0480624,0.12682794,0.48176655,0.031963084,0.52902585,-0.48457164,-0.0983909,810.696,805.05493,802.6374,815.5311,866.7033,-0.39715576171875,-0.0045166015625,0.9171142578125,4.972076416015625,-5.944061279296875,0.201873779296875,1,1.0,1.0,1.0,1.0,90.00
2021-04-27 08:38:22.390,0.8601782,-0.016557341,-0.14583187,0.8930883,0.7989256,0.2547556,0.059692867,0.8192066,1.3975924,0.65573573,0.4629158,1.1220486,0.3722116,1.0575956,0.1146913,0.5713181,0.024175335,0.5829462,-0.46851873,-0.15905324,807.8755,826.4103,797.3993,807.0696,727.6923,-0.4033203125,-0.00311279296875,0.91729736328125,4.50103759765625,-4.7552490234375,0.306549072265625,1,1.0,1.0,1.0,1.0,90.00
2021-04-27 08:38:22.895,0.6712369,0.19085096,-0.4461273,0.836318,0.91677076,0.2012178,-0.0026534516,0.775944,1.4014393,0.6565258,0.31040686,1.1220486,0.42160964,1.0472698,0.031477954,0.51243895,0.029731872,0.55128527,-0.42892247,-0.16334927,830.0366,803.44324,801.8315,809.4872,712.7839,-0.40576171875,-0.00152587890625,0.91741943359375,4.35150146484375,-4.41131591796875,1.1663818359375,1,1.0,1.0,1.0,1.0,90.00
2021-04-27 08:38:23.410,0.6603246,0.30227333,-0.39972368,0.8875793,0.84584314,0.15982704,0.070663564,0.8013512,1.3755068,0.52345324,0.20693341,1.1237334,0.47666508,1.0453788,-0.0055530006,0.4510691,0.017286818,0.6211591,-0.43518817,-0.10330501,802.23444,816.7399,790.9524,800.2198,759.92676,-0.40472412109375,-0.00341796875,0.91387939453125,4.358978271484375,-4.41131591796875,1.136474609375,1,1.0,1.0,1.0,1.0,90.00
2021-04-27 08:38:23.919,0.7050017,0.31883827,-0.42695972,0.7874195,0.7583267,0.02800139,0.12037395,0.64919204,0.9784998,0.5060739,0.23575564,0.98390794,0.5351461,1.0452855,0.006076299,0.3429083,0.087693766,0.6649422,-0.48162326,0.055315427,811.0989,799.81683,801.8315,826.8132,859.0476,-0.39886474609375,-0.0064697265625,0.91558837890625,4.56085205078125,-4.35150146484375,0.695343017578125,1,1.0,1.0,1.0,1.0,90.00
2021-04-27 08:38:24.447,0.68898964,0.3173371,-0.22410865,0.77559185,0.66946286,0.08750272,0.004818943,0.6208274,0.9367815,0.5263256,0.19312878,0.97200966,0.49389938,1.0602341,0.0047539775,0.3100921,0.11026534,0.8181991,-0.5027814,0.14982998,796.1905,801.02563,793.7729,810.696,862.27106,-0.39385986328125,-0.00408935546875,0.9219970703125,4.5758056640625,-5.6524658203125,0.246734619140625,1,1.0,1.0,1.0,1.0,90.00
2021-04-27 08:38:24.950,0.58019966,0.2252727,-0.03181155,0.65878993,0.5801733,0.12601033,-0.15332267,0.41192865,0.7822886,0.49954623,0.07514264,0.93711144,0.51226646,1.0047333,-0.08229046,0.34613863,0.16835174,0.8716633,-0.45368254,0.209603,800.6227,830.4396,793.36993,789.7436,686.5934,-0.4002685546875,-0.00537109375,0.918212890625,4.306640625,-4.66552734375,1.338348388671875,1,1.0,1.0,1.0,1.0,85.00
2021-04-27 08:38:25.465,0.619765,0.19226845,0.08424888,0.6477143,0.57594264,0.1649469,-0.20225666,0.36787918,0.86361057,0.4751947,0.47149765,0.69193465,0.49527684,0.93550724,-0.046325423,0.37592447,0.1360999,0.88608277,-0.4743648,0.18875235,814.3223,828.8278,809.89014,812.3077,680.54944,-0.40472412109375,-0.00384521484375,0.91766357421875,4.62066650390625,-4.71038818359375,1.12152099609375,1,1.0,1.0,1.0,1.0,85.00
2021-04-27 08:38:25.998,0.991766,0.09465218,0.54122335,0.7714204,0.80916977,0.11652719,0.26450574,0.42261258,0.9223648,0.4235064,0.5846605,0.6666928,0.5062428,0.8669259,-0.041901257,0.37916815,0.10779614,0.8558656,-0.42164677,0.2142565,810.293,826.0073,794.17584,798.60803,803.44324,-0.405517578125,-0.001708984375,0.915283203125,4.8150634765625,-4.42626953125,1.368255615234375,1,1.0,1.0,1.0,1.0,85.00
2021-04-27 08:38:26.455,,,,,,,,,,,,,,,,,,,,,,,,,,,,,,,,,,,,,,/muse/elements/blink
2021-04-27 08:38:26.520,1.0523186,-0.03538257,0.717613,0.9283273,0.87624294,0.09140919,0.34972203,0.8873532,0.94396293,0.3129785,0.58938867,1.0559949,0.39338955,0.87455827,0.08225618,0.55161685,0.10918572,0.8515948,-0.37596574,0.15859942,787.72894,843.73627,806.6667,782.0879,661.6117,-0.40460205078125,-0.00506591796875,0.9168701171875,4.5758056640625,-4.403839111328125,1.413116455078125,1,1.0,1.0,1.0,1.0,85.00
2021-04-27 08:38:27.044,1.1258454,-0.03538257,0.8668708,1.2369212,0.8659039,0.09140919,0.38080737,1.1935679,0.88949245,0.3129785,0.59698665,1.0799679,0.30476484,0.87455827,0.059538964,0.6313218,0.107794955,0.8515948,-0.3131955,0.0521764,804.2491,791.75824,802.23444,810.696,780.87915,-0.3955078125,-0.00885009765625,0.9178466796875,4.508514404296875,-4.164581298828125,1.5850830078125,1,1.0,1.0,1.0,1.0,85.00
2021-04-27 08:38:27.557,0.8143501,-0.03538257,0.8617709,1.1009244,0.5783159,0.09140919,0.21343964,1.0759728,0.87414956,0.3129785,0.44539514,1.0799679,0.16942741,0.87455827,0.049706012,0.5093076,0.20680776,0.8515948,-0.3103344,0.039827645,784.10254,813.1135,814.3223,798.60803,777.6557,-0.4013671875,-0.00860595703125,0.91558837890625,4.56085205078125,-5.03936767578125,1.07666015625,1,1.0,1.0,1.0,1.0,85.00
2021-04-27 08:38:28.064,0.8143501,-0.03538257,0.77190304,0.9392996,0.5783159,0.09140919,0.13390908,0.9223582,0.87414956,0.3129785,0.3408917,1.0419632,0.16942741,0.87455827,-0.11008155,0.37114272,0.20680776,0.8515948,-0.3668074,-0.013560123,808.68134,815.9341,808.68134,818.3516,783.2967,-0.4066162109375,-0.0050048828125,0.9149169921875,4.867401123046875,-4.62066650390625,1.0467529296875,1,1.0,1.0,1.0,1.0,85.00
2021-04-27 08:38:28.576,0.79575574,0.35330638,0.6277234,0.5176586,0.6891914,0.185601,0.06130768,0.44602424,0.65892154,0.50915134,0.24668308,0.85240203,0.51592547,0.9269719,-0.053870287,0.31928134,-0.12738891,0.7579368,-0.45058683,-0.010736038,820.3663,810.293,795.78754,808.68134,796.99634,-0.40606689453125,-0.00244140625,0.90850830078125,4.433746337890625,-4.3963623046875,1.03179931640625,1,1.0,1.0,1.0,1.0,85.00
2021-04-27 08:38:29.081,0.8716145,0.3357074,0.45272344,0.64056724,0.782601,0.24760282,0.009690428,0.4946622,0.66999984,0.65750325,0.21880074,0.84075385,0.53711647,0.97203827,-0.07192062,0.4153111,-0.06243299,0.7481645,-0.546922,-0.0069255205,774.0293,822.381,811.0989,773.6264,673.2967,-0.40728759765625,-0.0057373046875,0.91400146484375,4.628143310546875,-4.074859619140625,1.3458251953125,1,1.0,1.0,1.0,1.0,85.00
2021-04-27 08:38:29.592,0.9080533,0.36249653,0.37415922,0.83652174,0.8192029,0.15405993,0.036583114,0.68613946,0.7527604,0.6461089,0.3841309,0.82303566,0.53807455,0.94440305,-0.05665413,0.48315737,-0.069074355,0.7085182,-0.5723605,-0.020200111,802.23444,780.07324,796.1905,803.44324,772.8205,-0.39532470703125,-0.00640869140625,0.91650390625,4.643096923828125,-5.301055908203125,0.366363525390625,1,1.0,1.0,1.0,1.0,85.00
2021-04-27 08:38:30.105,0.80259055,0.3817708,0.25238085,0.8714829,0.7951628,0.11189123,0.04165217,0.7927528,0.7997914,0.64760566,0.26739174,0.8280563,0.4301491,0.9756088,-0.077388816,0.50462395,0.035891738,0.65288544,-0.562148,-0.09579918,803.44324,805.8608,807.0696,807.0696,882.8205,-0.40667724609375,-0.008544921875,0.91400146484375,4.246826171875,-5.4132080078125,0.560760498046875,1,1.0,1.0,1.0,1.0,85.00
2021-04-27 08:38:30.626,0.6493535,0.42287758,0.20963742,0.8734832,0.7266918,-0.07744401,-0.086442254,0.8101011,0.8664296,0.34938577,0.24514972,0.6119862,0.3667967,0.95306486,-0.06398394,0.54193014,0.01741996,0.5982681,-0.50389844,-0.13374935,811.50183,819.15753,807.0696,813.1135,750.2564,-0.40966796875,-0.00628662109375,0.90972900390625,4.463653564453125,-4.85992431640625,1.054229736328125,1,1.0,1.0,1.0,1.0,85.00
2021-04-27 08:38:31.137,0.50223416,0.32514805,0.043757454,0.7384463,0.5979257,0.054431323,-0.33107838,0.66735464,0.8664296,0.37357515,0.1697791,0.64271325,0.3011497,1.0433533,-0.10882149,0.508416,-2.0683884E-4,0.5181615,-0.48363978,-0.17593122,814.7253,785.31134,803.44324,813.1135,915.05493,-0.40716552734375,-0.0052490234375,0.91436767578125,4.41131591796875,-4.269256591796875,1.233673095703125,1,1.0,1.0,1.0,1.0,85.00
2021-04-27 08:38:31.648,0.5658954,0.10114662,0.0106207905,0.6811629,0.5055821,-0.014961735,-0.56145227,0.590934,0.6829608,0.34021834,0.09123286,0.7146019,0.3021537,1.0424683,-0.17155607,0.4058252,0.014098372,0.50332797,-0.42191473,-0.110461846,817.5458,831.6484,799.41394,795.78754,762.74725,-0.4085693359375,-0.003662109375,0.9141845703125,4.852447509765625,-4.26177978515625,1.532745361328125,1,1.0,1.0,1.0,1.0,85.00
