TimeStamp,Delta_TP9,Delta_AF7,Delta_AF8,Delta_TP10,Theta_TP9,Theta_AF7,Theta_AF8,Theta_TP10,Alpha_TP9,Alpha_AF7,Alpha_AF8,Alpha_TP10,Beta_TP9,Beta_AF7,Beta_AF8,Beta_TP10,Gamma_TP9,Gamma_AF7,Gamma_AF8,Gamma_TP10,RAW_TP9,RAW_AF7,RAW_AF8,RAW_TP10,AUX_RIGHT,Accelerometer_X,Accelerometer_Y,Accelerometer_Z,Gyro_X,Gyro_Y,Gyro_Z,HeadBandOn,HSI_TP9,HSI_AF7,HSI_AF8,HSI_TP10,Battery,Elements
2021-04-10 12:28:45.070,0.32645133,-0.017951855,0.9916345,-0.04783158,0.115602896,-0.11874849,0.1046382,0.43389088,0.5687973,0.22650114,0.21786761,0.56216973,0.2271469,0.11368236,-0.04192883,0.15315352,-0.16409871,-0.21954498,-0.5618115,0.01097981,814.3223,814.7253,803.0403,812.3077,718.022,0.0123291015625,-0.05218505859375,1.00250244140625,5.749664306640625,-3.46923828125,-0.530853271484375,1,1.0,1.0,1.0,1.0,100.00
2021-04-10 12:28:45.573,0.23215841,-0.15663362,0.9485065,0.17320079,-0.15733574,-0.11118089,0.18740425,-0.2966243,0.49734202,0.24380045,0.23521452,-0.0823563,0.3350521,0.2113786,-0.08563177,0.65100664,-0.21180804,-0.20747732,-0.5040502,0.3159271,806.26373,800.2198,801.4286,808.68134,668.0586,0.00982666015625,-0.05548095703125,1.0067138671875,3.835601806640625,-5.839385986328125,1.256103515625,1,1.0,1.0,1.0,1.0,100.00
2021-04-10 12:28:46.080,0.7326208,0.21136856,0.12070994,0.89758414,0.39661247,-0.032522272,0.042667992,0.7194777,0.6052787,0.24380045,0.17192456,0.27159432,0.3804825,0.21432817,-0.044008613,0.6613505,-0.30006656,-0.3007521,-0.43635502,0.44758287,801.02563,806.26373,801.8315,799.41394,614.4689,0.04913330078125,-0.09881591796875,1.0067138671875,2.549591064453125,-7.01324462890625,2.714080810546875,1,1.0,1.0,1.0,1.0,100.00
2021-04-10 12:28:46.605,0.7970604,0.200823,0.1403441,0.93167156,0.46600115,-0.1155418,-5.1292224E-4,0.73554873,0.52623206,0.21216963,0.052103408,0.27159432,0.37561828,0.14812407,-0.013834337,0.6375864,-0.37421262,-0.3460024,-0.445553,0.434129,816.7399,808.68134,799.011,816.337,750.65936,0.009521484375,-0.09149169921875,0.99761962890625,5.0244140625,-1.472930908203125,2.400054931640625,1,1.0,1.0,1.0,1.0,100.00
2021-04-10 12:28:47.130,1.0081275,0.34597027,0.14599882,1.0725589,0.76404417,-0.25312817,-0.11657305,0.86890066,0.85830176,-0.025652165,0.008264777,0.8701663,0.38975286,0.14775293,0.023534352,0.5897336,-0.32606843,-0.38961163,-0.426176,0.40563628,761.9414,812.71063,790.54944,752.27106,722.4542,0.00274658203125,-0.0875244140625,0.99713134765625,5.60760498046875,-4.478607177734375,-0.4486083984375,1,1.0,1.0,1.0,1.0,100.00
2021-04-10 12:28:47.202,,,,,,,,,,,,,,,,,,,,,,,,,,,,,,,,,,,,,,/muse/elements/blink
2021-04-10 12:28:47.642,0.9961357,0.34265506,0.48426503,1.025726,0.80484986,-0.2562734,-0.12266468,0.760243,0.84301585,0.016942646,0.28195882,0.8701663,0.3525299,0.19928461,-0.057295714,0.49201685,-0.24863596,-0.37405872,-0.4505682,0.23052526,801.02563,808.2784,813.5165,809.4872,706.337,-0.02093505859375,-0.0797119140625,0.99334716796875,6.0711669921875,-2.5421142578125,-2.1234130859375,1,1.0,1.0,1.0,1.0,100.00
2021-04-10 12:28:48.144,1.0743781,0.42966673,0.5139702,0.98567605,0.9371655,-0.25939664,-0.030419892,0.7317959,0.84301585,0.031031717,0.30497795,0.8701663,0.3779604,0.33023986,-0.06317712,0.5243895,-0.19867,-0.36032644,-0.45507038,0.21442616,799.011,791.3553,806.26373,811.0989,786.9231,1.220703125E-4,-0.07012939453125,1.01080322265625,6.9384765625,-5.443115234375,0.1495361328125,1,1.0,1.0,1.0,1.0,100.00
2021-04-10 12:28:48.682,0.57096666,0.3626937,0.49742085,0.77830046,0.18238045,-0.085579865,-0.035963498,0.09064588,0.08713066,0.031031717,0.3551776,0.47630945,0.28834665,0.36945355,-0.007929639,0.7890605,0.055282224,-0.38810802,-0.5096135,0.71336424,795.38464,801.4286,807.47253,805.4579,766.77655,-0.0191650390625,-0.00640869140625,1.00537109375,10.84136962890625,-2.28790283203125,-11.746063232421875,1,1.0,1.0,1.0,1.0,100.00
2021-04-10 12:28:48.927,,,,,,,,,,,,,,,,,,,,,,,,,,,,,,,,,,,,,,/muse/elements/blink
2021-04-10 12:28:49.197,0.57096666,0.23019682,0.7259541,0.77830046,0.18238045,-0.18740664,0.011070996,0.09064588,0.08713066,-0.26674184,0.29232532,0.47630945,0.28834665,0.35343206,0.07407173,0.7890605,0.055282224,-0.34284925,-0.5035942,0.71336424,813.5165,785.31134,817.9487,824.7985,817.1429,-0.142333984375,-0.0238037109375,0.99468994140625,20.419158935546875,4.044952392578125,-24.105224609375,1,1.0,1.0,1.0,1.0,100.00
2021-04-10 12:28:49.714,0.57096666,0.09513614,0.894998,0.77830046,0.18238045,-0.038059764,0.01600819,0.09064588,0.08713066,-0.2927487,0.17625247,0.47630945,0.28834665,0.32507744,0.066053286,0.7890605,0.055282224,-0.33216062,-0.46156406,0.71336424,816.7399,797.8022,793.36993,793.36993,777.25275,-0.27862548828125,0.1781005859375,0.97686767578125,-6.198272705078125,-14.1461181640625,8.11981201171875,1,1.0,1.0,1.0,1.0,100.00
2021-04-10 12:28:49.979,,,,,,,,,,,,,,,,,,,,,,,,,,,,,,,,,,,,,,/muse/elements/blink
2021-04-10 12:28:50.247,0.57096666,0.19644804,0.95547557,0.77830046,0.18238045,-0.009907164,0.06474423,0.09064588,0.08713066,-0.34413186,0.19560821,0.47630945,0.28834665,0.3087187,0.049642023,0.7890605,0.055282224,-0.29832312,-0.47978243,0.71336424,808.68134,747.8388,800.2198,829.2308,668.46155,0.12310791015625,-0.00299072265625,1.02685546875,4.059906005859375,-23.215484619140625,-23.2977294921875,1,1.0,1.0,1.0,1.0,100.00
2021-04-10 12:28:50.250,,,,,,,,,,,,,,,,,,,,,,,,,,,,,,,,,,,,,,/muse/elements/blink
2021-04-10 12:28:50.756,0.57096666,0.19644804,0.74268043,0.77830046,0.18238045,-0.009907164,0.16592552,0.09064588,0.08713066,-0.34413186,0.15508075,0.47630945,0.28834665,0.3087187,-0.027567768,0.7890605,0.055282224,-0.29832312,-0.50412434,0.71336424,807.47253,806.26373,805.4579,805.8608,779.67035,0.06829833984375,0.065673828125,0.9818115234375,-1.936492919921875,-1.86920166015625,22.50518798828125,1,1.0,1.0,1.0,1.0,100.00
2021-04-10 12:28:50.867,,,,,,,,,,,,,,,,,,,,,,,,,,,,,,,,,,,,,,/muse/elements/blink
2021-04-10 12:28:51.273,0.57096666,0.19644804,0.88561916,0.77830046,0.18238045,-0.009907164,0.3625963,0.09064588,0.08713066,-0.34413186,0.27898684,0.47630945,0.28834665,0.3087187,-0.06331618,0.7890605,0.055282224,-0.29832312,-0.49796158,0.71336424,811.9048,793.36993,801.4286,807.8755,769.19415,0.15167236328125,0.07281494140625,1.006591796875,10.400238037109375,-25.83984375,-24.65850830078125,1,1.0,1.0,1.0,1.0,100.00
2021-04-10 12:28:51.783,0.57096666,0.19644804,1.0199622,0.77830046,0.18238045,-0.009907164,0.5771657,0.09064588,0.08713066,-0.34413186,0.36796337,0.47630945,0.28834665,0.3087187,-0.06805546,0.7890605,0.055282224,-0.29832312,-0.5107542,0.71336424,820.7692,813.91943,805.4579,811.0989,761.13556,0.2381591796875,0.1568603515625,1.00933837890625,9.40582275390625,2.429962158203125,11.132965087890625,1,2.0,1.0,1.0,2.0,100.00
2021-04-10 12:28:52.100,,,,,,,,,,,,,,,,,,,,,,,,,,,,,,,,,,,,,,/muse/elements/blink
2021-04-10 12:28:52.298,0.57096666,0.19644804,1.0197163,0.77830046,0.18238045,-0.009907164,0.5819161,0.09064588,0.08713066,-0.34413186,0.36885726,0.47630945,0.28834665,0.3087187,-0.113993764,0.7890605,0.055282224,-0.29832312,-0.5356787,0.71336424,848.1685,803.0403,805.8608,853.00366,794.57874,-9.1552734375E-4,0.0325927734375,1.00030517578125,6.5496826171875,14.0863037109375,11.641387939453125,1,2.0,1.0,1.0,2.0,100.00
2021-04-10 12:28:52.807,0.57096666,0.19644804,0.9571162,0.77830046,0.18238045,-0.009907164,0.5819081,0.09064588,0.08713066,-0.34413186,0.3285977,0.47630945,0.28834665,0.3087187,-0.08195205,0.7890605,0.055282224,-0.29832312,-0.5987022,0.71336424,808.68134,808.68134,796.5934,814.3223,658.7912,-0.09149169921875,0.02410888671875,0.9903564453125,3.48419189453125,-0.201873779296875,3.312225341796875,1,2.0,1.0,1.0,2.0,100.00
2021-04-10 12:28:53.320,0.57096666,0.19644804,1.0911335,0.77830046,0.18238045,-0.009907164,0.6530174,0.09064588,0.08713066,-0.34413186,0.33438942,0.47630945,0.28834665,0.3087187,-0.13416187,0.7890605,0.055282224,-0.29832312,-0.50553006,0.71336424,809.0842,811.0989,804.65204,809.4872,763.1502,-0.08697509765625,0.011962890625,1.00164794921875,6.108551025390625,-2.4822998046875,4.403839111328125,1,2.0,1.0,1.0,2.0,100.00
2021-04-10 12:28:53.835,0.57096666,0.10835146,0.9680375,0.77830046,0.18238045,0.2621592,0.5846871,0.09064588,0.08713066,-0.22804908,0.27111378,0.47630945,0.28834665,0.12951861,-0.09915306,0.7890605,0.055282224,-0.12646075,-0.26019233,0.71336424,811.50183,805.4579,806.26373,807.47253,818.7546,-0.0997314453125,0.01678466796875,0.99993896484375,3.9178466796875,-7.835693359375,-1.18133544921875,1,2.0,1.0,1.0,2.0,100.00
2021-04-10 12:28:54.348,0.57096666,0.6386462,0.88007617,0.77830046,0.18238045,0.39791527,0.59543383,0.09064588,0.08713066,0.15952635,0.35979047,0.47630945,0.28834665,0.1081819,-0.06720778,0.7890605,0.055282224,-0.17705627,-0.29565462,0.71336424,808.68134,807.0696,803.0403,810.696,791.3553,-0.10748291015625,0.038330078125,1.0048828125,4.164581298828125,-4.02252197265625,3.820648193359375,1,2.0,1.0,1.0,2.0,100.00
2021-04-10 12:28:54.859,1.6644585,0.74802434,0.4280656,0.77830046,1.3375345,0.40128115,0.33525306,0.09064588,0.99346125,0.1717187,0.31274575,0.47630945,0.23802967,0.13747896,-0.059307743,0.7890605,-0.32966092,-0.19287758,-0.27263212,0.71336424,809.0842,806.6667,807.8755,809.0842,682.96704,-0.102294921875,0.02679443359375,0.99786376953125,6.886138916015625,-4.149627685546875,3.372039794921875,1,2.0,1.0,1.0,2.0,100.00
2021-04-10 12:28:55.388,1.3458635,0.911959,0.5378502,0.9961159,1.0543411,0.5282755,0.26826,0.6971537,1.0082252,0.24165471,0.35381633,0.82180643,0.010265749,0.15708661,-0.063490435,0.15442127,-0.31929046,-0.23163153,-0.3560324,-0.22499779,790.54944,789.34064,802.6374,799.81683,725.6777,-0.0684814453125,0.0103759765625,0.98675537109375,5.24871826171875,-5.8917236328125,0.94207763671875,1,1.0,1.0,1.0,1.0,100.00
2021-04-10 12:28:55.907,0.864378,0.91772944,0.50189495,0.3781502,0.5987839,0.49969485,-0.12232475,0.18048356,0.75111735,0.31301132,0.33481795,0.48224646,-0.0883513,0.20533079,-0.15753898,0.18229634,-0.37172282,-0.23957498,-0.45158362,-0.2580011,815.12823,833.663,787.72894,807.8755,689.41394,-0.06048583984375,0.03289794921875,0.9964599609375,6.287994384765625,-3.050537109375,0.157012939453125,1,1.0,1.0,1.0,1.0,100.00
2021-04-10 12:28:56.422,0.6381315,0.957027,0.65219295,0.64115715,0.41278088,0.45196748,-0.06556078,0.28732395,0.545299,0.55183774,0.47380808,0.61290675,-0.049787212,0.25536478,-0.064720996,0.2796767,-0.36172476,-0.22836462,-0.6446239,-0.2858572,805.8608,801.4286,811.9048,808.2784,850.989,-0.05169677734375,0.02642822265625,0.99603271484375,4.119720458984375,-9.159088134765625,1.039276123046875,1,1.0,1.0,1.0,1.0,100.00
2021-04-10 12:28:56.952,0.8630129,1.0281799,0.85974795,1.1867992,0.6323308,0.37225813,0.28666312,0.7270591,0.4847518,0.61978996,0.5643876,0.7313845,0.07174685,0.29225993,0.037627824,0.3964387,-0.3355734,-0.2132712,-0.73665035,-0.36270973,810.293,807.0696,814.7253,809.89014,846.9597,-0.0703125,0.02484130859375,1.0028076171875,2.983245849609375,-8.77777099609375,0.01495361328125,1,1.0,1.0,1.0,1.0,100.00
2021-04-10 12:28:57.471,0.90155613,1.0495639,0.8817118,1.1843113,0.66928583,0.32956374,0.38178843,0.77241147,0.54805416,0.66580033,0.5259163,0.7083872,0.06909218,0.37136778,0.05483822,0.40810496,-0.3271743,-0.11682401,-0.63156134,-0.3452221,813.1135,803.0403,811.0989,811.0989,641.8681,-0.03546142578125,0.03790283203125,1.012451171875,5.899200439453125,-3.54400634765625,-1.4056396484375,1,1.0,1.0,1.0,1.0,100.00
2021-04-10 12:28:57.977,0.8078381,0.62174654,0.7271601,1.0376377,0.5473478,0.04046993,0.33489004,0.6572626,0.4939238,0.42382932,0.4204821,0.7064762,0.05729102,0.23313004,-0.15196574,0.3538694,-0.31873235,-0.21714847,-0.5877708,-0.26167795,794.57874,789.7436,813.5165,788.1319,701.9048,-0.0401611328125,0.02899169921875,0.98492431640625,8.202056884765625,-4.134674072265625,-2.459869384765625,1,1.0,1.0,1.0,1.0,100.00
2021-04-10 12:28:58.495,0.87561756,0.60225636,0.4269339,0.7065155,0.45667785,0.20230354,0.13729,0.3941416,0.49748057,0.43142328,0.22299705,0.69709957,0.0075980816,0.20835885,-0.27124426,0.3023437,-0.3488011,-0.2265747,-0.582327,-0.22127636,802.6374,809.89014,807.0696,802.23444,781.28204,-0.0472412109375,3.662109375E-4,0.99456787109375,5.921630859375,-4.41131591796875,1.757049560546875,1,1.0,1.0,1.0,1.0,100.00
2021-04-10 12:28:58.999,0.95849615,0.56449294,0.26725036,0.94327444,0.55234796,0.21469086,0.049242117,0.45236212,0.7056113,0.16373733,-0.02141651,0.58148813,-0.025188066,0.10199141,-0.29847828,0.25032207,-0.36209452,-0.33197486,-0.67595375,-0.23227192,818.3516,809.0842,803.8461,807.47253,793.7729,-0.02337646484375,0.00311279296875,1.00274658203125,5.4730224609375,-4.17205810546875,-0.59814453125,1,1.0,1.0,1.0,1.0,100.00
2021-04-10 12:28:59.508,0.93888515,0.46559367,0.1803642,0.9248332,0.53040004,0.18224993,-0.0022076038,0.44302148,0.6985976,0.14612024,0.012939101,0.5081755,0.026292222,0.10556693,-0.10558167,0.2183682,-0.37965044,-0.33732593,-0.70877445,-0.323453,813.1135,807.0696,805.05493,809.0842,784.5055,-0.02197265625,0.013916015625,1.01141357421875,5.802001953125,-8.874969482421875,4.5458984375,1,1.0,1.0,1.0,1.0,100.00
2021-04-10 12:29:00.015,0.47772673,0.37691435,0.117094055,0.45383283,0.22661059,0.1341706,-0.031159557,0.014236195,0.71372646,0.4053823,0.14048545,0.36983523,0.12351036,0.14196625,0.049758404,0.38208783,-0.42225233,-0.2563141,-0.6520958,-0.38384014,796.99634,799.81683,801.8315,794.9817,635.42126,-0.020751953125,0.01806640625,0.9892578125,3.289794921875,-4.523468017578125,2.03369140625,1,1.0,1.0,1.0,1.0,100.00
2021-04-10 12:29:00.538,0.09545341,0.45960525,0.30635005,0.22547168,-0.08064619,0.2804235,-0.064888105,0.05901763,0.6648888,0.41373014,0.13359627,0.8575203,0.1674033,0.18926238,0.045573767,0.38143262,-0.40229818,-0.26218668,-0.61169803,-0.4730856,799.41394,794.9817,804.2491,812.3077,795.78754,-0.03759765625,0.02587890625,1.0025634765625,4.029998779296875,-3.1402587890625,3.00567626953125,1,1.0,1.0,1.0,1.0,100.00
2021-04-10 12:29:01.058,0.06877616,0.45725057,0.3199325,0.2193809,-0.005366636,0.28519052,0.05681481,0.27999955,0.6636207,0.41373014,0.14388272,0.8575203,0.10321367,0.16410017,-0.03319939,0.32906258,-0.3586511,-0.23868242,-0.62394994,-0.47627726,799.81683,800.6227,799.41394,796.1905,846.9597,-0.0455322265625,0.03009033203125,1.00103759765625,3.521575927734375,-9.64508056640625,0.246734619140625,1,1.0,1.0,1.0,1.0,100.00
2021-04-10 12:29:01.587,0.068133324,0.5909236,0.28896418,0.25219548,-0.057389025,0.18002184,0.037712533,0.3117161,0.64484304,0.37468064,0.26633662,0.8589217,0.15641372,0.11776892,-0.075142235,0.24266526,-0.3157875,-0.27066448,-0.65566725,-0.30032295,846.9597,790.14655,837.28937,855.82416,732.9304,0.00250244140625,0.04241943359375,1.00543212890625,-3.476715087890625,-18.5723876953125,31.649322509765625,1,1.0,1.0,1.0,1.0,100.00
2021-04-10 12:29:02.090,0.97070324,0.9069861,0.89465255,0.4179976,0.31330293,0.31687266,0.22299205,0.35287797,0.47500348,0.48213467,0.33238167,0.75045097,0.23514059,0.1302847,-0.0110212555,0.23851155,-0.22302042,-0.28416944,-0.65451926,-0.20849335,805.05493,784.5055,800.6227,794.9817,787.326,0.2249755859375,-0.04266357421875,0.97650146484375,3.69354248046875,-8.755340576171875,0.426177978515625,1,1.0,1.0,1.0,1.0,100.00
2021-04-10 12:29:02.599,1.2040701,1.0451376,1.0597868,0.49671575,0.42014518,0.3727197,0.26132128,0.19667557,0.47500348,0.48213467,0.33238167,0.4197769,0.31058368,0.221019,0.01843356,0.3176435,-0.17153573,-0.37766525,-0.63412905,-0.08809197,808.2784,794.9817,809.0842,795.38464,660.80585,0.20697021484375,-0.05303955078125,0.97418212890625,4.149627685546875,-4.65057373046875,0.19439697265625,1,1.0,1.0,1.0,1.0,100.00
2021-04-10 12:29:03.114,1.2769489,1.1330228,1.1095427,0.5076098,0.535923,0.4585677,0.23572786,0.2431096,0.749271,0.48187253,0.31802884,0.5779601,0.31572706,0.27117997,-0.08476917,0.2571722,-0.039350487,-0.47013843,-0.64782745,-0.14608404,797.8022,803.44324,798.20514,792.5641,726.08057,0.20697021484375,-0.0528564453125,0.98638916015625,5.465545654296875,-4.20196533203125,3.6187744140625,1,1.0,1.0,1.0,1.0,100.00
2021-04-10 12:29:03.618,0.8138288,0.9773774,0.22877213,-0.088070154,0.33778822,0.068034284,-0.32646832,0.11168632,0.69383746,0.227534,-0.061061364,0.5041829,0.27636495,0.28891858,-0.30745253,0.2589124,-0.09969884,-0.43089163,-0.61301225,-0.018174583,819.15753,799.81683,805.8608,812.3077,883.22345,0.2423095703125,-0.05059814453125,0.9605712890625,3.9178466796875,-4.957122802734375,-0.306549072265625,1,1.0,1.0,1.0,1.0,100.00
2021-04-10 12:29:04.153,0.19134992,0.8413061,0.09633397,-0.0089732725,0.32129735,-0.23837206,-0.25982368,0.106423795,0.68452066,-0.008754834,0.008435078,0.6891518,0.22894709,0.27078342,-0.3045807,0.25771108,-0.21035965,-0.26944783,-0.6396347,0.057081006,812.3077,803.44324,803.0403,805.05493,716.8132,0.241943359375,-0.0452880859375,0.97613525390625,6.078643798828125,-5.031890869140625,0.800018310546875,1,1.0,1.0,1.0,1.0,100.00
2021-04-10 12:29:04.661,0.20321395,0.7760492,-0.17927471,0.11567299,0.26250997,-0.04422442,-0.2993077,0.10169521,0.647362,0.07416173,-0.0387636,0.6356736,0.14801629,0.28974038,-0.33646342,0.31426632,-0.31396216,-0.31929266,-0.64005774,0.16285205,804.65204,804.2491,806.26373,812.3077,635.82416,0.24249267578125,-0.0416259765625,0.9705810546875,3.072967529296875,-5.60760498046875,2.6019287109375,1,1.0,1.0,1.0,1.0,100.00
2021-04-10 12:29:05.171,0.2735332,0.758046,-0.23268576,0.14789563,0.13097262,-0.061831307,-0.39963484,0.02111531,0.3503602,0.06666337,-0.050220247,0.60917187,0.070765264,0.30010015,-0.28654692,0.4493196,-0.3656247,-0.39762715,-0.6653736,0.2676074,793.7729,801.02563,805.05493,801.8315,702.3077,0.243408203125,-0.02978515625,0.9591064453125,3.895416259765625,-5.016937255859375,1.772003173828125,1,1.0,1.0,1.0,1.0,100.00
2021-04-10 12:29:05.673,0.16081454,0.75799596,-0.047264498,0.16799022,0.07041989,0.0036112133,-0.3645295,-0.046189167,0.3154332,0.16339767,-0.059341833,0.4233966,0.17068805,0.29271585,-0.18849097,0.5576766,-0.3408519,-0.5009441,-0.4610175,0.29388463,809.89014,818.3516,806.26373,815.12823,695.05493,0.2371826171875,-0.02569580078125,0.97930908203125,5.203857421875,-5.4730224609375,1.5252685546875,1,1.0,1.0,1.0,1.0,100.00
2021-04-10 12:29:06.179,0.13511634,0.8907377,0.11761665,0.082700275,0.056167915,0.0042116176,-0.3321149,-0.04248235,0.37826073,0.11216669,-0.109579526,0.34158322,0.25154325,0.25838056,-0.17110877,0.64768314,-0.31552142,-0.5739147,-0.4415106,0.31057748,811.9048,805.05493,803.8461,816.337,837.6923,0.2451171875,-0.02349853515625,0.97833251953125,3.8580322265625,-4.8748779296875,1.248626708984375,1,1.0,1.0,1.0,1.0,100.00
2021-04-10 12:29:06.685,-0.058456726,0.9447515,0.04198223,0.0790078,0.11077489,0.089836426,-0.23060256,-0.04171478,0.36216947,-0.007606831,-0.109579526,0.4725225,0.25684723,0.1484695,-0.15719926,0.6193539,-0.32495895,-0.50264317,-0.45927754,0.24245918,793.36993,799.011,800.6227,790.14655,775.64105,0.2340087890625,-0.02630615234375,0.97259521484375,4.007568359375,-2.863616943359375,0.291595458984375,1,1.0,1.0,1.0,1.0,100.00
2021-04-10 12:29:07.186,0.025941342,0.57941484,-0.1522291,0.057320796,0.10195129,-0.085666195,-0.38882482,0.010615681,0.35958567,0.01630443,-0.2352388,0.4109974,0.19984162,0.17969906,-0.22135098,0.57182217,-0.26440078,-0.43331695,-0.6489847,0.18126166,809.4872,809.0842,813.91943,823.1868,771.6117,0.2437744140625,-0.03289794921875,0.962158203125,4.11224365234375,-5.375823974609375,-0.949554443359375,1,1.0,1.0,1.0,1.0,100.00
2021-04-10 12:29:07.696,-0.088841304,0.20576361,-0.5026825,0.1491262,0.033735182,-0.11845622,-0.3582736,0.04847638,0.25727826,-0.15653223,-0.09521401,0.4898474,0.14056362,0.27027783,-0.17174853,0.46589816,-0.24222082,-0.37039116,-0.6954342,0.12538137,824.7985,792.5641,807.0696,817.5458,906.1905,0.2388916015625,-0.0234375,0.98321533203125,4.807586669921875,-4.224395751953125,2.03369140625,1,1.0,1.0,1.0,1.0,100.00
2021-04-10 12:29:08.202,0.08717877,0.45088673,-0.25398138,0.16028282,0.2580372,-0.06929881,-0.3705845,0.18966788,0.43136317,-0.041322853,0.053660914,0.572072,0.15741326,0.3062967,-0.079188384,0.46472225,-0.15977657,-0.27858496,-0.593645,0.20641655,803.0403,813.91943,806.26373,813.1135,747.8388,0.24505615234375,-0.0224609375,0.9739990234375,4.762725830078125,-3.4991455078125,1.921539306640625,1,1.0,1.0,1.0,1.0,100.00
2021-04-10 12:29:08.710,0.07497535,0.59841925,-0.13571332,0.23942669,0.28926983,0.016826712,-0.275651,0.1983905,0.5444618,-0.08306823,0.17215203,0.6550237,0.19177519,0.3507896,-0.034583297,0.4823352,-0.18917936,-0.19856375,-0.60646224,0.2720603,783.2967,794.17584,807.0696,798.20514,695.8608,0.24676513671875,-0.02685546875,0.9715576171875,4.448699951171875,-4.66552734375,-1.413116455078125,1,1.0,1.0,1.0,1.0,100.00
2021-04-10 12:29:09.232,0.10655289,0.62029046,0.09906257,0.30377436,0.29275218,-0.16090484,-0.19849253,0.2964391,0.5444618,-0.0011955653,0.19859949,0.6997677,0.15770581,0.29970533,0.024167297,0.591988,-0.23496452,-0.16717562,-0.6005816,0.32294706,797.3993,804.65204,803.44324,793.7729,630.18317,0.24578857421875,-0.03033447265625,0.96112060546875,4.792633056640625,-3.90289306640625,2.310333251953125,1,1.0,1.0,1.0,1.0,100.00
2021-04-10 12:29:09.745,0.16999106,0.40479514,0.10450959,0.38721827,0.15911508,-0.19448717,-0.123973615,0.27235398,0.37547824,0.05190888,0.11029336,0.6724738,0.09593519,0.28036964,-0.011915761,0.60880655,-0.25002873,-0.23120692,-0.69403905,0.29117176,805.4579,805.4579,805.4579,788.5348,763.1502,0.23736572265625,-0.00665283203125,0.9825439453125,5.14404296875,-6.81884765625,3.476715087890625,1,1.0,1.0,1.0,1.0,100.00
2021-04-10 12:29:10.258,0.40015438,0.4061951,0.2926335,0.56040555,0.2823596,-0.14308123,-0.0420759,0.46652764,0.18254352,0.17563927,0.12561151,0.6098935,0.05063672,0.24816649,-0.06280538,0.67791945,-0.2098832,-0.25487965,-0.6975218,0.3408578,816.337,767.1795,811.0989,799.81683,721.2454,0.26361083984375,-0.0145263671875,0.983642578125,5.03936767578125,-3.835601806640625,2.37762451171875,1,1.0,1.0,1.0,1.0,100.00
2021-04-10 12:29:10.771,0.6067021,0.45996284,0.56934637,0.48667875,0.39714187,-0.07910161,0.13473774,0.3840927,0.14456049,0.17453845,0.1809705,0.48906144,0.1155056,0.25547683,-0.082747966,0.6895637,-0.21100146,-0.24114266,-0.6943819,0.39444432,805.8608,806.26373,801.8315,792.5641,810.696,0.23004150390625,-0.0166015625,0.98663330078125,4.134674072265625,-5.540313720703125,4.6356201171875,1,1.0,1.0,1.0,1.0,100.00
2021-04-10 12:29:11.304,0.7426703,0.43942517,0.73140293,0.4689555,0.50236166,-0.08080695,0.37150532,0.398815,0.37050977,0.1519291,0.16601491,0.48975888,0.19225541,0.20019607,-0.03373986,0.7147462,-0.1503887,-0.30535868,-0.7085496,0.40812692,811.0989,815.12823,803.44324,807.0696,762.74725,0.24298095703125,-0.01959228515625,0.97259521484375,3.895416259765625,-5.443115234375,-0.5682373046875,1,1.0,1.0,1.0,1.0,100.00
2021-04-10 12:29:11.831,0.62426054,0.71880925,0.64396816,-0.15974718,0.33632773,0.006383842,0.32857215,0.072196424,0.36412436,-0.059008915,0.16601491,0.4604396,0.1383138,0.14983077,0.0150234625,0.75259656,-0.19056907,-0.53221625,-0.7174031,0.36115855,805.4579,800.6227,801.4286,800.6227,836.4835,0.2392578125,-0.00616455078125,0.98626708984375,6.153411865234375,-3.69354248046875,1.637420654296875,1,1.0,1.0,1.0,1.0,100.00
2021-04-10 12:29:12.345,0.42529356,0.56666446,0.23791371,0.09995807,0.100220345,-0.018410273,0.19086897,0.08536537,0.36412436,0.13549593,0.10778953,0.4086065,0.08568647,0.21050051,-0.05339375,0.7447397,-0.14574641,-0.40256712,-0.68417233,0.26112974,800.6227,778.46155,813.1135,811.9048,772.01465,0.2275390625,-0.00274658203125,0.97259521484375,4.179534912109375,-4.306640625,1.4654541015625,1,1.0,1.0,1.0,1.0,100.00
2021-04-10 12:29:12.848,0.41216058,0.6817538,0.3376896,0.075172484,-0.06572112,0.22883396,0.087316506,0.09160134,0.3691212,0.28150606,0.22690748,0.45695767,0.09104189,0.25301388,-0.103881486,0.73290795,-0.1428349,-0.3538589,-0.529638,0.40858746,794.9817,796.99634,804.2491,785.7143,610.84247,0.25341796875,-0.00885009765625,0.9755859375,2.788848876953125,-8.134765625,-1.099090576171875,1,1.0,1.0,1.0,1.0,100.00
2021-04-10 12:29:13.373,0.5332909,0.80884326,0.457628,0.18674806,0.015012803,0.40829656,0.10180963,0.07583731,0.30526033,0.34079018,0.25821012,0.41726333,0.12318234,0.30609506,-0.066431984,0.5956441,-0.12370448,-0.3229852,-0.5385597,0.43939593,807.8755,784.5055,818.3516,810.293,896.9231,0.23199462890625,-0.0167236328125,0.9781494140625,3.93280029296875,-2.459869384765625,-1.3458251953125,1,1.0,1.0,1.0,1.0,100.00
2021-04-10 12:29:13.881,0.53593403,1.2597101,0.57253,0.18577671,0.15938519,0.75921094,0.1558629,0.20443688,0.32657114,0.37810615,0.27967358,0.52400714,0.11966459,0.33561963,0.009225656,0.4751376,-0.2200281,-0.37889346,-0.5748539,0.41824877,811.0989,803.44324,807.8755,803.0403,701.50183,0.2615966796875,-0.02008056640625,0.97332763671875,3.850555419921875,-3.506622314453125,0.11962890625,1,1.0,1.0,1.0,1.0,100.00
2021-04-10 12:29:14.383,0.34325558,1.0505131,0.36519545,0.20610854,0.07661492,0.5571854,-0.062694184,0.17549194,0.24960612,0.28274715,0.13366899,0.53619885,0.16067441,0.14201377,0.02606611,0.37841186,-0.3818077,-0.40242016,-0.74588555,0.212279,815.9341,800.2198,807.0696,820.3663,816.337,0.256591796875,-0.01239013671875,0.97515869140625,4.508514404296875,-3.641204833984375,1.278533935546875,1,1.0,1.0,1.0,1.0,100.00
2021-04-10 12:29:14.905,0.2155117,0.8154706,0.18072385,0.16406897,0.056130167,0.3539751,-0.09153557,0.18172917,0.20922108,0.23640552,0.21264696,0.5781202,0.11445391,0.13522096,-0.042723127,0.32961437,-0.44066226,-0.4075619,-0.71352434,0.09020087,794.57874,810.696,801.8315,793.36993,756.30035,0.239990234375,-0.015625,0.9776611328125,4.2169189453125,-3.895416259765625,-0.49346923828125,1,1.0,1.0,1.0,1.0,100.00
2021-04-10 12:29:15.407,0.13443093,0.2999997,-0.27865347,0.18278019,0.23834245,-0.007408145,-0.20357575,0.113871664,0.21489453,-0.051369254,0.14209008,0.61225873,0.06713345,0.123964496,-0.10304773,0.37651408,-0.43113655,-0.3648646,-0.62302494,0.12361744,786.1172,804.65204,803.8461,795.38464,650.32965,0.21771240234375,-0.0172119140625,0.9757080078125,3.94775390625,-3.51409912109375,-1.114044189453125,1,1.0,1.0,1.0,1.0,100.00
2021-04-10 12:29:15.940,0.015691772,0.2985232,-0.33139038,0.12841947,0.27354187,-0.1399192,-0.21075101,0.046119016,0.20240454,-0.10737521,0.107063144,0.57518184,-0.07159089,0.1456376,-0.15054746,0.44397607,-0.4011664,-0.38567227,-0.605113,0.20963462,797.8022,807.8755,810.696,817.1429,796.5934,0.24420166015625,-0.01171875,0.969970703125,5.076751708984375,-3.641204833984375,0.37384033203125,1,1.0,1.0,1.0,1.0,100.00
2021-04-10 12:29:16.467,-0.14825694,0.30659053,-0.18127422,0.11007611,0.28138086,-0.17308386,-0.1730179,0.122894906,0.21958178,-0.12606679,0.05305401,0.58930385,0.0459124,0.14072147,-0.14143318,0.41491422,-0.42939627,-0.42684686,-0.6102494,0.31051525,810.696,802.23444,799.41394,803.0403,736.9597,0.25762939453125,-0.02496337890625,0.97412109375,3.536529541015625,-5.30853271484375,-1.667327880859375,1,1.0,1.0,1.0,1.0,100.00
2021-04-10 12:29:16.986,-0.15183906,0.09181123,-6.505428E-4,0.20592776,-5.985836E-4,-0.15569615,-0.20073749,0.082590744,0.21439774,0.065083236,-0.21194063,0.57734334,0.08295176,0.15856329,-0.21454278,0.33049664,-0.45256647,-0.4688565,-0.6963844,0.34897882,827.619,787.326,826.8132,836.8865,736.1539,0.22894287109375,-0.02166748046875,0.9852294921875,4.134674072265625,-5.2337646484375,6.841278076171875,1,1.0,1.0,1.0,1.0,100.00
2021-04-10 12:29:17.500,-0.026246041,0.26426867,0.28276592,0.51260144,0.12812257,-0.023399798,0.018170215,0.38489416,0.26556572,0.25076818,0.11544449,0.5174237,0.09480534,0.19335309,-0.27356076,0.34838822,-0.4295308,-0.4678795,-0.6700446,0.24454132,799.41394,803.0403,808.68134,807.47253,642.27106,0.23541259765625,-0.0172119140625,0.9666748046875,3.22998046875,-4.822540283203125,1.55517578125,1,1.0,1.0,1.0,1.0,100.00
2021-04-10 12:29:18.015,0.1508004,0.43665916,0.4450007,0.61903673,0.20560662,0.11849711,0.09443228,0.4721831,0.23135664,0.33871877,0.12510219,0.5473584,0.12266145,0.16421333,-0.27288574,0.46678495,-0.46300334,-0.3503768,-0.6827779,0.13734111,795.78754,804.2491,803.8461,811.9048,697.47253,0.23602294921875,-0.02392578125,0.9786376953125,3.33465576171875,-5.689849853515625,1.188812255859375,1,1.0,1.0,1.0,1.0,100.00
2021-04-10 12:29:18.535,0.08801388,0.49175444,0.48244694,0.57861316,0.17785867,0.08710007,0.14803983,0.48106802,0.67472947,0.34175602,0.12135937,0.5763801,0.18388192,0.24619284,-0.2079783,0.5421101,-0.47024474,-0.30290568,-0.64576906,0.15879439,798.60803,805.4579,800.6227,795.38464,805.8608,0.244873046875,-0.01116943359375,0.96795654296875,5.181427001953125,-2.8411865234375,1.18133544921875,1,1.0,1.0,1.0,1.0,100.00
2021-04-10 12:29:19.039,0.4305146,0.48839062,0.3427592,0.49737275,0.010847592,-0.004240772,0.012906935,0.34657866,0.93389976,0.35226706,0.060065567,0.58843327,0.19001508,0.2208923,-0.12955531,0.6141243,-0.4952775,-0.29063895,-0.7107597,0.2557667,811.9048,801.8315,805.8608,808.2784,716.8132,0.24786376953125,-0.00189208984375,0.97406005859375,5.615081787109375,-4.493560791015625,0.844879150390625,1,1.0,1.0,1.0,1.0,100.00
2021-04-10 12:29:19.549,0.80905086,0.62474436,0.33063254,0.54139113,0.19513579,0.11769858,0.0561006,0.23893194,0.9560307,0.3741292,0.03955005,0.5565659,0.16929077,0.2954011,-0.12046425,0.62034893,-0.4781077,-0.3368025,-0.695918,0.35539317,795.38464,811.50183,805.8608,794.57874,626.9597,0.24761962890625,-0.00555419921875,0.982666015625,5.241241455078125,-4.65057373046875,2.4224853515625,1,1.0,1.0,1.0,1.0,100.00
2021-04-10 12:29:20.065,0.8395833,0.6352493,0.40178582,0.5541407,0.3426984,0.26782262,0.14462559,0.29021636,0.95652455,0.3691659,0.07297715,0.5411533,0.1438294,0.25119323,-0.13774878,0.60067344,-0.50635356,-0.41663986,-0.69229174,0.33928263,805.8608,803.44324,807.47253,802.6374,837.28937,0.23065185546875,-0.0166015625,0.96954345703125,3.745880126953125,-5.2337646484375,1.256103515625,1,1.0,1.0,1.0,1.0,100.00
2021-04-10 12:29:20.568,0.7201288,0.5962074,0.67163354,0.5336289,0.4299025,0.44142905,0.25760758,0.22197711,0.63327956,0.5211039,0.16065973,0.40145403,0.08343249,0.30322996,-0.16764955,0.49486005,-0.551165,-0.35400584,-0.6564569,0.3090034,812.71063,802.6374,798.60803,799.011,845.34796,0.22601318359375,-0.01751708984375,0.9742431640625,2.878570556640625,-6.273040771484375,-0.91217041015625,1,1.0,1.0,1.0,1.0,100.00
2021-04-10 12:29:21.080,0.1646793,0.43071032,0.77785265,0.30352318,0.3341918,0.4535561,0.2705421,0.07352731,0.56271404,0.63750446,0.31192216,0.60179025,0.13287127,0.2550122,-0.006185233,0.5012504,-0.5417665,-0.31777057,-0.6877153,0.17780995,804.65204,814.7253,808.2784,811.0989,699.0842,0.24700927734375,-0.01458740234375,0.96783447265625,3.386993408203125,-5.106658935546875,-0.396270751953125,1,1.0,1.0,1.0,1.0,100.00
2021-04-10 12:29:21.610,0.2634516,0.48070297,0.9036494,0.2144013,0.36209765,0.48530644,0.3083435,0.19640566,0.5879343,0.6777119,0.34420934,0.7708564,0.11950414,0.21213305,0.12284237,0.5925567,-0.460321,-0.3266405,-0.71216875,0.19828205,788.93774,792.1612,807.47253,812.71063,745.82416,0.230712890625,-0.0103759765625,0.97833251953125,4.762725830078125,-3.910369873046875,0.052337646484375,1,1.0,1.0,1.0,1.0,100.00
2021-04-10 12:29:22.118,0.2934976,0.4035837,0.7493228,0.051618446,0.35887408,0.32861012,0.16883387,0.20849608,0.5817279,0.634959,0.35519958,0.7708564,0.098842025,0.10993003,0.12623358,0.62999004,-0.33071384,-0.39424184,-0.59250563,0.27700287,797.8022,805.4579,805.4579,795.38464,845.7509,0.26611328125,-0.00201416015625,0.97528076171875,4.127197265625,-4.792633056640625,-0.3887939453125,1,1.0,1.0,1.0,1.0,100.00
2021-04-10 12:29:22.645,0.15983263,0.21993417,0.5175897,0.012398136,0.27994925,0.14280099,-0.02068893,0.24114022,0.43988696,0.6359741,0.34678158,0.78096104,0.09742519,0.052187797,-6.084492E-4,0.61257064,-0.27531615,-0.44951653,-0.54498357,0.37189627,805.8608,790.14655,819.9634,805.8608,737.76556,0.2607421875,-0.0025634765625,0.96490478515625,6.168365478515625,-4.807586669921875,3.192596435546875,1,1.0,1.0,1.0,1.0,100.00
2021-04-10 12:29:23.165,0.46312922,0.58706653,0.067960136,0.021881355,0.1275218,0.30196428,-0.14357744,0.06774689,0.4327153,0.26461136,0.108382806,0.52749145,0.14723884,0.07173227,-0.11427839,0.49332005,-0.30823213,-0.41540465,-0.5986985,0.38102552,811.0989,813.1135,809.4872,803.44324,866.30035,0.25372314453125,-7.32421875E-4,0.989501953125,5.72723388671875,-4.23187255859375,1.68975830078125,1,1.0,1.0,1.0,1.0,100.00
2021-04-10 12:29:23.672,0.6216835,0.74935144,0.18911596,-0.1367106,0.1878214,0.42245883,-0.032743223,0.14475878,0.52795863,0.25869495,0.115047835,0.6089782,0.17180102,0.13299379,-0.12927376,0.513819,-0.33817562,-0.43134034,-0.7407907,0.33123997,815.5311,819.15753,792.96704,801.02563,707.1429,0.2677001953125,6.7138671875E-4,0.97357177734375,4.0374755859375,-6.302947998046875,1.951446533203125,1,1.0,1.0,1.0,1.0,100.00
2021-04-10 12:29:24.192,0.84472626,0.8368206,0.41026166,0.26263368,0.39077163,0.5022772,0.06583302,0.26145434,0.73102325,0.4075852,0.29337692,0.5786201,0.19709302,0.23141539,-0.06338395,0.5911426,-0.2868802,-0.38759154,-0.761743,0.2886207,808.2784,802.6374,805.4579,802.6374,741.39197,0.25640869140625,-0.01190185546875,0.9622802734375,3.566436767578125,-5.54779052734375,1.86920166015625,1,1.0,1.0,1.0,1.0,100.00
2021-04-10 12:29:24.707,0.86501217,0.7646753,0.4695502,0.5178214,0.47651526,0.4063084,-0.035289675,0.3566201,0.7356705,0.38808653,0.30541965,0.5217097,0.19279364,0.2305229,-0.117872685,0.6050483,-0.17378987,-0.3627889,-0.70991904,0.16061717,793.7729,801.8315,805.05493,792.1612,697.0696,0.2696533203125,-0.0185546875,0.96807861328125,3.895416259765625,-5.263671875,-0.59814453125,1,1.0,1.0,1.0,1.0,100.00
2021-04-10 12:29:25.217,0.796286,0.8316951,0.407241,0.60405844,0.4814151,0.440709,-0.035027646,0.33148727,0.71722937,0.35640192,0.19678575,0.64061373,0.20354669,0.24116065,-0.09507001,0.5184023,-0.19125816,-0.3177169,-0.72447145,0.19107209,801.8315,808.2784,803.8461,798.20514,770.40295,0.2392578125,-0.01348876953125,0.97711181640625,2.041168212890625,-4.725341796875,-0.59814453125,1,1.0,1.0,1.0,1.0,100.00
2021-04-10 12:29:25.737,0.59657246,0.7399587,0.20552509,0.4865124,0.34271565,0.3808124,-0.12422893,0.25157788,0.7514356,0.29126337,0.24273194,0.66599745,0.121422976,0.09928962,-0.15979128,0.38118955,-0.23252062,-0.34548,-0.76240635,0.15997502,795.38464,789.34064,800.6227,798.60803,649.5238,0.26885986328125,-0.03106689453125,0.9744873046875,3.222503662109375,-4.20196533203125,0.478515625,1,1.0,1.0,1.0,1.0,100.00
2021-04-10 12:29:26.249,0.5291947,0.43231985,-0.2213111,0.37144408,0.1702374,0.10604483,-0.17540038,0.18566707,0.61074865,0.12645133,0.027020583,0.6139634,0.062273942,0.12952675,-0.053673822,0.40523133,-0.32493824,-0.43937364,-0.71397185,0.13438395,783.69965,796.5934,801.4286,775.64105,793.36993,0.24298095703125,-0.01580810546875,0.96868896484375,2.7813720703125,-4.97955322265625,-1.06170654296875,1,1.0,1.0,1.0,1.0,100.00
2021-04-10 12:29:26.764,0.5446659,0.08021179,-0.09950341,0.2894884,0.28363734,-0.11681399,-0.38360628,0.24213636,0.51840705,0.012652514,0.04824814,0.48023102,-0.011684941,0.10965396,-0.064451724,0.49753165,-0.28710902,-0.38762444,-0.5675697,0.17297846,793.7729,795.38464,804.2491,785.7143,647.1062,0.26123046875,-0.0186767578125,0.96875,4.717864990234375,-5.0543212890625,0.949554443359375,1,1.0,1.0,1.0,1.0,100.00
2021-04-10 12:29:27.286,0.5144119,-0.107433796,-0.073152356,0.2581647,0.34000257,-0.38732976,-0.5320865,0.29541692,0.4891515,-0.060746852,0.070932254,0.39889315,0.014236844,0.13203663,-0.019671332,0.5247201,-0.29831123,-0.3673853,-0.49763143,0.3138103,778.46155,787.326,814.7253,801.8315,934.7985,0.247802734375,-0.0159912109375,0.96673583984375,2.3028564453125,-4.702911376953125,-0.37384033203125,1,1.0,1.0,1.0,1.0,100.00
2021-04-10 12:29:27.801,0.34754723,0.27254152,0.025638832,0.02380054,0.44872683,0.20464702,-0.4592622,0.25739798,0.41351765,-0.15471044,0.01124896,0.2407458,0.0039053198,0.1774256,-0.10994985,0.51794016,-0.33817273,-0.26494682,-0.5238147,0.3732908,801.4286,818.7546,803.44324,808.68134,779.67035,0.24017333984375,-0.00225830078125,0.9774169921875,7.88055419921875,-5.016937255859375,2.848663330078125,1,1.0,1.0,1.0,1.0,100.00
2021-04-10 12:29:28.303,0.4130605,0.43878078,0.08001878,0.027118756,0.3531416,0.2883165,-0.27043298,0.16637899,0.48106018,-0.28455484,0.0048857983,0.5943239,0.11299986,0.24523053,-0.14666425,0.53914785,-0.38153216,-0.4014093,-0.6520355,0.28944445,804.65204,806.6667,802.23444,809.4872,750.65936,0.23681640625,-0.01385498046875,0.9815673828125,5.899200439453125,-1.57012939453125,1.054229736328125,1,1.0,1.0,1.0,1.0,100.00
2021-04-10 12:29:28.766,,,,,,,,,,,,,,,,,,,,,,,,,,,,,,,,,,,,,,/muse/elements/blink
2021-04-10 12:29:28.805,0.3809249,0.514162,0.28504732,0.08353809,0.44359115,0.2109883,-0.09038235,0.2709774,0.57280886,-0.16675684,-0.005613809,0.70335925,0.12604265,0.29839423,-0.13085622,0.59208214,-0.35761836,-0.37204325,-0.6242406,0.16037117,828.022,801.8315,805.05493,830.0366,783.69965,0.24859619140625,-0.02923583984375,0.9656982421875,2.923431396484375,-2.76641845703125,-1.07666015625,1,1.0,1.0,1.0,1.0,100.00
2021-04-10 12:29:29.315,0.331335,0.5639899,0.3117177,0.15598033,0.4173445,0.113963075,-0.14518401,0.35082158,0.5383068,-0.16321404,-0.13073687,0.70335925,0.19234031,0.32255697,-0.18372646,0.654265,-0.30005872,-0.43248045,-0.56709397,0.051155947,823.5897,815.5311,808.68134,818.7546,736.9597,0.2215576171875,-0.02569580078125,0.973876953125,3.75335693359375,-2.40753173828125,-0.201873779296875,1,1.0,1.0,1.0,1.0,100.00
2021-04-10 12:29:29.833,-0.11904319,0.864544,0.44458297,0.043434337,0.41301957,0.36072147,0.07582774,0.5034831,0.5156734,0.573507,0.010217631,0.70335925,0.16964269,0.34980038,-0.13597558,0.73205966,-0.29588655,-0.32826668,-0.47672942,0.13517694,831.6484,813.91943,793.7729,820.3663,641.4652,0.218505859375,-0.00653076171875,0.990478515625,3.050537109375,-1.36077880859375,-6.153411865234375,1,1.0,1.0,1.0,1.0,100.00
2021-04-10 12:29:30.358,-0.11904319,0.9579086,0.44150034,0.043434337,0.41301957,0.4484821,0.068552524,0.5034831,0.5156734,0.573507,0.16747896,0.70335925,0.16964269,0.31790352,-0.18879652,0.73205966,-0.29588655,-0.30735224,-0.4987409,0.13517694,822.7839,801.4286,807.0696,836.4835,674.10254,0.173828125,-0.02264404296875,0.97259521484375,4.56085205078125,1.27105712890625,-7.020721435546875,1,1.0,1.0,1.0,1.0,100.00
2021-04-10 12:29:30.395,,,,,,,,,,,,,,,,,,,,,,,,,,,,,,,,,,,,,,/muse/elements/blink
2021-04-10 12:29:30.869,-0.11904319,1.1001409,0.571456,0.043434337,0.41301957,0.5860813,0.3353888,0.5034831,0.5156734,0.573507,0.23378882,0.70335925,0.16964269,0.2725418,-0.1079206,0.73205966,-0.29588655,-0.20166387,-0.47820413,0.13517694,805.8608,815.5311,797.8022,806.26373,700.293,-0.09783935546875,0.04449462890625,0.97625732421875,9.174041748046875,19.2901611328125,20.0079345703125,1,1.0,1.0,1.0,1.0,100.00
2021-04-10 12:29:31.394,-0.11904319,1.1299767,0.4858888,0.043434337,0.41301957,0.6295656,0.3168958,0.5034831,0.5156734,0.5572058,0.26460308,0.70335925,0.16964269,0.25466347,-0.12067739,0.73205966,-0.29588655,-0.1979711,-0.5084298,0.13517694,813.91943,796.1905,797.8022,798.20514,864.68866,-0.17144775390625,-0.072998046875,0.97705078125,2.9608154296875,-3.596343994140625,-3.895416259765625,1,2.0,1.0,1.0,2.0,100.00
2021-04-10 12:29:31.896,-0.11904319,1.1299767,0.38141894,0.043434337,0.41301957,0.6295656,0.25815555,0.5034831,0.5156734,0.5572058,0.19872834,0.70335925,0.16964269,0.25466347,-0.061061192,0.73205966,-0.29588655,-0.1979711,-0.5572241,0.13517694,809.0842,809.89014,805.8608,800.6227,767.5824,-0.14483642578125,0.007568359375,0.99468994140625,8.575897216796875,-14.23583984375,-14.37042236328125,1,2.0,1.0,1.0,2.0,100.00
2021-04-10 12:29:32.405,1.4647614,1.1299767,0.288754,1.2771636,1.0668294,0.6295656,0.08220293,0.71673447,1.0456569,0.5572058,0.21038496,0.7450826,0.34184274,0.25466347,-0.07630914,0.3787448,-0.30966228,-0.1979711,-0.6694968,-0.16555788,720.84247,802.23444,793.7729,730.5128,671.685,-0.0936279296875,-0.0284423828125,1.00970458984375,1.42059326171875,-3.117828369140625,1.09161376953125,1,1.0,1.0,1.0,1.0,100.00
2021-04-10 12:29:32.515,,,,,,,,,,,,,,,,,,,,,,,,,,,,,,,,,,,,,,/muse/elements/blink
2021-04-10 12:29:32.910,1.4647614,1.1299767,0.8195872,1.2771636,1.0668294,0.6295656,0.42149937,0.71673447,1.0456569,0.5572058,0.22794062,0.7450826,0.34184274,0.25466347,-0.024936954,0.3787448,-0.30966228,-0.1979711,-0.75593275,-0.16555788,797.3993,772.4176,815.12823,815.5311,774.0293,-0.09130859375,-0.03424072265625,0.9989013671875,4.119720458984375,-6.69921875,2.011260986328125,1,1.0,1.0,1.0,1.0,100.00
2021-04-10 12:29:33.415,1.4647614,1.1299767,0.9556038,1.4210013,1.0668294,0.6295656,0.52388775,0.8582454,1.0456569,0.5572058,0.2643939,0.744855,0.34184274,0.25466347,-0.05562779,0.4016509,-0.30966228,-0.1979711,-0.65414745,-0.10444533,806.6667,803.8461,797.8022,801.8315,774.83514,-0.09136962890625,-0.0325927734375,0.98504638671875,-0.2392578125,-6.92352294921875,3.058013916015625,1,1.0,1.0,1.0,1.0,100.00
2021-04-10 12:29:33.922,1.4647614,0.9332361,0.95559204,1.4210013,1.0668294,0.6054369,0.5124516,0.8582454,1.0456569,0.44446337,0.2279707,0.744855,0.34184274,0.2974877,-0.049223285,0.4016509,-0.30966228,-0.4424724,-0.5348341,-0.10444533,814.7253,799.81683,797.3993,815.5311,637.8388,-0.03656005859375,-0.03515625,1.00628662109375,4.658050537109375,-7.10296630859375,-0.800018310546875,1,1.0,1.0,1.0,1.0,100.00
2021-04-10 12:29:34.431,0.8459816,0.9332361,0.88712263,1.4210013,0.24228582,0.6054369,0.5574222,0.8582454,0.37691993,0.44446337,0.41062045,0.744855,0.1823575,0.2974877,-0.11358942,0.4016509,-0.21967708,-0.4424724,-0.4847893,-0.10444533,767.98535,794.9817,800.6227,782.49084,707.9487,-0.049560546875,-0.03387451171875,1.011962890625,5.96649169921875,-4.508514404296875,0.07476806640625,1,1.0,1.0,1.0,1.0,100.00
2021-04-10 12:29:34.941,0.8459816,0.854378,0.713629,1.4210013,0.24228582,0.5026765,0.48064813,0.8582454,0.37691993,0.4199616,0.41280457,0.744855,0.1823575,0.24066852,-0.08452995,0.4016509,-0.21967708,-0.47157192,-0.5261009,-0.10444533,814.3223,807.47253,808.68134,804.2491,793.36993,-0.03131103515625,-0.0343017578125,1.00518798828125,5.689849853515625,-5.286102294921875,2.73651123046875,1,1.0,1.0,1.0,1.0,100.00
2021-04-10 12:29:35.449,0.83126104,-0.37309384,0.6311833,1.4210013,0.29369774,-0.21845779,0.437594,0.8582454,0.37691993,0.26441407,0.3968616,0.744855,0.2130834,0.26843932,-0.050809603,0.4016509,-0.20378864,-0.26574618,-0.5497805,-0.10444533,814.3223,808.2784,803.8461,806.26373,706.7399,-0.01190185546875,-0.0418701171875,1.00457763671875,4.433746337890625,-6.34033203125,0.8074951171875,1,1.0,1.0,1.0,1.0,100.00
2021-04-10 12:29:35.965,0.062142752,-0.54676896,0.28619307,1.4210013,0.29747513,-0.32214832,0.05826064,0.8582454,0.48766413,0.26601732,0.24101703,0.744855,0.036171593,0.34860894,-0.06306776,0.4016509,-0.5055882,-0.3676734,-0.54182154,-0.10444533,803.8461,793.36993,803.44324,805.4579,689.81683,-0.0517578125,-0.0311279296875,1.0023193359375,3.790740966796875,-2.61688232421875,1.517791748046875,1,1.0,1.0,1.0,1.0,100.00
2021-04-10 12:29:36.470,0.25006232,0.22630976,0.004013495,-0.1753395,0.23117836,-0.05632156,-0.09871369,0.17220454,0.5310198,0.34108624,0.056329522,0.19257845,0.06455133,0.31747642,-0.17728592,0.24267958,-0.322042,-0.4230539,-0.56261533,-0.18598998,786.1172,800.6227,804.2491,806.26373,624.94507,-0.02313232421875,-0.033935546875,0.99725341796875,3.48419189453125,-5.674896240234375,-1.495361328125,1,1.0,1.0,1.0,1.0,100.00
2021-04-10 12:29:36.979,0.34974414,0.53599507,0.21979256,0.019167064,0.31946993,0.18048142,-0.043958023,0.19305104,0.571754,0.3012405,0.10924825,0.23587896,0.046392865,0.29005116,-0.2446906,0.26570016,-0.30489275,-0.454774,-0.5167881,-0.2251392,809.89014,807.0696,803.44324,807.0696,763.95605,-0.01458740234375,-0.02117919921875,1.010009765625,3.6785888671875,-8.441314697265625,1.248626708984375,1,1.0,1.0,1.0,1.0,100.00
2021-04-10 12:29:37.485,0.32639024,0.724856,0.46598428,0.18936081,0.35150003,0.37978068,0.15637423,0.25986147,0.73191637,0.51992404,0.18057503,0.32572043,0.023179801,0.18924329,-0.2310446,0.23561928,-0.2266395,-0.44029447,-0.51017815,-0.24519452,803.8461,805.05493,808.68134,808.2784,752.674,-0.017333984375,-0.00860595703125,1.002197265625,3.66363525390625,-5.39825439453125,0.366363525390625,1,1.0,1.0,1.0,1.0,100.00
2021-04-10 12:29:37.998,0.27969787,0.6724693,0.43239,0.3340291,0.35579887,0.34899488,0.12182759,0.22356522,0.7409664,0.5056912,0.20329417,0.36764994,0.06870259,0.15896854,-0.22636385,0.23746593,-0.15072614,-0.38130337,-0.4724293,-0.2692823,793.7729,814.7253,792.1612,792.1612,588.2784,-0.02703857421875,-0.0096435546875,1.00958251953125,2.1234130859375,-7.0880126953125,1.4654541015625,1,1.0,1.0,1.0,1.0,100.00
2021-04-10 12:29:38.517,0.1435409,0.4181244,0.25497892,0.37437767,0.26296082,0.1907284,0.06120507,0.099273,0.72771674,0.48518345,0.20329417,0.31426877,0.095069654,0.10507372,-0.1827549,0.22022866,-0.21276037,-0.41496664,-0.5289445,-0.26674774,805.05493,794.57874,801.4286,811.9048,838.0952,-0.03448486328125,-0.0087890625,1.00347900390625,7.110443115234375,-4.35150146484375,-4.538421630859375,1,1.0,1.0,1.0,1.0,100.00
2021-04-10 12:29:39.020,0.1576673,0.06057089,-0.24020879,0.31858823,0.24053003,-0.06647586,-0.30526266,-0.043337714,0.20452589,0.29850647,-0.07904066,0.35532737,0.12844272,0.027809741,-0.16199903,0.27622363,-0.2983527,-0.2882225,-0.60580504,-0.20199387,807.8755,800.2198,803.0403,792.96704,851.79486,-0.01776123046875,-0.0029296875,1.01947021484375,7.3272705078125,-2.848663330078125,1.2860107421875,1,1.0,1.0,1.0,1.0,100.00
2021-04-10 12:29:39.546,0.26704505,0.32911003,-0.09269981,0.28363556,0.22046219,-0.0033472085,-0.17936122,0.10146778,0.1873241,0.39999843,-0.16303755,0.40671858,0.10699844,0.084023744,-0.09772978,0.31717193,-0.28911832,-0.29658675,-0.59617037,-0.141566,808.2784,815.5311,804.2491,794.9817,660.0,-0.00225830078125,-0.01629638671875,0.984375,4.44122314453125,-0.964508056640625,-0.814971923828125,1,1.0,1.0,1.0,1.0,100.00
2021-04-10 12:29:40.059,0.31679502,0.33362654,-0.050691806,0.54945266,0.16183431,0.09445393,-0.16951936,0.42608628,0.40607947,0.3960242,-0.0536539,0.4252178,0.116108544,0.14108412,-0.14854994,0.30544373,-0.15436126,-0.31722105,-0.5104437,-0.12272249,819.9634,806.6667,805.8608,813.1135,831.2454,-0.02154541015625,0.00689697265625,1.00323486328125,3.955230712890625,-3.39447021484375,1.936492919921875,1,1.0,1.0,1.0,1.0,100.00
2021-04-10 12:29:40.581,0.3938425,0.40333238,-0.09334287,0.6917176,0.16085285,0.12984426,-0.21904942,0.5831691,0.41034028,0.35758558,-0.039630428,0.41199672,0.13010716,0.16153459,-0.07452384,0.31050438,-0.13456893,-0.4268225,-0.44586286,-0.08624169,800.2198,803.44324,803.44324,799.011,656.77655,-0.0079345703125,0.00299072265625,1.0040283203125,5.106658935546875,-6.5496826171875,3.9178466796875,1,1.0,1.0,1.0,1.0,100.00
2021-04-10 12:29:41.093,0.3061941,0.13459687,-0.38421282,0.69818926,0.24355477,0.057059303,-0.5973862,0.5913182,0.39317045,0.11705533,-0.039209485,0.52705157,0.14560167,0.101142146,-0.0834343,0.3006887,-0.22779603,-0.47372273,-0.49245954,-0.026631828,811.50183,805.4579,805.4579,808.68134,738.97437,-0.0225830078125,8.544921875E-4,1.0064697265625,3.686065673828125,-4.867401123046875,1.95892333984375,1,1.0,1.0,1.0,1.0,100.00
2021-04-10 12:29:41.609,0.22190858,0.34920448,0.13981368,0.48426908,0.19964992,0.08395229,-0.077764764,0.5109678,0.38417146,0.294347,0.12728892,0.6348477,0.21515809,0.15174285,-0.03563439,0.30861643,-0.39715064,-0.43741792,-0.60087574,-0.04428898,815.9341,806.6667,804.65204,794.57874,802.6374,-0.009033203125,-0.01837158203125,1.0048828125,3.701019287109375,-3.970184326171875,1.607513427734375,1,1.0,1.0,1.0,1.0,100.00
2021-04-10 12:29:42.131,0.28438547,0.55339867,0.52615994,0.40382835,0.15895848,0.21106626,0.25535136,0.35810062,0.21834229,0.28887,0.20728813,0.62253726,0.27666885,0.21810995,-0.06304263,0.33225048,-0.4702431,-0.3689171,-0.6498987,-0.10322319,873.5531,808.68134,794.9817,871.13556,629.7802,-0.0313720703125,-0.032958984375,0.99041748046875,5.854339599609375,-1.51031494140625,-1.069183349609375,1,1.0,1.0,1.0,1.0,100.00
2021-04-10 12:29:42.232,,,,,,,,,,,,,,,,,,,,,,,,,,,,,,,,,,,,,,/muse/elements/blink
2021-04-10 12:29:42.462,,,,,,,,,,,,,,,,,,,,,,,,,,,,,,,,,,,,,,/muse/elements/blink
2021-04-10 12:29:42.657,0.443698,0.74282867,0.8699746,0.46520093,-0.13310453,0.35682616,0.49397808,0.40276414,0.21834229,0.28887,0.21991688,0.587249,0.34772223,0.27301344,-0.10219205,0.3220864,-0.5313059,-0.29322234,-0.6693996,-0.21484917,764.7619,786.9231,809.4872,767.98535,666.8498,-0.03271484375,-0.021728515625,1.003173828125,6.078643798828125,-4.463653564453125,3.835601806640625,1,1.0,1.0,1.0,1.0,100.00
2021-04-10 12:29:43.181,0.5634454,0.8836915,0.92042893,0.6120801,-0.097027384,0.28531754,0.39443535,0.28205556,0.13671497,0.16606817,0.2215262,0.3669256,0.4520141,0.29905826,-0.14367546,0.30478328,-0.53004664,-0.28916058,-0.6498238,-0.23307346,856.2271,806.26373,807.47253,850.989,778.46155,-0.02239990234375,-0.00482177734375,1.018798828125,4.523468017578125,-4.463653564453125,-0.5084228515625,1,1.0,1.0,1.0,1.0,100.00
2021-04-10 12:29:43.683,0.5634454,0.8672399,0.99031323,0.6120801,-0.097027384,0.09555607,0.033440102,0.28205556,0.13671497,0.04142816,0.21174704,0.3669256,0.4520141,0.28518212,-0.10543238,0.30478328,-0.53004664,-0.4016695,-0.5960008,-0.23307346,804.65204,805.8608,803.8461,820.7692,705.12823,-0.0455322265625,-0.01678466796875,1.0101318359375,1.996307373046875,-3.12530517578125,4.598236083984375,1,1.0,1.0,1.0,1.0,100.00
2021-04-10 12:29:44.195,0.5634454,0.69766736,0.85345566,0.6120801,-0.097027384,0.12724885,-0.3304381,0.28205556,0.13671497,0.361573,0.19163363,0.3669256,0.4520141,0.21498963,-0.088430576,0.30478328,-0.53004664,-0.40123287,-0.5113113,-0.23307346,811.50183,792.1612,821.5751,815.12823,854.61536,-0.0501708984375,3.0517578125E-4,0.9969482421875,4.366455078125,1.83929443359375,1.218719482421875,1,1.0,1.0,1.0,1.0,100.00
2021-04-10 12:29:44.712,0.5634454,0.584523,0.84212,0.6120801,-0.097027384,0.31873402,0.05008811,0.28205556,0.13671497,0.46213108,0.34003207,0.3669256,0.4520141,0.15998463,0.016312135,0.30478328,-0.53004664,-0.44051436,-0.5069264,-0.23307346,791.75824,804.2491,803.44324,789.34064,717.2161,-0.057861328125,-0.0068359375,0.9969482421875,6.3104248046875,-4.194488525390625,1.31591796875,1,2.0,1.0,1.0,2.0,100.00
2021-04-10 12:29:45.239,0.61286545,0.5266902,0.5356265,0.39338672,0.49979603,0.21440639,0.11472378,0.42547572,0.43716133,0.46213108,0.3399273,0.39093152,0.42354473,0.14090015,-0.009860377,0.36445037,-0.39935192,-0.44483837,-0.5652606,-0.030781256,796.1905,799.81683,804.65204,796.5934,744.21246,-0.0538330078125,0.0059814453125,1.00732421875,3.446807861328125,-2.998199462890625,1.0467529296875,1,1.0,1.0,1.0,1.0,100.00
2021-04-10 12:29:45.745,0.83591896,0.056831274,0.39887476,0.7749861,0.7252376,-0.35975477,-0.0017521065,0.69801766,0.6382382,-0.39691845,0.33727193,0.6015352,0.35940605,0.070736684,-0.042505734,0.3132113,-0.44711098,-0.3516621,-0.6772149,0.030817881,806.6667,788.1319,797.8022,804.65204,1135.4579,-0.04998779296875,-0.010009765625,1.00921630859375,4.044952392578125,-4.448699951171875,2.773895263671875,1,1.0,1.0,1.0,1.0,100.00
2021-04-10 12:29:46.270,0.75196224,-0.046204727,-0.05515057,0.84485257,0.668313,-0.2791918,-0.32734215,0.7255069,0.6253846,-0.33254486,-0.10023669,0.6015352,0.26248944,0.12508404,-0.08635595,0.29834035,-0.528552,-0.36433595,-0.69314426,0.078427,788.1319,794.57874,798.60803,796.5934,697.0696,-0.03857421875,-0.0128173828125,0.99462890625,5.81695556640625,-4.972076416015625,0.321502685546875,1,1.0,1.0,1.0,1.0,100.00
2021-04-10 12:29:46.784,0.7224279,-0.20252565,-0.047231298,0.8212347,0.58895755,-0.28964725,-0.32537392,0.6661403,0.6017555,-0.018166173,0.07482228,0.6203814,0.23887515,0.17430083,-0.063236915,0.35488892,-0.43412182,-0.3595317,-0.71863955,0.01181637,811.0989,812.71063,788.5348,803.8461,929.9634,-0.05340576171875,-4.2724609375E-4,0.99884033203125,4.882354736328125,-5.5328369140625,2.071075439453125,1,1.0,1.0,1.0,1.0,100.00
2021-04-10 12:29:47.302,0.2854935,0.2589717,0.5191139,0.5805813,-0.027755735,0.112524085,-0.0832583,0.1702003,0.45305106,0.5183187,0.14381091,0.4155526,0.27125752,0.15666305,0.01281526,0.4263532,-0.3933079,-0.4309782,-0.73922783,0.013505141,794.57874,802.6374,805.8608,811.50183,808.68134,-0.05145263671875,-0.0067138671875,1.00689697265625,4.47113037109375,-3.84307861328125,-1.24114990234375,1,1.0,1.0,1.0,1.0,100.00
2021-04-10 12:29:47.809,0.35492623,0.494248,0.6586018,0.52578235,-0.2056152,0.24629211,-0.049842272,0.14714243,0.36947978,0.5243132,0.16535842,0.48474705,0.25164407,0.12260477,-0.022502368,0.4306544,-0.40418077,-0.425426,-0.70009625,-0.003369794,802.23444,806.6667,805.8608,801.4286,624.94507,-0.0478515625,-0.0146484375,1.0015869140625,4.0374755859375,-3.970184326171875,1.65985107421875,1,1.0,1.0,1.0,1.0,100.00
2021-04-10 12:29:48.324,0.3970647,0.5339882,0.62736946,0.5068583,0.08157188,0.33006644,-0.05943257,0.18911532,0.41372436,0.5243132,0.108316764,0.4984724,0.1746012,0.14617638,-0.07330943,0.38694048,-0.40934384,-0.44168413,-0.7085248,-0.09310528,810.293,806.26373,796.5934,808.68134,734.94507,-0.05950927734375,-0.0048828125,1.00726318359375,5.03936767578125,-4.8150634765625,0.6280517578125,1,1.0,1.0,1.0,1.0,100.00
2021-04-10 12:29:48.832,0.37186646,0.5699385,0.4134889,0.2999431,0.5310437,0.38930526,-0.11289159,0.3911316,0.3833657,0.48376557,0.037764095,0.49890727,0.13981149,0.23468743,-0.2302795,0.35157138,-0.28522882,-0.4088304,-0.6242957,-0.30906504,813.1135,801.8315,805.4579,819.9634,797.3993,-0.05462646484375,-0.0067138671875,1.01239013671875,5.630035400390625,-2.385101318359375,0.6878662109375,1,1.0,1.0,1.0,1.0,100.00
2021-04-10 12:29:49.341,0.25180098,0.5493346,0.35843605,0.32192603,0.7345085,0.47771242,-0.035432816,0.6905817,0.4009688,0.5793085,0.13749138,0.6397637,0.2040299,0.21807316,-0.19507974,0.30712354,-0.23288904,-0.3782922,-0.5893438,-0.36861923,785.7143,797.3993,799.41394,804.65204,629.7802,-0.046875,8.544921875E-4,1.00714111328125,5.084228515625,-4.403839111328125,0.321502685546875,1,1.0,1.0,1.0,1.0,100.00
2021-04-10 12:29:49.849,0.33355087,0.8237573,0.56858736,0.38672975,0.80957454,0.52813864,0.18210348,0.8247393,0.4628129,0.6072523,0.15757856,0.78681195,0.2884232,0.15968272,-0.1568189,0.33269292,-0.21417528,-0.248665,-0.54800075,-0.21909791,794.9817,802.23444,802.23444,805.4579,737.3626,-0.051025390625,-9.765625E-4,1.00518798828125,5.09918212890625,-5.84686279296875,0.560760498046875,1,1.0,1.0,1.0,1.0,100.00
2021-04-10 12:29:50.360,0.24662417,0.717506,0.4773255,0.27716255,0.6728955,0.36710304,0.18059696,0.74311006,0.36767244,0.60071456,0.1419325,0.7874157,0.21127148,0.06422927,-0.07423479,0.3338186,-0.22220719,-0.21483849,-0.56673354,-0.08475992,814.3223,811.9048,806.26373,811.50183,759.92676,-0.05810546875,-0.01171875,0.99835205078125,3.566436767578125,-4.23187255859375,1.71966552734375,1,1.0,1.0,1.0,1.0,100.00
2021-04-10 12:29:50.869,0.19496591,0.7861387,0.5875479,0.56046635,0.48620695,0.2969353,0.3850806,0.5936653,0.3975975,0.5844446,0.13307609,0.8070965,0.16890344,0.053274017,0.0075138267,0.3510779,-0.16518906,-0.26065418,-0.5708911,-0.040815208,817.9487,804.65204,807.8755,801.8315,704.7253,-0.04705810546875,-0.00439453125,1.00054931640625,4.732818603515625,-5.166473388671875,2.6318359375,1,1.0,1.0,1.0,1.0,100.00
2021-04-10 12:29:51.386,0.00689119,0.5191958,0.4900981,0.6501523,0.37184766,0.13840653,0.31716067,0.42770132,0.35334507,0.36271942,-0.1308183,0.56237966,0.0856883,0.10680566,0.019073782,0.3320664,-0.17057557,-0.3213034,-0.59552693,-0.034900267,796.1905,800.2198,801.4286,798.20514,819.5604,-0.04241943359375,-0.0059814453125,1.0057373046875,5.48797607421875,-5.899200439453125,0.022430419921875,1,1.0,1.0,1.0,1.0,100.00
2021-04-10 12:29:51.914,0.05521406,0.5628184,0.5000175,0.6837639,0.38845295,0.12423368,0.25537363,0.46364936,0.3534226,0.36271942,-0.16705258,0.59179354,0.15528238,0.20522045,-0.02834963,0.33398637,-0.22423217,-0.33789116,-0.63679737,-0.07873773,786.52014,811.0989,799.81683,779.2674,693.8461,-0.0604248046875,-0.0115966796875,1.0003662109375,4.837493896484375,-3.880462646484375,-1.31591796875,1,1.0,1.0,1.0,1.0,100.00
2021-04-10 12:29:52.420,0.022398401,0.20415881,0.13094847,0.40478688,0.31833917,-0.31868288,-0.26088402,0.3524146,0.79549736,0.026052445,0.06540419,0.5653563,0.21211694,0.25463977,-0.16206184,0.2815698,-0.28636843,-0.32820553,-0.67873085,-0.007063027,802.23444,790.54944,804.2491,802.6374,915.8608,-0.05126953125,-0.0059814453125,1.003662109375,5.48797607421875,-6.50482177734375,1.4654541015625,1,1.0,1.0,1.0,1.0,100.00
2021-04-10 12:29:52.927,-0.057565033,0.0679811,-0.15504876,0.16734655,0.1346129,-0.38411713,-0.4948861,0.27105632,0.78317744,-0.022332158,0.19387807,0.56427026,0.22341076,0.24247801,-0.178749,0.25959268,-0.26005483,-0.37199718,-0.67181367,0.03412035,797.3993,798.20514,804.2491,806.26373,695.8608,-0.0433349609375,0.005859375,1.00445556640625,3.6187744140625,-7.177734375,0.97198486328125,1,1.0,1.0,1.0,1.0,100.00
2021-04-10 12:29:53.443,-0.09850656,-0.12560186,-0.19662064,0.013838724,-0.01204964,-0.17934318,-0.42068276,0.18780458,0.7794758,-0.026400914,0.20021611,0.5052114,0.19556217,0.19143364,-0.2045535,0.22828814,-0.27906075,-0.3031228,-0.6502113,-0.0028080782,798.60803,799.81683,803.8461,814.7253,616.8865,-0.06060791015625,-0.009521484375,0.9949951171875,2.27294921875,-0.755157470703125,-0.34393310546875,1,1.0,1.0,1.0,1.0,100.00
2021-04-10 12:29:53.952,0.0127737345,-0.17231049,-0.20620462,-0.04324986,0.30554464,0.031788237,-0.34352073,0.4045075,0.4360166,0.036626093,0.12544389,0.52738994,0.105688795,0.12859108,-0.21429753,0.28327465,-0.2880507,-0.24360552,-0.6971486,-0.10431286,785.31134,801.8315,800.2198,786.52014,704.3223,-0.04876708984375,-0.01324462890625,1.00213623046875,4.2767333984375,-4.486083984375,1.951446533203125,1,1.0,1.0,1.0,1.0,100.00
2021-04-10 12:29:54.473,0.06813729,-0.08390651,-0.22332413,0.08669543,0.5951752,0.12642257,-0.286195,0.48790377,0.36571392,0.113706976,0.13340992,0.5658942,0.17206068,0.14606269,-0.1946101,0.39810857,-0.2561494,-0.21931642,-0.70463496,-0.16858807,794.57874,807.0696,809.89014,804.65204,709.5604,-0.04290771484375,-0.0035400390625,1.00518798828125,4.844970703125,-3.1402587890625,0.710296630859375,1,1.0,1.0,1.0,1.0,100.00
2021-04-10 12:29:55.005,0.055067156,0.10878386,-0.17164358,0.18663897,0.7432112,0.2185801,-0.14300077,0.61113805,0.6503335,0.3349189,0.1481094,0.57549846,0.18870749,0.1816909,-0.086268686,0.45198503,-0.1291606,-0.26983014,-0.73487324,-0.079968065,807.0696,805.8608,802.6374,809.0842,724.0659,-0.0367431640625,-0.0146484375,0.9962158203125,4.687957763671875,-3.1402587890625,2.5421142578125,1,1.0,1.0,1.0,1.0,100.00
2021-04-10 12:29:55.527,0.06319186,0.16981599,-0.061024662,0.27051502,0.74471295,0.27613685,-0.06123292,0.6637401,0.6481371,0.33511162,0.122980505,0.5422923,0.297831,0.2654277,-0.017428823,0.44255507,-0.04810064,-0.32799095,-0.6498929,-0.0036260833,806.6667,804.2491,803.0403,807.0696,786.1172,-0.0341796875,0.00103759765625,1.0098876953125,4.658050537109375,-3.461761474609375,-1.36077880859375,1,1.0,1.0,1.0,1.0,100.00
2021-04-10 12:29:56.039,0.11079244,0.09459691,-0.10659736,0.15928368,0.6994058,0.2614719,-0.11486241,0.8230108,0.67545354,0.3026046,0.14511828,0.55884314,0.3793946,0.25133163,0.070461705,0.37080672,-0.08442922,-0.41693196,-0.6541218,-0.042531136,803.8461,804.65204,796.5934,793.7729,627.3626,-0.0545654296875,-0.0064697265625,0.9947509765625,4.957122802734375,-3.3795166015625,0.201873779296875,1,1.0,1.0,1.0,1.0,100.00
2021-04-10 12:29:56.554,0.096390136,-0.2813053,-0.24981111,0.08818296,0.5046071,0.060913913,-0.25881848,0.76623285,0.605979,0.16956466,0.10604957,0.45779595,0.3720852,0.17959185,0.013210372,0.3230692,-0.16924591,-0.4650435,-0.594496,-0.07128278,796.1905,796.5934,803.0403,808.2784,679.34064,-0.04071044921875,-0.0111083984375,1.01397705078125,4.553375244140625,-4.2767333984375,1.03179931640625,1,1.0,1.0,1.0,1.0,100.00
2021-04-10 12:29:57.073,-0.07956277,-0.52146375,-0.48059535,0.16980015,0.40141562,-0.06912524,-0.1706232,0.7010801,0.55060804,0.16788201,0.037610494,0.5625444,0.29709148,0.1691049,-0.110167004,0.38529685,-0.16468494,-0.38707587,-0.59638256,-0.13265,813.5165,802.23444,804.2491,817.9487,775.2381,-0.06536865234375,-0.00286865234375,1.009765625,4.486083984375,-0.650482177734375,2.041168212890625,1,1.0,1.0,1.0,1.0,100.00
2021-04-10 12:29:57.587,0.08529943,0.19744952,-0.21763149,0.21239157,0.2601453,0.076833315,-0.026716031,0.44072604,0.45594627,0.20243537,0.18539518,0.6004992,0.17924242,0.1252577,-0.20928155,0.41245168,-0.13570873,-0.36044887,-0.63310415,-0.13040544,807.8755,817.9487,800.6227,803.0403,742.6007,-0.0576171875,-0.0120849609375,1.00311279296875,4.0673828125,-2.28790283203125,-0.037384033203125,1,1.0,1.0,1.0,1.0,100.00
2021-04-10 12:29:58.094,0.3682259,0.6178909,-0.07398758,0.24903621,0.38426772,0.31874567,0.06393936,0.4065074,0.41147855,0.24934049,0.20537646,0.5097806,0.21197395,0.13271503,-0.06683576,0.51462126,-0.18800649,-0.35735983,-0.6918803,-0.14908823,813.1135,799.011,807.47253,805.4579,834.4689,-0.064697265625,-0.0245361328125,1.001220703125,5.854339599609375,-5.54779052734375,1.2860107421875,1,1.0,1.0,1.0,1.0,100.00
2021-04-10 12:29:58.620,0.4338194,0.6940241,0.15450013,0.16882613,0.3997835,0.33672354,0.060055822,0.32855263,0.45259205,0.41819662,0.23708528,0.5039521,0.21210858,0.1219346,-0.053844415,0.48241463,-0.28334704,-0.4077471,-0.6551274,-0.13492809,799.81683,798.20514,803.0403,802.23444,688.60803,-0.0894775390625,0.00262451171875,1.01025390625,5.914154052734375,-0.16448974609375,0.52337646484375,1,1.0,1.0,1.0,1.0,100.00
2021-04-10 12:29:59.131,0.48576716,0.7141132,0.2358855,0.23179805,0.37860835,0.32461587,0.051159352,0.28759027,0.39261624,0.4184673,0.23708528,0.4289528,0.21758541,0.11971858,-0.04857874,0.46418706,-0.31976613,-0.4018985,-0.62460095,-0.10180279,822.7839,794.57874,805.4579,806.6667,886.04395,-0.081787109375,-0.00482177734375,0.9852294921875,5.166473388671875,-2.983245849609375,-2.145843505859375,1,1.0,1.0,1.0,1.0,100.00
2021-04-10 12:29:59.640,0.48576716,0.7141132,0.2358855,0.23179805,0.37860835,0.32461587,0.051159352,0.28759027,0.39261624,0.4184673,0.23708528,0.4289528,0.21758541,0.11971858,-0.04857874,0.46418706,-0.31976613,-0.4018985,-0.62460095,-0.10180279,822.7839,794.57874,805.4579,806.6667,886.04395,-0.081787109375,-0.00482177734375,0.9852294921875,5.166473388671875,-2.983245849609375,-2.145843505859375,1,1.0,1.0,1.0,1.0,100.00
2021-04-10 12:30:00.166,0.48576716,0.7141132,0.2358855,0.23179805,0.37860835,0.32461587,0.051159352,0.28759027,0.39261624,0.4184673,0.23708528,0.4289528,0.21758541,0.11971858,-0.04857874,0.46418706,-0.31976613,-0.4018985,-0.62460095,-0.10180279,822.7839,794.57874,805.4579,806.6667,886.04395,-0.081787109375,-0.00482177734375,0.9852294921875,5.166473388671875,-2.983245849609375,-2.145843505859375,1,1.0,1.0,1.0,1.0,100.00
2021-04-10 12:30:00.690,0.48576716,0.7141132,0.2358855,0.23179805,0.37860835,0.32461587,0.051159352,0.28759027,0.39261624,0.4184673,0.23708528,0.4289528,0.21758541,0.11971858,-0.04857874,0.46418706,-0.31976613,-0.4018985,-0.62460095,-0.10180279,822.7839,794.57874,805.4579,806.6667,886.04395,-0.081787109375,-0.00482177734375,0.9852294921875,5.166473388671875,-2.983245849609375,-2.145843505859375,1,1.0,1.0,1.0,1.0,100.00
2021-04-10 12:30:10.732,0.48576716,0.7141132,0.2358855,0.23179805,0.37860835,0.32461587,0.051159352,0.28759027,0.39261624,0.4184673,0.23708528,0.4289528,0.21758541,0.11971858,-0.04857874,0.46418706,-0.31976613,-0.4018985,-0.62460095,-0.10180279,806.26373,793.36993,801.02563,816.337,729.304,-0.136474609375,0.18377685546875,0.96380615234375,16.26953125,1.233673095703125,21.660308837890625,1,1.0,1.0,1.0,1.0,100.00
2021-04-10 12:30:11.240,0.48576716,0.7141132,0.2358855,0.23179805,0.37860835,0.32461587,0.051159352,0.28759027,0.39261624,0.4184673,0.23708528,0.4289528,0.21758541,0.11971858,-0.04857874,0.46418706,-0.31976613,-0.4018985,-0.62460095,-0.10180279,840.10986,823.9927,810.293,821.5751,818.3516,-0.16943359375,0.0482177734375,1.00543212890625,-4.3365478515625,-17.069549560546875,-27.0660400390625,1,1.0,1.0,1.0,1.0,100.00
2021-04-10 12:30:11.758,0.0,0.0,0.0,0.0,0.0,0.0,0.0,0.0,0.0,0.0,0.0,0.0,0.0,0.0,0.0,0.0,0.0,0.0,0.0,0.0,784.90845,805.8608,795.78754,800.6227,699.4872,0.0133056640625,0.098388671875,1.0106201171875,9.16656494140625,-4.2169189453125,-21.9818115234375,0,4.0,4.0,4.0,4.0,100.00
2021-04-10 12:30:12.285,0.0,0.0,0.0,0.0,0.0,0.0,0.0,0.0,0.0,0.0,0.0,0.0,0.0,0.0,0.0,0.0,0.0,0.0,0.0,0.0,794.57874,795.78754,801.4286,793.7729,740.18317,-0.0277099609375,0.08453369140625,1.009521484375,4.897308349609375,-4.0972900390625,-2.392578125,0,4.0,4.0,4.0,4.0,100.00
2021-04-10 12:30:12.786,0.0,0.0,0.0,0.0,0.0,0.0,0.0,0.0,0.0,0.0,0.0,0.0,0.0,0.0,0.0,0.0,0.0,0.0,0.0,0.0,797.8022,801.4286,805.4579,794.9817,794.9817,-0.0469970703125,0.05255126953125,1.00238037109375,5.7720947265625,0.635528564453125,-3.050537109375,0,4.0,4.0,4.0,4.0,100.00
2021-04-10 12:30:13.303,0.0,0.0,0.0,0.0,0.0,0.0,0.0,0.0,0.0,0.0,0.0,0.0,0.0,0.0,0.0,0.0,0.0,0.0,0.0,0.0,799.41394,811.9048,810.696,812.71063,755.09155,-0.02459716796875,0.1630859375,0.9908447265625,15.20782470703125,-12.673187255859375,-7.10296630859375,1,2.0,1.0,1.0,2.0,100.00
2021-04-10 12:30:13.805,0.35465932,0.32723245,0.22185126,0.24318002,0.6400029,0.47958246,-0.4430031,0.34304294,0.91724706,0.044437625,-0.07804192,0.36945605,0.45104226,0.031108351,-0.04466204,0.16302466,0.35399252,-0.19099417,-0.549122,-0.14654334,811.50183,814.3223,801.8315,809.4872,751.8681,0.03607177734375,0.14678955078125,1.000732421875,-1.233673095703125,2.564544677734375,7.813262939453125,1,1.0,1.0,1.0,1.0,100.00
2021-04-10 12:30:14.320,0.22536328,0.61447436,0.06153013,0.16646944,0.57236594,0.31225166,-0.5400702,0.28445536,0.92740226,0.20738576,-0.06964353,0.4538592,0.6250045,0.051908508,-0.0878809,0.29744196,0.2921378,-0.25828227,-0.42130777,-0.05133069,792.5641,798.20514,809.0842,793.7729,733.73627,-0.00323486328125,0.11224365234375,1.0072021484375,-6.11602783203125,-5.2337646484375,20.882720947265625,1,1.0,1.0,1.0,1.0,100.00
2021-04-10 12:30:14.848,0.24012484,0.6560407,0.023532337,0.24987486,0.5635135,0.2658267,-0.58209676,0.3589029,0.987736,0.32068574,-0.052157678,0.52018857,0.6390516,0.036754716,-0.109477684,0.36513445,0.28350464,-0.26358253,-0.34245798,0.102441974,807.8755,805.4579,806.26373,838.0952,713.1868,0.01873779296875,0.03021240234375,1.00262451171875,2.91595458984375,-3.715972900390625,3.15521240234375,1,1.0,1.0,1.0,1.0,100.00
2021-04-10 12:30:15.374,0.37450403,0.7867928,0.35756662,0.4025416,0.71259403,0.1283137,-0.5288992,0.3627725,1.1165835,0.4811767,0.2389124,0.6887397,0.7792228,0.12783258,-0.05670066,0.6089238,0.4589581,-0.29537097,-0.3509405,0.29132283,819.15753,808.68134,811.0989,776.04395,789.7436,0.0050048828125,0.02685546875,1.00799560546875,-0.710296630859375,-0.1495361328125,-2.205657958984375,1,1.0,1.0,1.0,1.0,100.00
2021-04-10 12:30:15.888,0.9244237,1.160512,0.5357736,1.093344,1.0178634,0.4852644,-0.43959674,0.581779,1.0916559,0.5111596,0.23467398,0.73659897,0.8330686,0.35212052,-0.0033688936,0.7945493,0.7045398,-0.16456348,-0.38979894,0.40675598,799.81683,797.3993,879.19415,812.3077,667.6557,-0.05279541015625,-0.01617431640625,0.999267578125,3.87298583984375,0.097198486328125,-0.112152099609375,1,1.0,1.0,1.0,1.0,100.00
2021-04-10 12:30:16.399,1.1170906,1.0759212,0.808075,1.2213744,1.1303347,0.4665475,-0.39427596,0.66639423,1.1499233,0.6939161,0.22721866,0.7422037,0.9321028,0.4170562,0.12911145,0.8218267,0.83852214,-0.11566011,-0.5788768,0.38412952,807.0696,795.38464,869.92676,815.5311,838.0952,-0.09503173828125,-0.03521728515625,0.999755859375,4.957122802734375,-3.910369873046875,2.220611572265625,1,1.0,1.0,1.0,1.0,100.00
2021-04-10 12:30:16.900,1.3021086,1.0599767,0.808075,1.3297799,1.225358,0.46762502,-0.39427596,0.753319,1.288107,0.63094085,0.22721866,0.6966659,0.8742744,0.41387287,0.12911145,0.80906963,0.82904404,-0.070739105,-0.5788768,0.3599032,729.304,757.1062,776.4469,741.79486,941.6484,-0.06060791015625,-7.9345703125E-4,1.00982666015625,7.237548828125,-5.21881103515625,2.833709716796875,1,1.0,1.0,1.0,1.0,100.00
2021-04-10 12:30:17.415,1.3054253,0.62376523,0.808075,1.1309922,1.1791674,0.31938344,-0.39427596,0.70906675,1.2776986,0.5818112,0.22721866,0.6207605,0.8421162,0.37671068,0.12911145,0.7057576,0.81448483,-0.0443607,-0.5788768,0.30498618,688.20514,695.4579,757.9121,648.315,713.5897,-0.07415771484375,-0.00537109375,1.0169677734375,4.20196533203125,-2.392578125,1.727142333984375,1,1.0,1.0,1.0,1.0,100.00
2021-04-10 12:30:17.939,1.3054253,0.613239,0.808075,1.1718397,1.1791674,0.30447856,-0.39427596,0.7685742,1.2776986,0.45431507,0.22721866,0.6114617,0.8421162,0.22896782,0.12911145,0.6331125,0.81448483,-0.061438292,-0.5788768,0.28590143,757.9121,759.5238,779.67035,747.8388,721.6484,-0.12786865234375,-0.019287109375,0.99859619140625,3.75335693359375,-0.515899658203125,2.160797119140625,1,1.0,1.0,1.0,1.0,100.00
2021-04-10 12:30:18.465,1.3054253,0.6397698,0.808075,1.1718397,1.1791674,0.25587422,-0.39427596,0.7685742,1.2776986,0.3107551,0.22721866,0.6114617,0.8421162,0.1959524,0.12911145,0.6331125,0.81448483,-0.0639207,-0.5788768,0.28590143,748.24176,785.31134,798.60803,777.25275,730.10986,-0.1322021484375,-0.0174560546875,0.99444580078125,3.78326416015625,-3.72344970703125,7.3870849609375,1,1.0,1.0,1.0,1.0,100.00
2021-04-10 12:30:18.990,1.3054253,0.6397698,0.808075,1.1718397,1.1791674,0.25587422,-0.39427596,0.7685742,1.2776986,0.3107551,0.22721866,0.6114617,0.8421162,0.1959524,0.12911145,0.6331125,0.81448483,-0.0639207,-0.5788768,0.28590143,697.8755,772.8205,695.05493,685.38464,742.1978,-0.1466064453125,-0.012451171875,0.98944091796875,6.422576904296875,-2.34771728515625,0.500946044921875,1,1.0,1.0,1.0,1.0,100.00
2021-04-10 12:30:19.356,,,,,,,,,,,,,,,,,,,,,,,,,,,,,,,,,,,,,,/muse/elements/blink
2021-04-10 12:30:19.514,1.3054253,0.6397698,0.808075,1.1718397,1.1791674,0.25587422,-0.39427596,0.7685742,1.2776986,0.3107551,0.22721866,0.6114617,0.8421162,0.1959524,0.12911145,0.6331125,0.81448483,-0.0639207,-0.5788768,0.28590143,597.9487,726.4835,616.08057,596.7399,771.2088,-0.220947265625,-0.0040283203125,0.98724365234375,4.822540283203125,-1.084136962890625,1.428070068359375,1,2.0,1.0,1.0,2.0,100.00
2021-04-10 12:30:19.783,,,,,,,,,,,,,,,,,,,,,,,,,,,,,,,,,,,,,,/muse/elements/blink
2021-04-10 12:30:20.044,1.3054253,0.6397698,0.808075,1.1718397,1.1791674,0.25587422,-0.39427596,0.7685742,1.2776986,0.3107551,0.22721866,0.6114617,0.8421162,0.1959524,0.12911145,0.6331125,0.81448483,-0.0639207,-0.5788768,0.28590143,803.0403,788.5348,781.28204,799.81683,689.81683,-0.283203125,-0.02105712890625,0.969482421875,4.14215087890625,-4.5458984375,0.97198486328125,1,2.0,1.0,1.0,2.0,100.00
2021-04-10 12:30:20.567,1.3054253,0.6397698,0.808075,1.1718397,1.1791674,0.25587422,-0.39427596,0.7685742,1.2776986,0.3107551,0.22721866,0.6114617,0.8421162,0.1959524,0.12911145,0.6331125,0.81448483,-0.0639207,-0.5788768,0.28590143,834.0659,865.89746,844.5421,803.44324,728.0952,-0.21148681640625,0.029541015625,0.98699951171875,19.880828857421875,-21.66778564453125,-23.8360595703125,1,2.0,1.0,1.0,2.0,100.00
2021-04-10 12:30:21.081,1.3054253,0.6397698,0.808075,1.1718397,1.1791674,0.25587422,-0.39427596,0.7685742,1.2776986,0.3107551,0.22721866,0.6114617,0.8421162,0.1959524,0.12911145,0.6331125,0.81448483,-0.0639207,-0.5788768,0.28590143,927.1429,825.6044,836.4835,861.8681,727.6923,-0.10723876953125,0.090087890625,0.98223876953125,9.13665771484375,-22.991180419921875,0.710296630859375,1,2.0,1.0,1.0,2.0,100.00
2021-04-10 12:30:21.112,,,,,,,,,,,,,,,,,,,,,,,,,,,,,,,,,,,,,,/muse/elements/blink
2021-04-10 12:30:21.601,1.3054253,0.6397698,0.808075,1.1718397,1.1791674,0.25587422,-0.39427596,0.7685742,1.2776986,0.3107551,0.22721866,0.6114617,0.8421162,0.1959524,0.12911145,0.6331125,0.81448483,-0.0639207,-0.5788768,0.28590143,818.3516,829.2308,811.50183,835.2747,751.4652,-0.0076904296875,0.09783935546875,0.99639892578125,6.302947998046875,2.55706787109375,6.183319091796875,1,2.0,1.0,1.0,2.0,100.00
2021-04-10 12:30:22.108,1.3054253,1.5302544,0.808075,1.1718397,1.1791674,0.7575481,-0.39427596,0.7685742,1.2776986,0.48658723,0.22721866,0.6114617,0.8421162,0.12495327,0.12911145,0.6331125,0.81448483,-0.32662264,-0.5788768,0.28590143,797.3993,825.6044,791.75824,788.1319,786.1172,-0.01922607421875,0.06988525390625,1.00152587890625,-5.674896240234375,0.418701171875,30.7745361328125,1,2.0,1.0,1.0,2.0,100.00
2021-04-10 12:30:22.299,,,,,,,,,,,,,,,,,,,,,,,,,,,,,,,,,,,,,,/muse/elements/blink
2021-04-10 12:30:22.618,1.3054253,1.5302544,1.6394374,1.1718397,1.1791674,0.7575481,1.2650149,0.7685742,1.2776986,0.48658723,0.7450825,0.6114617,0.8421162,0.12495327,0.065923214,0.6331125,0.81448483,-0.32662264,-0.4000693,0.28590143,854.21246,828.022,810.696,821.1722,761.9414,-0.07647705078125,-0.1993408203125,0.9903564453125,10.131072998046875,-10.759124755859375,24.224853515625,1,2.0,1.0,1.0,2.0,100.00
2021-04-10 12:30:23.126,1.3054253,1.5302544,1.6394374,1.1718397,1.1791674,0.7575481,1.2650149,0.7685742,1.2776986,0.48658723,0.7450825,0.6114617,0.8421162,0.12495327,0.065923214,0.6331125,0.81448483,-0.32662264,-0.4000693,0.28590143,795.38464,823.5897,776.04395,795.38464,810.293,-0.0888671875,-0.004150390625,0.9937744140625,21.196746826171875,-6.258087158203125,36.673736572265625,1,2.0,1.0,1.0,2.0,100.00
2021-04-10 12:30:23.637,1.3054253,1.5302544,1.6394374,1.1718397,1.1791674,0.7575481,1.2650149,0.7685742,1.2776986,0.48658723,0.7450825,0.6114617,0.8421162,0.12495327,0.065923214,0.6331125,0.81448483,-0.32662264,-0.4000693,0.28590143,827.619,853.8095,777.25275,800.6227,903.36993,-0.017333984375,0.15240478515625,1.00311279296875,18.415374755859375,-24.531402587890625,0.456085205078125,1,2.0,1.0,1.0,2.0,100.00
2021-04-10 12:30:24.150,1.3054253,1.3757324,1.6394374,1.1718397,1.1791674,0.9479596,1.2650149,0.7685742,1.2776986,0.6503703,0.7450825,0.6114617,0.8421162,0.2900104,0.065923214,0.6331125,0.81448483,-0.411469,-0.4000693,0.28590143,808.68134,807.47253,788.93774,824.3956,667.6557,0.18280029296875,0.230712890625,0.99969482421875,-0.411224365234375,-10.774078369140625,-5.271148681640625,1,2.0,1.0,1.0,2.0,100.00
2021-04-10 12:30:24.663,1.3054253,1.3757324,0.9568138,1.1718397,1.1791674,0.9479596,0.34179726,0.7685742,1.2776986,0.6503703,0.70970035,0.6114617,0.8421162,0.2900104,-0.09321646,0.6331125,0.81448483,-0.411469,-0.61284673,0.28590143,787.326,799.011,817.9487,780.4762,807.47253,0.0718994140625,0.040283203125,0.988037109375,3.207550048828125,10.4974365234375,5.166473388671875,1,2.0,1.0,1.0,2.0,100.00
2021-04-10 12:30:25.174,1.3054253,1.4928838,0.9568138,1.1718397,1.1791674,1.0137273,0.34179726,0.7685742,1.2776986,0.6088423,0.70970035,0.6114617,0.8421162,0.2522606,-0.09321646,0.6331125,0.81448483,-0.40178856,-0.61284673,0.28590143,784.5055,819.9634,808.68134,798.60803,823.5897,0.04632568359375,0.03729248046875,1.01226806640625,-6.138458251953125,-6.661834716796875,4.254302978515625,1,2.0,1.0,1.0,2.0,100.00
2021-04-10 12:30:25.677,1.3054253,1.5609653,0.8289332,1.1718397,1.1791674,1.0476823,0.16668545,0.7685742,1.2776986,0.6076282,0.53135645,0.6114617,0.8421162,0.22149387,-0.21134429,0.6331125,0.81448483,-0.3955297,-0.60121715,0.28590143,799.41394,792.96704,817.9487,780.4762,576.99634,0.13775634765625,-0.100830078125,0.97296142578125,-6.108551025390625,-5.30853271484375,-25.5108642578125,1,2.0,1.0,1.0,2.0,100.00
2021-04-10 12:30:26.180,1.2747939,1.3938314,1.212339,1.1718397,0.7302917,0.9971383,0.75138384,0.7685742,0.87525415,0.7648326,0.6638518,0.6114617,0.2581163,0.106988296,-0.2925226,0.6331125,0.05845713,-0.5694164,-0.5550663,0.28590143,819.9634,794.57874,809.89014,811.0989,842.9304,-0.08856201171875,-0.02349853515625,1.02728271484375,19.619140625,-2.175750732421875,7.813262939453125,1,1.0,1.0,1.0,1.0,100.00
2021-04-10 12:30:26.468,,,,,,,,,,,,,,,,,,,,,,,,,,,,,,,,,,,,,,/muse/elements/blink
2021-04-10 12:30:26.685,1.3635108,1.3080282,1.0770614,1.1718397,1.0011892,0.83419895,0.6246582,0.7685742,1.3525332,0.7648326,0.6638518,0.6114617,0.435284,0.13202637,-0.15537193,0.6331125,0.096085966,-0.43999532,-0.43821767,0.28590143,838.0952,819.5604,807.47253,840.10986,792.5641,0.094482421875,0.01275634765625,1.00177001953125,10.3179931640625,-10.4974365234375,-11.1553955078125,1,1.0,1.0,1.0,1.0,100.00
2021-04-10 12:30:26.994,,,,,,,,,,,,,,,,,,,,,,,,,,,,,,,,,,,,,,/muse/elements/blink
2021-04-10 12:30:27.193,1.5380961,1.3195487,1.0313847,1.1718397,1.4307168,0.7687776,0.55504423,0.7685742,1.4853783,0.76697457,0.6805556,0.6114617,0.8226664,0.13716142,-0.14118159,0.6331125,0.17444775,-0.40545276,-0.40323666,0.28590143,800.6227,780.4762,795.78754,793.7729,730.9158,0.3297119140625,0.0552978515625,0.77642822265625,-4.957122802734375,0.3887939453125,1.55517578125,1,1.0,1.0,1.0,1.0,100.00
2021-04-10 12:30:27.718,1.674132,1.1835941,0.6610168,1.7326398,1.6112733,0.23959608,-0.018019974,1.5041881,1.492314,0.11213964,0.43374348,1.3421061,0.98667455,0.17828639,-0.010198205,0.94871366,0.29498845,-0.2717903,-0.36081037,0.30274498,805.05493,817.5458,819.5604,801.4286,687.8022,-0.014892578125,-0.032470703125,0.91021728515625,4.403839111328125,12.8302001953125,32.120361328125,1,1.0,1.0,1.0,1.0,100.00
2021-04-10 12:30:28.231,1.7491975,1.1835941,0.68635374,1.8227253,1.7255574,0.23959608,-0.2372246,1.5041635,1.4617646,0.11213964,0.22415645,1.3688805,1.101732,0.17828639,-0.026118303,0.8572606,0.3556749,-0.2717903,-0.40980747,0.2318763,797.3993,846.9597,818.3516,801.02563,570.54944,-0.10198974609375,0.00360107421875,1.00103759765625,-0.43365478515625,1.77947998046875,14.662017822265625,1,1.0,1.0,1.0,1.0,100.00
2021-04-10 12:30:28.733,1.8077483,1.1835941,0.68417203,1.8107252,1.7576244,0.23959608,-0.055985913,1.4492263,1.3902543,0.11213964,0.1637596,1.2473019,1.1462072,0.17828639,0.14670944,0.8432858,0.4643652,-0.2717903,-0.40615365,0.18057771,794.57874,832.4542,807.8755,807.0696,774.83514,-0.04449462890625,-0.0426025390625,1.0047607421875,1.03179931640625,-4.344024658203125,3.730926513671875,1,1.0,1.0,1.0,1.0,100.00
2021-04-10 12:30:29.249,1.8077483,1.0215143,0.3382064,1.7376587,1.7576244,-0.22875087,-0.1074896,1.3556501,1.3902543,0.6447432,-0.05713503,1.175388,1.1462072,0.22105406,-0.08578466,0.7882685,0.4643652,-0.026884222,-0.4697098,0.33378226,825.2015,802.23444,799.41394,819.9634,852.1978,0.2017822265625,-0.0299072265625,0.995361328125,9.7796630859375,-11.551666259765625,-12.4713134765625,1,1.0,1.0,1.0,1.0,100.00
2021-04-10 12:30:29.755,1.8077483,1.0215143,1.0243008,1.6112624,1.7576244,-0.22875087,0.10855809,1.1573865,1.3902543,0.6447432,0.023885919,1.0519166,1.1462072,0.22105406,-0.11070802,0.82904893,0.4643652,-0.026884222,-0.44608864,0.40946248,738.1685,788.93774,817.1429,751.8681,681.3553,0.1090087890625,-0.083984375,0.99530029296875,-2.55706787109375,3.087921142578125,20.68084716796875,1,1.0,1.0,1.0,1.0,100.00
2021-04-10 12:30:29.815,,,,,,,,,,,,,,,,,,,,,,,,,,,,,,,,,,,,,,/muse/elements/blink
2021-04-10 12:30:30.264,1.8077483,1.0215143,1.0716909,1.6112624,1.7576244,-0.22875087,0.11635126,1.1573865,1.3902543,0.6447432,0.018765425,1.0519166,1.1462072,0.22105406,-0.13984728,0.82904893,0.4643652,-0.026884222,-0.43532437,0.40946248,808.2784,811.9048,802.23444,806.26373,730.9158,0.05133056640625,-0.10125732421875,0.9989013671875,3.15521240234375,-2.205657958984375,3.51409912109375,1,1.0,1.0,1.0,1.0,100.00
2021-04-10 12:30:30.747,,,,,,,,,,,,,,,,,,,,,,,,,,,,,,,,,,,,,,/muse/elements/blink
2021-04-10 12:30:30.778,1.8077483,1.0215143,1.3412676,1.6112624,1.7576244,-0.22875087,0.29594186,1.1573865,1.3902543,0.6447432,-0.029282035,1.0519166,1.1462072,0.22105406,-0.15203407,0.82904893,0.4643652,-0.026884222,-0.42023048,0.40946248,772.4176,794.17584,815.5311,768.3883,888.46155,0.02374267578125,-0.1031494140625,1.0067138671875,5.555267333984375,6.317901611328125,-9.7796630859375,1,1.0,1.0,1.0,1.0,100.00
2021-04-10 12:30:31.305,1.8077483,1.1647553,0.55453193,1.6112624,1.7576244,0.7312966,0.043099232,1.1573865,1.3902543,0.46377864,0.041875836,1.0519166,1.1462072,0.06272362,0.014703575,0.82904893,0.4643652,-0.62329054,-0.28742167,0.40946248,796.5934,811.9048,811.50183,802.23444,680.9524,-0.0142822265625,-0.068359375,1.00421142578125,5.076751708984375,-5.076751708984375,-4.583282470703125,1,2.0,1.0,1.0,2.0,100.00
2021-04-10 12:30:31.834,1.8077483,0.9694813,0.4108431,1.6112624,1.7576244,0.47982693,-0.14175673,1.1573865,1.3902543,0.480709,0.049458247,1.0519166,1.1462072,-0.00826153,-0.041794207,0.82904893,0.4643652,-0.53873014,-0.33074087,0.40946248,813.91943,800.2198,804.65204,797.8022,691.4286,-0.0968017578125,-0.065185546875,0.9915771484375,6.59454345703125,5.405731201171875,4.1571044921875,1,2.0,1.0,1.0,2.0,100.00
2021-04-10 12:30:32.357,0.45341778,0.85007536,0.34337357,0.25081068,0.5002143,0.4068511,-0.09665102,0.30650306,0.6532722,0.48927644,0.1410127,0.6125081,0.41583723,-0.06449952,0.004214424,0.6197892,-0.07307545,-0.45312953,-0.3399448,-0.08972308,829.2308,813.91943,800.6227,826.4103,705.12823,-0.07928466796875,-0.0633544921875,1.0018310546875,4.964599609375,-9.8394775390625,-1.07666015625,1,2.0,1.0,1.0,2.0,100.00
2021-04-10 12:30:32.864,0.5668605,0.47424713,0.06169102,0.8194685,0.8711205,0.36481237,-0.14473124,0.7323703,0.69959265,0.4125611,0.24159211,0.810817,0.26330522,-0.057200726,-0.009681182,0.55181515,-0.08028792,-0.32969907,-0.35995653,-0.17759448,830.4396,803.44324,806.26373,814.3223,755.09155,-0.048828125,-0.06378173828125,1.0029296875,5.33843994140625,-5.87677001953125,4.448699951171875,1,1.0,1.0,1.0,1.0,100.00
2021-04-10 12:30:33.376,0.65613306,0.28740075,-0.082814194,0.8358841,1.1635631,0.4337336,-0.0068553006,1.1137575,0.755055,0.4152419,0.316714,0.8142172,0.19292055,0.04921732,0.0028946283,0.4699863,-0.041457728,-0.17952242,-0.3606711,-0.10882573,795.78754,802.6374,797.3993,801.4286,797.3993,-0.050537109375,-0.0560302734375,1.0006103515625,6.452484130859375,-4.433746337890625,-0.231781005859375,1,1.0,1.0,1.0,1.0,100.00
2021-04-10 12:30:33.903,0.8622543,0.2722066,0.016640991,1.0296099,1.2936671,0.47081202,0.1268092,1.3188531,0.86199975,0.57712,0.3542924,0.9644013,0.0532492,0.1237015,-0.06687632,0.33487558,-0.057921506,-0.06842519,-0.4143617,-0.021483736,779.67035,801.4286,799.81683,782.8938,574.57874,-0.04461669921875,-0.02392578125,1.001708984375,5.3533935546875,-3.648681640625,2.9010009765625,1,1.0,1.0,1.0,1.0,100.00
2021-04-10 12:30:34.413,0.8648003,0.5150534,0.25190428,0.96878713,1.2435961,0.3536799,0.21428016,1.3224833,0.8727943,0.5723306,0.3295421,0.9863696,0.076486334,0.15493478,-0.07575619,0.21865277,-0.11947539,-0.05661218,-0.4579088,0.076306395,803.0403,797.8022,789.34064,803.8461,738.97437,-0.065185546875,-0.038818359375,0.99951171875,2.94586181640625,-4.29168701171875,-0.64300537109375,1,1.0,1.0,1.0,1.0,100.00
2021-04-10 12:30:34.936,0.98028356,0.60338604,0.39954278,1.0723114,0.91622216,0.2973222,0.20271264,1.0690126,0.9649155,0.58508855,0.37922746,1.0892264,0.15795828,0.1276545,-0.07735775,0.16448504,-0.2573105,-0.12922479,-0.47151816,0.040445607,835.6777,807.8755,805.05493,830.84247,830.0366,-0.05938720703125,-0.051513671875,0.997314453125,4.306640625,-4.762725830078125,-0.411224365234375,1,1.0,1.0,1.0,1.0,100.00
2021-04-10 12:30:35.465,1.006366,0.69259715,0.49076596,1.2110792,0.5724234,0.3599994,0.1063556,0.89471436,0.91957927,0.56248534,0.37394726,1.0058532,0.18872641,0.16426983,-0.050256252,0.14781107,-0.33480385,-0.18224686,-0.4059825,-0.07879477,803.8461,802.6374,802.23444,819.9634,797.8022,-0.05853271484375,-0.0439453125,0.99725341796875,6.287994384765625,-4.65057373046875,0.710296630859375,1,1.0,1.0,1.0,1.0,100.00
2021-04-10 12:30:35.993,1.0556021,0.6022219,0.41432884,1.2856572,0.5336163,0.28697935,-0.04372106,0.8576525,0.84278643,0.56248534,0.37394726,0.9261468,0.1689405,0.10742274,-0.04298987,0.23580986,-0.31132767,-0.24005681,-0.47659615,-0.22858907,822.381,793.7729,794.9817,820.7692,549.59705,-0.05023193359375,-0.031494140625,1.00091552734375,4.673004150390625,-5.3533935546875,-0.0897216796875,1,1.0,1.0,1.0,1.0,100.00
2021-04-10 12:30:36.517,1.0414445,0.46349722,0.27010524,1.3196844,0.656507,0.17318797,-0.17515895,0.94041854,0.7960191,0.55613583,0.2559607,0.711446,0.21002224,0.047947,-0.1318368,0.3286343,-0.32336184,-0.2809647,-0.5739475,-0.3385305,812.71063,796.1905,802.23444,817.5458,888.86444,-0.05340576171875,-0.03533935546875,1.00048828125,4.089813232421875,-3.955230712890625,-0.919647216796875,1,1.0,1.0,1.0,1.0,100.00
2021-04-10 12:30:36.848,,,,,,,,,,,,,,,,,,,,,,,,,,,,,,,,,,,,,,/muse/elements/blink
2021-04-10 12:30:37.020,1.0926114,0.0072740777,-0.112020954,1.2075342,0.84577894,-0.23154794,-0.31036657,1.1278658,0.9405837,0.16850871,0.09887864,1.1299804,0.4021833,-0.045208734,-0.24028638,0.5964685,-0.3013279,-0.3302564,-0.6648004,-0.24404044,788.5348,807.0696,804.2491,789.34064,792.96704,-0.06134033203125,-0.0545654296875,0.9942626953125,3.60382080078125,-3.66363525390625,-2.489776611328125,1,1.0,1.0,1.0,1.0,100.00
2021-04-10 12:30:37.535,1.2505709,-0.04108463,0.27117103,1.2638294,1.0548338,-0.17968322,-0.31276175,1.2192448,0.9405837,0.12999374,0.00665249,1.1299804,0.5722975,0.038498405,-0.3126437,0.6169052,-0.2916861,-0.37457293,-0.55677617,-0.22124091,790.14655,809.4872,796.5934,784.90845,668.46155,-0.0682373046875,-0.06097412109375,0.9931640625,4.762725830078125,-4.14215087890625,1.60003662109375,1,1.0,1.0,1.0,1.0,100.00
2021-04-10 12:30:38.063,1.3081306,0.06674689,0.29835692,1.2638294,1.1313764,-0.03892728,-0.4319564,1.2192448,0.9405837,0.12746637,-0.009651522,1.1299804,0.6446036,0.08744017,-0.16134077,0.6169052,-0.28370664,-0.37034237,-0.4045244,-0.22124091,785.7143,794.9817,812.71063,795.78754,674.10254,-0.06353759765625,-0.0477294921875,1.00274658203125,6.018829345703125,-4.269256591796875,1.62994384765625,1,1.0,1.0,1.0,1.0,100.00
2021-04-10 12:30:38.564,1.3858814,0.5087719,0.5705899,1.337887,0.9003929,0.07949334,-0.29597884,1.0999649,0.21681724,0.37655172,-0.15134995,0.4395054,0.4873788,0.1795157,0.053735908,0.44792512,-0.16378585,-0.45960036,-0.3749909,0.0048040543,795.78754,800.2198,807.47253,797.8022,708.3516,-0.06573486328125,-0.0386962890625,1.00274658203125,4.964599609375,-5.21881103515625,0.635528564453125,1,1.0,1.0,1.0,1.0,100.00
2021-04-10 12:30:39.084,1.2622977,0.6659669,0.5432466,1.1838781,0.7509656,0.14151824,-0.13468987,1.0236315,0.2812657,0.39536238,0.039250907,0.4395054,0.41310194,0.20693529,0.0830561,0.3482836,-0.21116939,-0.4005486,-0.4483692,-0.07822008,829.2308,814.7253,802.6374,822.381,780.4762,-0.0562744140625,-0.03204345703125,0.99993896484375,4.134674072265625,-4.65057373046875,-1.51031494140625,1,1.0,1.0,1.0,1.0,100.00
2021-04-10 12:30:39.602,1.2744567,0.7568665,0.6369757,1.1533993,0.7884983,0.12019828,0.0461052,0.9770505,0.6245631,0.40391392,0.11282021,0.49947312,0.31578678,0.20320503,-0.004869048,0.26764455,-0.25530344,-0.41660535,-0.49968797,-0.10463879,833.663,806.26373,801.4286,831.2454,1031.9048,-0.06201171875,-0.0369873046875,1.0067138671875,4.957122802734375,-4.553375244140625,0.897216796875,1,1.0,1.0,1.0,1.0,100.00
2021-04-10 12:30:40.108,1.1911402,0.6926951,0.45894217,1.0440782,0.8582589,0.19306672,0.091068886,1.0934247,0.67375994,0.4221669,0.113946475,0.57717514,0.212742,0.0974123,-0.25808954,0.16084984,-0.2559174,-0.38185978,-0.5525419,-0.183943,793.36993,812.3077,801.8315,793.36993,632.1978,-0.03564453125,-0.030517578125,1.00433349609375,4.77020263671875,-3.940277099609375,1.8243408203125,1,1.0,1.0,1.0,1.0,100.00
2021-04-10 12:30:40.349,,,,,,,,,,,,,,,,,,,,,,,,,,,,,,,,,,,,,,/muse/elements/blink
2021-04-10 12:30:40.613,1.2403533,0.56712204,0.32349053,1.0927569,1.00275,0.17735542,0.028065678,1.139629,0.67375994,0.494943,0.105011724,0.5855874,0.13973351,-0.010997808,-0.3310414,0.13844603,-0.22225402,-0.42117321,-0.5192956,-0.18025161,808.2784,799.011,806.6667,819.9634,777.6557,-0.04669189453125,-0.0333251953125,1.00067138671875,4.4561767578125,-3.596343994140625,0.538330078125,1,1.0,1.0,1.0,1.0,100.00
2021-04-10 12:30:41.133,1.2866534,0.47741616,0.18778609,1.0776168,1.1491823,0.15533468,-0.17081323,1.2720822,0.58470356,0.51249814,-0.047723558,0.56416726,0.17891438,0.035852317,-0.22588903,0.13834226,-0.18091275,-0.4682634,-0.59619147,-0.2708044,819.5604,805.05493,811.0989,838.49817,935.6044,-0.06103515625,-0.0447998046875,1.00048828125,4.493560791015625,-2.878570556640625,0.19439697265625,1,1.0,1.0,1.0,1.0,100.00
2021-04-10 12:30:41.641,1.2866534,0.49323788,0.1505214,1.0375044,1.1491823,0.10644059,-0.25687113,1.2464838,0.58470356,0.3945288,0.095660016,0.5514789,0.17891438,0.13036679,-0.11626257,0.16709593,-0.18091275,-0.4450871,-0.6622845,-0.26062644,738.1685,793.7729,817.9487,736.9597,739.7802,-0.1171875,-0.03863525390625,0.99383544921875,5.525360107421875,0.0897216796875,-1.069183349609375,1,1.0,1.0,1.0,1.0,100.00
2021-04-10 12:30:41.713,,,,,,,,,,,,,,,,,,,,,,,,,,,,,,,,,,,,,,/muse/elements/blink
2021-04-10 12:30:42.172,1.2866534,0.82004887,0.78668946,1.0375044,1.1491823,0.3155286,0.16850689,1.2464838,0.58470356,0.44122612,0.15717533,0.5514789,0.17891438,0.21400313,0.0130553115,0.16709593,-0.18091275,-0.42306623,-0.5347784,-0.26062644,808.2784,809.0842,804.65204,799.41394,813.1135,-0.14361572265625,-0.0438232421875,0.9915771484375,4.05242919921875,-4.3365478515625,-0.336456298828125,1,1.0,1.0,1.0,1.0,100.00
2021-04-10 12:30:42.692,1.2866534,0.908823,0.9024467,1.0375044,1.1491823,0.36527345,0.21181017,1.2464838,0.58470356,0.38099882,0.21594134,0.5514789,0.17891438,0.16281141,0.02170309,0.16709593,-0.18091275,-0.36207604,-0.48876366,-0.26062644,793.36993,785.7143,817.9487,812.3077,682.96704,-0.12493896484375,-0.05535888671875,0.99359130859375,4.5159912109375,-6.47491455078125,3.39447021484375,1,1.0,1.0,1.0,1.0,100.00
2021-04-10 12:30:43.205,1.2866534,1.1070255,1.1093025,1.0375044,1.1491823,0.34844986,0.20655966,1.2464838,0.58470356,0.38452172,0.21699779,0.5514789,0.17891438,0.008992157,0.03585211,0.16709593,-0.18091275,-0.30939415,-0.42412737,-0.26062644,792.96704,801.4286,805.8608,796.99634,803.8461,-0.106689453125,-0.05206298828125,0.99237060546875,5.375823974609375,-4.4561767578125,2.70660400390625,1,2.0,1.0,1.0,2.0,100.00
2021-04-10 12:30:43.711,1.3249692,0.85397494,0.9764887,1.282559,0.85936826,-0.01817094,-0.08475851,0.7196374,0.908825,-0.007222904,0.17401288,0.77387244,0.3120496,0.012525153,-0.008603321,0.13739176,-0.044699114,-0.29234257,-0.5238852,-0.087883055,836.4835,813.91943,806.26373,829.6337,858.24176,-0.1171875,-0.03375244140625,1.00433349609375,4.508514404296875,-4.732818603515625,0.7476806640625,1,1.0,1.0,1.0,1.0,100.00
2021-04-10 12:30:44.242,1.3549376,0.7451646,0.91299284,1.3107837,0.91170675,-0.052146617,-0.14474544,0.6850212,0.91232175,0.08626056,0.20007382,0.7828183,0.28940898,0.081380814,-0.0487052,0.13369985,-0.036605623,-0.2890806,-0.49817944,-0.119901225,810.293,803.8461,797.8022,809.4872,677.72894,-0.1043701171875,-0.03399658203125,0.9996337890625,4.822540283203125,-5.14404296875,-1.637420654296875,1,1.0,1.0,1.0,1.0,100.00
2021-04-10 12:30:44.754,1.4084903,0.18431467,0.45489112,1.3731915,0.913329,-0.26015592,-0.22201197,0.72095203,0.91298026,0.06737185,0.19761774,0.763014,0.247004,0.09799401,-0.12166797,0.17684925,-0.09680155,-0.33524814,-0.48924327,-0.1570142,867.1062,811.50183,796.1905,859.0476,900.9524,-0.1025390625,-0.04022216796875,0.99810791015625,4.14215087890625,-4.358978271484375,-0.829925537109375,1,1.0,1.0,1.0,1.0,100.00
2021-04-10 12:30:45.273,1.3489338,0.2456992,0.4219272,1.3634882,0.879015,-0.21831857,0.018398622,0.87749594,0.54398745,-0.00538339,0.38481683,0.6199384,0.14965913,-0.013462376,-0.16391648,0.13397542,-0.087923214,-0.36423868,-0.4257526,-0.07792085,813.91943,799.011,802.6374,810.293,756.30035,-0.07928466796875,-0.04840087890625,0.99920654296875,4.403839111328125,-6.35528564453125,3.22998046875,1,1.0,1.0,1.0,1.0,100.00
2021-04-10 12:30:45.801,1.3129245,0.36281475,0.33617166,1.3736819,0.84667236,-0.048733834,0.14017123,1.0356883,0.6696548,0.027104843,0.35721457,0.8217763,0.1807097,-0.08833878,-0.12145212,0.2307079,-0.1837206,-0.2853763,-0.39324445,-0.08009371,813.1135,811.9048,800.6227,806.6667,749.45056,-0.0830078125,-0.0491943359375,0.9993896484375,4.089813232421875,-3.835601806640625,1.248626708984375,1,1.0,1.0,1.0,1.0,100.00
2021-04-10 12:30:46.329,1.501765,0.41403508,0.24110648,1.435447,0.97343,0.053475086,0.15012506,1.1039122,0.8988515,0.078496166,0.35213542,0.8700321,0.391113,-0.017611966,-0.07385388,0.2654777,-0.21010727,-0.33057603,-0.31004423,-0.071741045,856.63007,796.1905,813.1135,864.2857,860.2564,-0.07659912109375,-0.0408935546875,0.9923095703125,4.418792724609375,-8.26934814453125,1.2261962890625,1,1.0,1.0,1.0,1.0,100.00
2021-04-10 12:30:46.856,1.6240363,0.29129997,0.11515575,1.5219448,1.0683192,0.03938129,0.060568426,1.2342188,0.9349751,0.081270054,0.22858265,0.9501213,0.49645665,0.031012138,-0.14078991,0.35007095,-0.3579411,-0.3851008,-0.3786464,-0.12001124,877.1795,771.6117,815.5311,881.6117,735.7509,0.146240234375,-0.06005859375,0.9888916015625,-4.598236083984375,-36.9354248046875,22.2210693359375,1,1.0,1.0,1.0,1.0,100.00
2021-04-10 12:30:47.383,1.846138,0.07896216,0.11418421,1.895724,1.6608868,-0.07542823,0.06441151,1.8473957,1.0003381,-0.030574389,0.12634347,1.2543998,0.45451942,0.07207238,-0.17399284,0.44718766,-0.20635879,-0.5490804,-0.49526176,-0.06298108,794.17584,758.71796,797.8022,798.20514,701.9048,0.24517822265625,-0.16949462890625,0.9593505859375,2.938385009765625,-0.635528564453125,5.136566162109375,1,1.0,1.0,1.0,1.0,100.00
2021-04-10 12:30:47.890,1.883624,0.032361276,0.3138062,1.931972,1.7154751,-0.16498941,0.07523792,1.9006951,0.93657863,-0.461784,0.081668906,1.2252783,0.38048542,-0.002607007,-0.14096236,0.43850058,-0.17350106,-0.53620017,-0.72466534,-0.07955463,785.7143,813.91943,801.02563,771.6117,622.52747,0.18328857421875,-0.1617431640625,0.97503662109375,6.123504638671875,-0.859832763671875,-2.400054931640625,1,1.0,1.0,1.0,1.0,100.00
2021-04-10 12:30:48.413,1.6861442,0.084359966,0.3066465,1.7409056,1.5434288,-0.1840243,0.014237601,1.7560526,0.9236658,-0.49691796,0.0015272225,1.2106116,0.4693205,0.036288317,-0.11303494,0.5699931,-0.27889273,-0.4972555,-0.79258925,0.09982164,799.81683,777.6557,802.6374,801.8315,678.5348,0.24249267578125,-0.15325927734375,0.9718017578125,3.835601806640625,-10.579681396484375,3.342132568359375,1,1.0,1.0,1.0,1.0,100.00
2021-04-10 12:30:48.945,1.0803186,0.084359966,0.1180152,0.55716205,0.76496816,-0.1840243,-0.24203232,0.6395825,0.84047496,-0.49691796,0.052189883,0.5269319,0.37611374,0.036288317,-0.16084936,0.5927384,-0.26262078,-0.4972555,-0.69920033,0.4185063,812.3077,774.0293,805.8608,813.5165,850.18317,0.2840576171875,-0.1614990234375,0.95831298828125,5.031890869140625,-6.95343017578125,-3.043060302734375,1,1.0,1.0,1.0,1.0,100.00
2021-04-10 12:30:49.447,0.63755447,0.084359966,-0.12866706,0.6234226,0.4939828,-0.1840243,-0.41112754,0.46038166,0.83089626,-0.49691796,0.11120939,0.5269319,0.23351368,0.036288317,-0.22838986,0.58637565,-0.26004586,-0.4972555,-0.69202507,0.3320813,799.011,753.47986,790.9524,813.1135,767.1795,0.41192626953125,-0.139892578125,0.90472412109375,7.43194580078125,-14.811553955078125,1.77947998046875,1,1.0,1.0,1.0,1.0,100.00
2021-04-10 12:30:49.957,0.6458365,0.084359966,-0.047284167,0.5881854,0.4686813,-0.1840243,-0.6372959,0.2906823,0.70368963,-0.49691796,0.09743217,0.7233625,0.115030065,0.036288317,-0.17743945,0.57378894,-0.18568882,-0.4972555,-0.62460434,0.3223299,805.4579,868.315,805.8608,803.0403,630.18317,0.4185791015625,-0.140625,0.8936767578125,3.36456298828125,-4.583282470703125,-1.143951416015625,1,1.0,1.0,1.0,1.0,100.00
2021-04-10 12:30:50.464,0.6018981,0.084359966,0.2753487,0.5088769,0.44348207,-0.1840243,-0.4467016,0.2409642,0.4945945,-0.49691796,0.12321271,0.7473811,0.26914096,0.036288317,3.7754767E-4,0.6742169,-0.19725974,-0.4972555,-0.63548934,0.22917223,796.1905,773.22345,800.6227,780.87915,808.68134,0.44354248046875,-0.1318359375,0.89581298828125,3.850555419921875,-5.62255859375,1.80938720703125,1,1.0,1.0,1.0,1.0,100.00
2021-04-10 12:30:50.981,0.2738647,0.084359966,0.2729236,0.3327019,0.6420207,-0.1840243,0.18744507,0.919222,0.42311612,-0.49691796,0.34928793,0.7774259,0.26954415,0.036288317,0.030127328,0.69575197,-0.2687289,-0.4972555,-0.64289194,0.33140978,801.4286,759.12085,795.78754,813.1135,814.7253,0.469970703125,-0.16766357421875,0.8782958984375,4.0374755859375,-7.46185302734375,2.7813720703125,1,1.0,1.0,1.0,1.0,100.00
2021-04-10 12:30:51.491,0.27013078,0.084359966,0.319382,0.2398409,0.73942095,-0.1840243,0.32149732,1.0851676,0.4203095,-0.49691796,0.34668753,0.8311486,0.23579134,0.036288317,0.042628933,0.70627844,-0.32619464,-0.4972555,-0.615085,0.4124449,811.9048,772.8205,807.47253,809.0842,828.022,0.48162841796875,-0.1759033203125,0.8609619140625,4.000091552734375,-4.50103759765625,1.614990234375,1,1.0,1.0,1.0,1.0,100.00
2021-04-10 12:30:52.001,0.18509042,0.084359966,0.17262274,0.29640332,0.67520916,-0.1840243,0.3010535,1.1008844,0.3334491,-0.49691796,0.32813957,0.8944194,0.1151501,0.036288317,-0.11640718,0.6105743,-0.39596137,-0.4972555,-0.63691574,0.45033467,794.9817,796.1905,802.23444,802.6374,1026.6666,0.48431396484375,-0.1649169921875,0.8612060546875,5.12908935546875,-3.94775390625,-0.04486083984375,1,1.0,1.0,1.0,1.0,100.00
2021-04-10 12:30:52.505,0.063127026,0.084359966,0.08804208,0.24312627,0.4734403,-0.1840243,-0.071353175,0.81481177,0.31670454,-0.49691796,-0.1039518,0.88082147,0.12634754,0.036288317,-0.1860781,0.5379829,-0.26414663,-0.4972555,-0.63047785,0.45674792,804.2491,784.10254,801.8315,805.4579,788.5348,0.48907470703125,-0.1614990234375,0.86712646484375,4.882354736328125,-4.702911376953125,1.39068603515625,1,1.0,1.0,1.0,1.0,100.00
2021-04-10 12:30:53.019,0.093613386,0.084359966,-0.08937992,0.20308514,0.3021873,-0.1840243,-0.53815645,0.47348565,0.2970447,-0.49691796,-0.122984804,0.8392955,0.14249818,0.036288317,-0.3301786,0.46118474,-0.2689049,-0.4972555,-0.60019284,0.41603604,823.5897,811.9048,808.68134,796.1905,736.55676,0.48382568359375,-0.1632080078125,0.86749267578125,4.299163818359375,-4.015045166015625,1.143951416015625,1,1.0,1.0,1.0,1.0,100.00
2021-04-10 12:30:53.521,0.079488575,0.084359966,-0.47239658,0.05715836,0.24513064,-0.1840243,-0.5177941,0.34233868,0.30744547,-0.49691796,-0.05621461,0.5792009,0.22373599,0.036288317,-0.35452685,0.39857677,-0.24503694,-0.4972555,-0.4409231,0.46234512,809.4872,758.315,801.4286,804.65204,689.41394,0.5,-0.175537109375,0.85968017578125,4.388885498046875,-4.2169189453125,1.62994384765625,1,1.0,1.0,1.0,1.0,100.00
2021-04-10 12:30:54.036,0.20547843,0.084359966,-0.517027,0.31720087,0.33108544,-0.1840243,-0.418989,0.4232442,0.32202664,-0.49691796,0.058038257,0.57510954,0.24710096,0.036288317,-0.1857743,0.44066855,-0.29112315,-0.4972555,-0.45804504,0.4169924,791.75824,809.0842,797.8022,809.0842,649.92676,0.480224609375,-0.18017578125,0.85546875,3.416900634765625,-3.297271728515625,-0.201873779296875,1,1.0,1.0,1.0,1.0,100.00
2021-04-10 12:30:54.565,0.46631598,0.084359966,-0.23084807,0.50207114,0.4090354,-0.1840243,-0.34760305,0.4086649,0.32275802,-0.49691796,0.13380766,0.53827757,0.18579698,0.036288317,-0.05388094,0.506389,-0.26138642,-0.4972555,-0.5161902,0.36946413,815.5311,794.9817,805.05493,801.4286,867.50916,0.48651123046875,-0.16815185546875,0.86834716796875,4.7552490234375,-7.469329833984375,0.216827392578125,1,1.0,1.0,1.0,1.0,100.00
2021-04-10 12:30:55.074,0.48469195,1.2918094,-0.06055385,0.49323475,0.42289373,0.45585892,-0.36373323,0.3538036,0.41195783,0.12320339,0.12670913,0.36802468,0.14155611,0.05363935,-0.010359514,0.5252211,-0.25624958,-0.28184226,-0.71290684,0.31972748,804.2491,816.337,807.0696,802.23444,720.4396,0.502685546875,-0.174072265625,0.85107421875,3.656158447265625,-4.837493896484375,0.10467529296875,1,1.0,1.0,1.0,1.0,100.00
2021-04-10 12:30:55.580,0.45086768,1.2918094,0.1436444,0.3070582,0.37949502,0.45585892,-0.1287987,0.2254872,0.43269464,0.12320339,0.13254885,0.36936292,0.164224,0.05363935,-0.08996032,0.54220176,-0.2845661,-0.28184226,-0.7449696,0.40602332,808.68134,770.80585,803.44324,814.3223,697.8755,0.52435302734375,-0.17144775390625,0.84332275390625,3.15521240234375,-6.766510009765625,0.082244873046875,1,1.0,1.0,1.0,1.0,100.00
2021-04-10 12:30:56.111,0.1496395,1.2918094,0.06868047,0.016025458,0.18626907,0.45585892,-0.15675376,0.09267114,0.43841016,0.12320339,-0.0016334145,0.3176903,0.18342052,0.05363935,-0.19048606,0.46110687,-0.3420525,-0.28184226,-0.8194842,0.44345483,799.011,813.1135,809.0842,807.0696,754.2857,0.52215576171875,-0.17486572265625,0.84130859375,4.448699951171875,-4.493560791015625,-0.515899658203125,1,1.0,1.0,1.0,1.0,100.00
2021-04-10 12:30:56.635,0.11012196,1.2918094,0.072443716,-0.04907683,0.15497999,0.45585892,-0.14582977,0.044101205,0.526681,0.12320339,0.1807736,0.44894037,0.10254295,0.05363935,-0.2608847,0.42225972,-0.36791408,-0.28184226,-0.7675198,0.38297763,787.72894,803.0403,802.6374,811.0989,831.2454,0.5167236328125,-0.17578125,0.83538818359375,5.18890380859375,-3.54400634765625,0.695343017578125,1,1.0,1.0,1.0,1.0,100.00
2021-04-10 12:30:57.141,0.12159602,1.2918094,0.005030235,-0.09577767,0.38213536,0.45585892,-0.40369073,0.2029505,0.6259115,0.12320339,0.19888477,0.5003456,0.14078483,0.05363935,-0.25030985,0.41130707,-0.367047,-0.28184226,-0.55902606,0.28571978,790.54944,778.86444,807.47253,811.9048,844.1392,0.528076171875,-0.1761474609375,0.8402099609375,4.6954345703125,-4.80010986328125,0.127105712890625,1,1.0,1.0,1.0,1.0,100.00
2021-04-10 12:30:57.647,0.074901365,1.2918094,-0.0017456313,-0.09516976,0.38272715,0.45585892,-0.297923,0.21728869,0.64242464,0.12320339,0.2959457,0.5497659,0.16741328,0.05363935,-0.21153304,0.45864835,-0.3274504,-0.28184226,-0.53572255,0.26292995,801.4286,811.50183,799.41394,803.0403,695.05493,0.5264892578125,-0.1724853515625,0.8387451171875,4.478607177734375,-5.480499267578125,1.547698974609375,1,1.0,1.0,1.0,1.0,100.00
2021-04-10 12:30:58.160,0.04829055,1.4335641,-0.09971006,0.090794235,0.505066,0.5613734,-0.27293146,0.22928926,0.6539851,0.38387096,0.2952453,0.6003256,0.22892784,0.11583684,-0.21976362,0.53180945,-0.3724868,-0.19741951,-0.57513845,0.28320378,800.2198,821.978,806.26373,802.6374,621.31866,0.5303955078125,-0.174072265625,0.83941650390625,4.478607177734375,-4.3963623046875,0.396270751953125,1,1.0,1.0,1.0,1.0,100.00
2021-04-10 12:30:58.668,0.41328794,1.4335641,-0.17369707,0.3787138,0.5568668,0.5613734,-0.06289179,0.18599148,0.6114095,0.38387096,0.3259402,0.71111524,0.17507754,0.11583684,-0.18078437,0.5746035,-0.3086901,-0.19741951,-0.76710457,0.2564432,803.8461,789.34064,794.57874,808.2784,894.10254,0.533935546875,-0.159912109375,0.8446044921875,4.897308349609375,-4.149627685546875,0.37384033203125,1,1.0,1.0,1.0,1.0,100.00
2021-04-10 12:30:59.183,0.7104889,1.408671,-0.17377931,0.52799034,0.64708704,0.64863694,0.00625455,0.24247262,0.6114875,0.19538409,0.07664636,0.70879495,0.1785258,0.17241329,-0.047654837,0.6241839,-0.26495546,-0.28759682,-0.54314953,0.3195266,811.50183,788.5348,805.4579,809.0842,809.0842,0.53265380859375,-0.1634521484375,0.83404541015625,4.074859619140625,-3.880462646484375,0.695343017578125,1,1.0,1.0,1.0,1.0,100.00
2021-04-10 12:30:59.701,0.72711676,1.408671,-0.21052834,0.4775833,0.507407,0.64863694,0.011519752,0.1901927,0.56475574,0.19538409,0.032351885,0.69189245,0.23910274,0.17241329,0.0055489633,0.6099811,-0.2729229,-0.28759682,-0.532714,0.3938401,811.50183,799.81683,805.4579,797.3993,711.978,0.531005859375,-0.16650390625,0.82806396484375,4.56085205078125,-4.77020263671875,0.396270751953125,1,1.0,1.0,1.0,1.0,100.00
2021-04-10 12:31:00.208,0.57908064,1.189934,-0.3483671,0.2013763,0.30954435,0.60583454,-0.1062653,0.07441575,0.5063301,0.22500958,-0.038640678,0.6053387,0.24018408,0.24619961,-0.021554986,0.56719303,-0.34650767,-0.41259634,-0.5089796,0.43521425,791.75824,769.59705,809.4872,821.1722,651.53845,0.5289306640625,-0.17523193359375,0.8323974609375,4.044952392578125,-3.147735595703125,0.471038818359375,1,1.0,1.0,1.0,1.0,100.00
2021-04-10 12:31:00.714,0.23160897,1.140002,-0.21853755,0.1728658,0.134273,0.5706713,-0.18744867,-0.016081838,0.23800708,0.046318218,-0.09284758,0.5606594,0.27837873,0.2358859,-0.1754025,0.51905555,-0.38579753,-0.40077242,-0.5310473,0.40299195,796.99634,787.326,804.65204,794.17584,710.3663,0.53265380859375,-0.1773681640625,0.82537841796875,4.658050537109375,-3.4991455078125,0.605621337890625,1,1.0,1.0,1.0,1.0,100.00
2021-04-10 12:31:01.228,0.31856602,1.140002,-0.23743424,0.40199015,0.3454997,0.5706713,-0.1708334,0.11573861,0.23134905,0.046318218,-0.16592091,0.5935668,0.21609424,0.2358859,-0.17441928,0.48846996,-0.35416323,-0.40077242,-0.49114504,0.3179264,795.78754,762.3443,805.05493,783.69965,821.978,0.54718017578125,-0.16748046875,0.83636474609375,4.246826171875,-6.377716064453125,2.1832275390625,1,1.0,1.0,1.0,1.0,100.00
2021-04-10 12:31:01.740,0.6673455,1.140002,-0.14529887,0.7958111,0.45066783,0.5706713,-0.07794604,0.36477026,0.7277101,0.046318218,0.1651103,0.6986552,0.29690155,0.2358859,-0.10794116,0.4645004,-0.33068153,-0.40077242,-0.5181538,0.27254087,813.5165,807.8755,810.293,805.8608,840.5128,0.53106689453125,-0.16412353515625,0.837158203125,4.987030029296875,-4.18701171875,-0.70281982421875,1,1.0,1.0,1.0,1.0,100.00
2021-04-10 12:31:02.257,0.89359325,1.140002,-0.23837641,0.94841766,0.5023,0.5706713,-0.1104218,0.49071124,0.7444547,0.046318218,0.24259306,0.64714223,0.2691384,0.2358859,-0.063987225,0.44377705,-0.2910686,-0.40077242,-0.6037275,0.22027569,792.96704,813.1135,801.02563,809.89014,793.7729,0.52874755859375,-0.14862060546875,0.83465576171875,4.8748779296875,-3.94775390625,0.545806884765625,1,1.0,1.0,1.0,1.0,100.00
2021-04-10 12:31:02.785,0.8876104,1.140002,-0.27414876,0.9417123,0.347827,0.5706713,-0.24105375,0.4886988,0.7444547,0.046318218,0.24259306,0.65663636,0.31456846,0.2358859,-0.16065805,0.5512743,-0.27487364,-0.40077242,-0.670743,0.32878038,803.0403,781.685,801.8315,798.20514,819.15753,0.52752685546875,-0.15887451171875,0.8294677734375,4.613189697265625,-3.222503662109375,1.637420654296875,1,1.0,1.0,1.0,1.0,100.00
2021-04-10 12:31:03.298,0.69737554,1.140002,-0.41793418,0.5641931,0.10337789,0.5706713,-0.49748284,0.27773428,0.6646798,0.046318218,0.077525236,0.51192755,0.26277533,0.2358859,-0.23953708,0.5727837,-0.14250655,-0.40077242,-0.6324554,0.31503817,801.8315,814.7253,799.011,794.17584,862.674,0.5369873046875,-0.15911865234375,0.84136962890625,4.089813232421875,-3.45428466796875,-3.072967529296875,1,1.0,1.0,1.0,1.0,100.00
2021-04-10 12:31:03.820,0.050754953,1.140002,-0.46435827,0.22988345,-0.16021092,0.5706713,-0.6554382,0.15583491,0.20813236,0.046318218,-0.36901268,0.50475526,0.23532858,0.2358859,-0.3285695,0.53633,-0.1618029,-0.40077242,-0.6829054,0.31683534,829.2308,728.9011,801.8315,807.0696,711.1722,0.55596923828125,-0.1507568359375,0.836669921875,3.446807861328125,-3.63372802734375,1.742095947265625,1,1.0,1.0,1.0,1.0,100.00
2021-04-10 12:31:04.120,,,,,,,,,,,,,,,,,,,,,,,,,,,,,,,,,,,,,,/muse/elements/blink
2021-04-10 12:31:04.348,-0.3490864,1.140002,-0.40210304,-0.16584028,-0.06702696,0.5706713,-0.56235796,0.07340687,0.0671706,0.046318218,-0.13694492,0.4120079,0.18973705,0.2358859,-0.20131212,0.4597821,-0.13082685,-0.40077242,-0.65091175,0.27377498,810.293,845.34796,807.0696,809.89014,804.2491,0.41986083984375,-0.18096923828125,0.90460205078125,2.28790283203125,21.630401611328125,-6.9085693359375,1,1.0,1.0,1.0,1.0,100.00
2021-04-10 12:31:04.722,,,,,,,,,,,,,,,,,,,,,,,,,,,,,,,,,,,,,,/muse/elements/blink
2021-04-10 12:31:04.854,-0.573687,1.140002,0.18923898,-0.13639769,0.1111757,0.5706713,0.19139679,-0.102486655,0.02072738,0.046318218,0.12862375,0.20686318,0.16503292,0.2358859,-0.17576838,0.41709054,-0.26694798,-0.40077242,-0.58870536,0.31023932,821.5751,930.3663,812.3077,817.5458,686.99634,0.13262939453125,-0.1468505859375,0.9979248046875,5.9814453125,14.5648193359375,-11.304931640625,1,1.0,1.0,1.0,1.0,100.00
2021-04-10 12:31:05.371,-0.5989629,1.140002,0.6784712,-0.048902337,0.15724665,0.5706713,0.5435194,-0.15923892,-0.009169919,0.046318218,0.3238537,-0.16766554,0.12843469,0.2358859,0.04666117,0.425497,-0.2834786,-0.40077242,-0.25240505,0.333652,821.978,913.8461,827.619,826.4103,782.0879,-0.11993408203125,-0.0439453125,0.99383544921875,12.418975830078125,15.364837646484375,-11.656341552734375,1,1.0,1.0,1.0,1.0,100.00
2021-04-10 12:31:05.657,,,,,,,,,,,,,,,,,,,,,,,,,,,,,,,,,,,,,,/muse/elements/blink
2021-04-10 12:31:05.885,-0.5989629,1.140002,0.9516824,-0.048902337,0.15724665,0.5706713,0.5670345,-0.15923892,-0.009169919,0.046318218,0.39867604,-0.16766554,0.12843469,0.2358859,0.13685,0.425497,-0.2834786,-0.40077242,-0.13096586,0.333652,819.9634,897.72894,818.3516,826.0073,861.06226,-0.228759765625,-1.220703125E-4,0.98736572265625,6.616973876953125,-1.1962890625,1.936492919921875,1,1.0,1.0,1.0,1.0,100.00
2021-04-10 12:31:06.416,1.1607486,1.140002,1.022994,-0.048902337,1.126965,0.5706713,0.459326,-0.15923892,1.0431374,0.046318218,0.41629472,-0.16766554,0.3028214,0.2358859,0.19442333,0.425497,-0.22493623,-0.40077242,-0.0072189705,0.333652,807.8755,861.06226,833.663,807.8755,734.94507,-0.21142578125,-0.0347900390625,0.9774169921875,3.028106689453125,-1.502838134765625,0.7177734375,1,1.0,1.0,1.0,1.0,100.00
2021-04-10 12:31:06.943,1.1236955,1.140002,0.9832206,-0.048902337,0.9647536,0.5706713,0.19110431,-0.15923892,1.0431374,0.046318218,0.40510738,-0.16766554,0.24610405,0.2358859,0.25214398,0.425497,-0.15223503,-0.40077242,-0.075519726,0.333652,730.9158,778.86444,831.2454,738.5714,672.0879,-0.2506103515625,0.01544189453125,0.98052978515625,7.020721435546875,-7.476806640625,12.18719482421875,1,1.0,1.0,1.0,1.0,100.00
2021-04-10 12:31:07.110,,,,,,,,,,,,,,,,,,,,,,,,,,,,,,,,,,,,,,/muse/elements/blink
2021-04-10 12:31:07.447,1.0650617,1.140002,0.9906701,-0.048902337,0.8950359,0.5706713,0.27168953,-0.15923892,1.0040288,0.046318218,0.46354198,-0.16766554,0.22667035,0.2358859,0.3148616,0.425497,-0.13222338,-0.40077242,-0.121666245,0.333652,813.5165,813.5165,794.17584,807.0696,745.82416,-0.1246337890625,0.062255859375,0.998046875,7.155303955078125,-5.555267333984375,14.93865966796875,1,1.0,1.0,1.0,1.0,100.00
2021-04-10 12:31:07.961,1.0746074,1.140002,1.1137198,-0.048902337,0.6243062,0.5706713,0.23710512,-0.15923892,0.540624,0.046318218,0.43288806,-0.16766554,0.16653547,0.2358859,0.32761177,0.425497,-0.078528665,-0.40077242,-0.2535214,0.333652,817.9487,808.2784,809.4872,805.4579,759.5238,-0.17352294921875,0.043701171875,0.98260498046875,4.7552490234375,-1.772003173828125,-4.972076416015625,1,1.0,1.0,1.0,1.0,100.00
2021-04-10 12:31:08.490,1.1457794,0.4838697,1.1124179,-0.048902337,0.6722818,-0.39825472,0.20531523,-0.15923892,0.540624,-0.17680198,0.43289396,-0.16766554,0.16825874,0.17211883,0.22901157,0.425497,-0.08050422,-0.11224189,-0.35609776,0.333652,805.4579,796.5934,808.2784,803.8461,766.3736,-0.2423095703125,0.0361328125,0.9564208984375,6.50482177734375,-2.1832275390625,-2.115936279296875,1,1.0,1.0,1.0,1.0,100.00
2021-04-10 12:31:08.997,1.1175426,0.3778392,0.9046439,-0.048902337,0.53578526,-0.31056872,-0.10745867,-0.15923892,0.3962214,0.022845197,0.3295357,-0.16766554,0.1396929,0.20394409,0.009386507,0.425497,-0.26146224,-0.17525841,-0.35628593,0.333652,772.8205,799.41394,787.326,779.2674,668.46155,-0.20379638671875,0.05865478515625,1.01611328125,5.38330078125,0.530853271484375,0.25421142578125,1,1.0,1.0,1.0,1.0,100.00
2021-04-10 12:31:09.502,1.0763265,0.59827805,0.94222134,1.12999,0.54527956,-0.026432538,-0.12574555,0.59415376,0.53118396,0.056743436,0.31503257,0.35579354,0.15527095,0.091651715,-0.053298373,0.22701365,-0.27164966,-0.21956423,-0.43073338,-0.2682837,809.0842,805.4579,801.4286,804.2491,727.6923,-0.22552490234375,0.06646728515625,0.9683837890625,3.611297607421875,-7.31231689453125,2.100982666015625,1,1.0,1.0,1.0,1.0,100.00
2021-04-10 12:31:10.017,1.01856,0.5929685,0.93022794,0.9823184,0.5249069,0.07037708,-0.16041602,0.35188878,0.5248492,0.091026776,0.31503257,0.3410408,0.16920741,0.075787105,-0.11209511,0.13837506,-0.2506139,-0.24182984,-0.46446595,-0.27301434,915.4579,780.87915,806.26373,921.9048,872.74725,-0.05572509765625,0.03369140625,1.0003662109375,-3.93280029296875,-44.48699951171875,21.600494384765625,1,1.0,1.0,1.0,1.0,100.00
2021-04-10 12:31:10.053,,,,,,,,,,,,,,,,,,,,,,,,,,,,,,,,,,,,,,/muse/elements/blink
2021-04-10 12:31:10.523,0.76223934,0.8586999,1.0071099,0.8103613,0.4343726,0.18625684,-0.18606003,0.033362564,0.47694337,0.105753355,0.2498815,0.33102533,0.22378169,-0.030444203,-0.16000056,0.088160604,-0.26157027,-0.23644342,-0.52258694,-0.31216788,821.1722,756.30035,800.2198,814.3223,760.32965,0.344482421875,-0.15118408203125,0.94464111328125,0.231781005859375,-20.015411376953125,15.290069580078125,1,1.0,1.0,1.0,1.0,100.00
2021-04-10 12:31:11.054,0.72320443,0.8286014,0.8914084,0.8148386,0.38733926,0.21113823,0.3314822,0.032998957,0.42770824,0.06420855,0.17292295,0.26231933,0.22982179,-0.003049422,-0.1380449,0.07497238,-0.24278396,-0.2019913,-0.56439596,-0.26392028,814.3223,782.49084,798.60803,816.337,743.4066,0.3258056640625,-0.1663818359375,0.913330078125,0.657958984375,-11.17034912109375,-7.499237060546875,1,1.0,1.0,1.0,1.0,100.00
2021-04-10 12:31:11.578,0.72320443,1.047087,0.8287728,0.8148386,0.38733926,0.20312311,0.39762396,0.032998957,0.42770824,0.050624616,0.10973812,0.26231933,0.22982179,0.015628444,-0.16783878,0.07497238,-0.24278396,-0.24028331,-0.58059454,-0.26392028,788.5348,775.64105,799.011,796.99634,720.4396,0.45281982421875,-0.16107177734375,0.885986328125,5.256195068359375,-4.568328857421875,0.85235595703125,1,1.0,1.0,1.0,1.0,100.00
2021-04-10 12:31:12.081,0.19508821,1.047087,0.6982015,0.4458003,0.5265312,0.20312311,0.4718782,0.12108606,0.6340577,0.050624616,0.38314843,0.41100404,0.47975558,0.015628444,-0.034900352,0.6002934,-0.23960136,-0.24028331,-0.68555605,0.24775894,827.2161,799.81683,812.71063,823.5897,792.5641,0.4581298828125,-0.17559814453125,0.87872314453125,4.605712890625,-5.09918212890625,-0.710296630859375,1,1.0,1.0,1.0,1.0,100.00
2021-04-10 12:31:12.586,0.04727966,1.047087,0.36204714,0.47362968,0.70994747,0.20312311,0.05292421,0.53866357,0.74155635,0.050624616,0.4339917,0.6284756,0.5649893,0.015628444,-0.00436689,0.6685424,-0.23486775,-0.24028331,-0.60180753,0.2878223,826.8132,784.10254,818.3516,838.49817,868.71796,0.4730224609375,-0.1749267578125,0.8795166015625,4.964599609375,-6.50482177734375,1.6748046875,1,1.0,1.0,1.0,1.0,100.00
2021-04-10 12:31:13.099,0.13447583,1.047087,0.43887419,0.55741787,1.030122,0.20312311,0.074412145,0.8104032,0.8505621,0.050624616,0.44866744,0.76659924,0.5047704,0.015628444,0.040358473,0.65274626,-0.28343245,-0.24028331,-0.5137801,0.29460737,800.2198,780.87915,799.41394,811.9048,699.0842,0.4691162109375,-0.18341064453125,0.874755859375,3.790740966796875,-7.469329833984375,1.495361328125,1,1.0,1.0,1.0,1.0,100.00
2021-04-10 12:31:13.605,0.18590048,1.4370458,0.30621034,0.57482076,1.1188492,1.0400914,-0.050901644,1.0449268,0.93964785,0.5193836,0.23855783,0.75539947,0.43139285,0.055014264,-0.055723455,0.6973278,-0.2769515,-0.44758403,-0.47839704,0.43821478,788.5348,808.68134,802.23444,790.9524,615.6777,0.46514892578125,-0.1751708984375,0.8665771484375,4.94964599609375,-5.345916748046875,1.622467041015625,1,1.0,1.0,1.0,1.0,100.00
2021-04-10 12:31:14.120,0.2126384,1.4370458,0.27386814,0.54838187,1.1303279,1.0400914,0.0010409126,1.0967275,0.9262879,0.5193836,0.11246981,0.7865051,0.2628185,0.055014264,-0.16747978,0.66249466,-0.28326586,-0.44758403,-0.49192283,0.44352838,794.9817,805.8608,805.8608,801.8315,873.5531,0.48699951171875,-0.17449951171875,0.85980224609375,3.835601806640625,-7.46185302734375,6.759033203125,1,1.0,1.0,1.0,1.0,100.00
2021-04-10 12:31:14.627,0.24352077,1.415363,-0.02849234,0.3749623,0.89749104,1.0547041,-0.033096608,0.98434323,0.8364264,0.46193278,-0.11752606,0.67364496,0.22855493,0.1109998,-0.25527078,0.6924735,-0.27488926,-0.36892906,-0.48450103,0.48015374,808.2784,826.8132,804.65204,815.5311,775.64105,0.506103515625,-0.1866455078125,0.8516845703125,3.42437744140625,-7.484283447265625,0.426177978515625,1,1.0,1.0,1.0,1.0,100.00
2021-04-10 12:31:15.147,0.24932607,1.415363,-0.30532977,0.13562648,0.68950623,1.0547041,-0.05604906,0.7552412,0.5855954,0.46193278,-0.045501992,0.65096474,0.20245439,0.1109998,-0.2791813,0.6255186,-0.21817245,-0.36892906,-0.5387327,0.37394902,796.99634,798.20514,807.0696,800.6227,654.35895,0.4971923828125,-0.18634033203125,0.85150146484375,4.972076416015625,-2.908477783203125,1.069183349609375,1,1.0,1.0,1.0,1.0,100.00
2021-04-10 12:31:15.654,0.23694764,1.415363,-0.3000281,-0.122677565,0.4928809,1.0547041,-0.035581287,0.483561,0.39390522,0.46193278,-0.13510424,0.6061271,0.13111275,0.1109998,-0.24096604,0.52867645,-0.1864205,-0.36892906,-0.6100845,0.39338666,793.7729,796.5934,800.6227,801.8315,653.5531,0.50201416015625,-0.1759033203125,0.85302734375,5.66741943359375,-4.18701171875,0.35888671875,1,1.0,1.0,1.0,1.0,100.00
2021-04-10 12:31:16.183,-0.06115021,1.415363,-0.46593517,-0.3921729,0.2560033,1.0547041,-0.06512727,0.48696423,0.29393816,0.46193278,-0.17555057,0.5347613,0.05024885,0.1109998,-0.24934891,0.37557483,-0.15016489,-0.36892906,-0.6465015,0.4328664,814.7253,799.81683,809.0842,803.0403,794.9817,0.4959716796875,-0.16424560546875,0.85784912109375,5.443115234375,-4.5159912109375,0.179443359375,1,1.0,1.0,1.0,1.0,100.00
2021-04-10 12:31:16.684,-0.17747839,0.9152368,-0.46207142,-0.27333552,0.06917214,0.47692794,-0.20791194,0.34179288,0.051095527,0.087927654,-0.2654577,0.54719406,0.0031309181,0.025490517,-0.23530726,0.33983535,-0.19484946,-0.44591382,-0.6820007,0.4953936,810.696,805.8608,797.3993,807.8755,940.4396,0.50360107421875,-0.1728515625,0.8624267578125,4.2169189453125,-3.401947021484375,-1.188812255859375,1,1.0,1.0,1.0,1.0,100.00
2021-04-10 12:31:17.204,-0.19486779,0.8718251,-0.32332045,-0.056437302,-0.01117757,0.5075515,-0.38756245,0.2240846,-0.028472738,0.21406448,-0.38631734,0.5593494,0.07917803,0.07294511,-0.18537918,0.414951,-0.24644332,-0.42585117,-0.67072594,0.48726735,795.78754,773.22345,800.6227,796.5934,712.7839,0.52093505859375,-0.1705322265625,0.85137939453125,5.211334228515625,-3.78326416015625,0.7177734375,1,1.0,1.0,1.0,1.0,100.00
2021-04-10 12:31:17.727,-0.0855895,1.0535532,-0.22551772,0.09241741,-0.11382786,0.43642387,-0.44816917,-0.14994487,0.03532434,0.26106232,-0.101658836,0.46015248,0.17450818,0.019712275,-0.15861458,0.4611733,-0.3530795,-0.44824576,-0.6173046,0.4856477,801.8315,798.60803,804.2491,796.5934,708.3516,0.50592041015625,-0.175048828125,0.84283447265625,4.388885498046875,-2.489776611328125,0.067291259765625,1,1.0,1.0,1.0,1.0,100.00
2021-04-10 12:31:18.256,0.2624291,1.1099638,-0.21131247,0.45882308,0.07697998,0.3784195,-0.34317642,-0.010163814,0.13728431,0.25116628,-0.0016572002,0.47120473,0.18639885,0.061661627,-0.11922911,0.48061243,-0.36771008,-0.41470462,-0.502812,0.40766385,796.5934,782.8938,803.0403,812.3077,777.6557,0.522216796875,-0.17279052734375,0.84503173828125,4.02252197265625,-4.269256591796875,-1.114044189453125,1,1.0,1.0,1.0,1.0,100.00
2021-04-10 12:31:18.775,0.25770006,1.0754987,-0.3071543,0.4810894,-0.042630736,0.37539315,-0.28134644,0.053087987,0.24846342,0.33467072,2.5992875E-4,0.481428,0.15095308,0.09011193,-0.10382455,0.46629092,-0.32766855,-0.40834823,-0.52551025,0.4439623,810.696,790.14655,804.2491,812.3077,778.0586,0.51031494140625,-0.18157958984375,0.84295654296875,4.613189697265625,-3.5888671875,0.01495361328125,1,1.0,1.0,1.0,1.0,100.00
2021-04-10 12:31:19.289,0.18346167,1.0147394,-0.44954282,0.39961678,-0.07141077,0.61875075,-0.33225486,0.05023946,0.24421039,0.54589564,-0.05239256,0.38727286,0.061065443,0.15064715,-0.13318467,0.4775699,-0.26213714,-0.3182254,-0.60342455,0.45929286,813.1135,817.9487,804.2491,799.81683,794.17584,0.51873779296875,-0.1685791015625,0.84674072265625,4.643096923828125,-5.151519775390625,0.381317138671875,1,1.0,1.0,1.0,1.0,100.00
