TimeStamp,Delta_TP9,Delta_AF7,Delta_AF8,Delta_TP10,Theta_TP9,Theta_AF7,Theta_AF8,Theta_TP10,Alpha_TP9,Alpha_AF7,Alpha_AF8,Alpha_TP10,Beta_TP9,Beta_AF7,Beta_AF8,Beta_TP10,Gamma_TP9,Gamma_AF7,Gamma_AF8,Gamma_TP10,RAW_TP9,RAW_AF7,RAW_AF8,RAW_TP10,AUX_RIGHT,Accelerometer_X,Accelerometer_Y,Accelerometer_Z,Gyro_X,Gyro_Y,Gyro_Z,HeadBandOn,HSI_TP9,HSI_AF7,HSI_AF8,HSI_TP10,Battery,Elements
2021-03-30 09:37:31.460,1.5809666,0.0,0.3041615,0.9843054,1.0356219,0.0,0.23092891,0.9457388,1.0673841,0.0,0.39097658,1.1980449,0.79424185,0.0,0.7242011,0.81074023,0.126565,0.0,0.09467651,0.58833295,834.0659,857.8388,842.52747,1061.7216,867.9121,-0.04180908203125,0.1297607421875,0.98779296875,1.143951416015625,-10.60211181640625,-4.987030029296875,1,2.0,1.0,1.0,2.0,85.00
2021-03-30 09:37:31.966,1.5809666,0.0,0.782206,0.9843054,1.0356219,0.0,0.37843975,0.9457388,1.0673841,0.0,0.28435108,1.1980449,0.79424185,0.0,0.69446546,0.81074023,0.126565,0.0,0.34517717,0.58833295,893.69965,731.7216,756.7033,958.5714,1074.2124,-0.00848388671875,0.0966796875,0.9967041015625,5.60760498046875,-7.19268798828125,1.054229736328125,1,2.0,1.0,1.0,2.0,85.00
2021-03-30 09:37:32.276,,,,,,,,,,,,,,,,,,,,,,,,,,,,,,,,,,,,,,/muse/elements/blink
2021-03-30 09:37:32.475,0.25843206,0.0,0.71705383,0.53160053,0.5754696,0.0,0.3784414,0.35696426,0.5860119,0.0,0.28702816,0.51045495,0.28154022,0.0,0.63340384,0.71335316,-0.10215624,0.0,0.40202552,0.5000823,786.1172,849.3773,823.9927,1085.0916,893.2967,1.220703125E-4,0.12158203125,0.9912109375,5.69732666015625,-6.878662109375,1.0467529296875,1,1.0,1.0,1.0,1.0,85.00
2021-03-30 09:37:32.984,0.25965557,0.0,0.6084651,0.428637,0.53721285,0.0,0.2812036,0.46987784,0.5860119,0.0,0.22002178,0.53053886,0.36146286,0.0,0.6455749,0.8321874,-0.18617144,0.0,0.31526357,0.4946118,854.61536,753.0769,770.80585,592.3077,698.2784,0.02740478515625,0.12249755859375,1.0,5.121612548828125,-4.643096923828125,1.7047119140625,1,1.0,1.0,1.0,1.0,85.00
2021-03-30 09:37:33.490,0.296977,0.0,0.5756129,0.5077245,0.48820162,0.0,0.28230408,0.6427134,0.706665,0.0,0.3678013,0.61076283,0.48482722,0.0,0.63095576,0.757539,-0.20783983,0.0,0.3411024,0.5065741,797.3993,716.4103,744.61536,492.38095,647.1062,0.01409912109375,0.1142578125,0.9949951171875,5.301055908203125,-4.29168701171875,1.55517578125,1,1.0,1.0,1.0,1.0,85.00
2021-03-30 09:37:33.590,,,,,,,,,,,,,,,,,,,,,,,,,,,,,,,,,,,,,,/muse/elements/blink
2021-03-30 09:37:33.995,0.3261283,0.0,0.6247349,0.5253271,0.421932,0.0,0.29063457,0.72461283,0.68560886,0.0,0.3822711,0.6763488,0.5174142,0.0,0.6422764,0.7450728,-0.1936434,0.0,0.3273376,0.5186711,760.32965,854.21246,828.4249,1043.1868,882.01465,0.00616455078125,0.12017822265625,0.99359130859375,5.001983642578125,-3.39447021484375,2.1234130859375,1,1.0,1.0,1.0,1.0,85.00
2021-03-30 09:37:34.505,0.38058326,0.0,0.65050524,0.63998175,0.41249406,0.0,0.3008506,0.7855838,0.684369,0.0,0.42045397,0.6623719,0.540049,0.0,0.6125387,0.56887746,-0.1040839,0.0,0.28803965,0.51765615,693.8461,788.5348,780.07324,661.2088,581.4286,0.0079345703125,0.11712646484375,0.99700927734375,3.6785888671875,-3.043060302734375,-0.067291259765625,1,1.0,1.0,1.0,1.0,90.00
2021-03-30 09:37:34.913,,,,,,,,,,,,,,,,,,,,,,,,,,,,,,,,,,,,,,/muse/elements/blink
2021-03-30 09:37:35.032,0.40486455,0.0,0.4076049,0.6232971,0.27955857,0.0,0.09844788,0.73498297,0.60333145,0.0,0.4203387,0.56745917,0.3798116,0.0,0.5900188,0.5008641,0.0022532914,0.0,0.22960353,0.51028943,812.71063,714.3956,741.79486,505.67764,624.5421,-0.03021240234375,0.12017822265625,0.99200439453125,6.3104248046875,-3.09539794921875,2.011260986328125,1,1.0,1.0,1.0,1.0,90.00
2021-03-30 09:37:35.543,0.40486455,0.0,0.19488637,0.6232971,0.27955857,0.0,-0.041654333,0.73498297,0.60333145,0.0,0.24238074,0.56745917,0.3798116,0.0,0.64882463,0.5008641,0.0022532914,0.0,0.22298622,0.51028943,877.98535,840.5128,809.4872,850.58606,881.6117,-0.04254150390625,0.13287353515625,1.0013427734375,5.226287841796875,-3.99261474609375,1.293487548828125,1,1.0,1.0,1.0,1.0,90.00
2021-03-30 09:37:36.107,0.40486455,0.0,0.15850358,0.6232971,0.27955857,0.0,0.0047407122,0.73498297,0.60333145,0.0,0.1468149,0.56745917,0.3798116,0.0,0.62379587,0.5008641,0.0022532914,0.0,0.3699061,0.51028943,888.86444,750.65936,768.3883,665.2381,805.4579,-0.04327392578125,0.123779296875,0.99298095703125,4.78515625,-1.951446533203125,-3.529052734375,1,1.0,1.0,1.0,1.0,90.00
2021-03-30 09:37:36.360,,,,,,,,,,,,,,,,,,,,,,,,,,,,,,,,,,,,,,/muse/elements/blink
2021-03-30 09:37:36.649,0.9263187,0.0,0.28744087,0.89647835,0.6996314,0.0,0.02903717,0.8044676,0.73618966,0.0,0.048417483,0.9752735,0.4641971,0.0,0.6518209,0.6555903,0.09216333,0.0,0.41345188,0.6755012,696.6667,799.81683,796.5934,819.5604,682.5641,-0.06170654296875,0.1556396484375,1.0118408203125,-9.084320068359375,6.975860595703125,-9.869384765625,1,1.0,1.0,1.0,1.0,90.00
2021-03-30 09:37:37.154,1.0238754,0.0,0.3377543,0.90345657,0.6829648,0.0,0.0049263453,0.81625676,0.79478925,0.0,-0.10150568,0.98220104,0.5416632,0.0,0.5704752,0.71420866,0.058082916,0.0,0.44415987,0.66462696,761.9414,831.2454,968.24176,924.7253,736.9597,-0.1220703125,0.00244140625,1.018798828125,0.6280517578125,-9.510498046875,25.308990478515625,1,1.0,1.0,1.0,1.0,90.00
2021-03-30 09:37:37.691,1.0567597,0.0,0.44654638,0.8663185,0.6181455,0.0,-0.04101129,0.73776305,0.6393727,0.0,-0.35343966,0.9154982,0.5969017,0.0,0.6510011,0.72960824,0.052275848,0.0,0.39816007,0.65975964,713.9927,747.4359,781.28204,678.5348,770.80585,0.11334228515625,0.0369873046875,0.99200439453125,1.069183349609375,-27.611846923828125,78.5662841796875,1,1.0,1.0,1.0,1.0,90.00
2021-03-30 09:37:37.724,,,,,,,,,,,,,,,,,,,,,,,,,,,,,,,,,,,,,,/muse/elements/blink
2021-03-30 09:37:38.197,1.1429728,0.0,0.44654638,0.8283776,0.57394165,0.0,-0.04101129,0.7198857,0.630441,0.0,-0.35343966,0.7082247,0.6775396,0.0,0.6510011,0.7970883,-0.022890218,0.0,0.39816007,0.66392404,793.7729,773.6264,756.7033,735.34796,705.5311,0.1793212890625,0.00579833984375,1.00054931640625,4.90478515625,-2.61688232421875,-1.323394775390625,1,1.0,1.0,1.0,1.0,90.00
2021-03-30 09:37:38.703,1.1429728,0.0,0.44654638,0.8283776,0.57394165,0.0,-0.04101129,0.7198857,0.630441,0.0,-0.35343966,0.7082247,0.6775396,0.0,0.6510011,0.7970883,-0.022890218,0.0,0.39816007,0.66392404,890.4762,791.75824,783.2967,906.99634,836.08057,0.1790771484375,-0.01983642578125,0.985595703125,4.344024658203125,-3.46923828125,-1.472930908203125,1,1.0,1.0,1.0,1.0,90.00
2021-03-30 09:37:38.940,,,,,,,,,,,,,,,,,,,,,,,,,,,,,,,,,,,,,,/muse/elements/blink
2021-03-30 09:37:39.247,1.1429728,0.0,0.36161754,0.8283776,0.57394165,0.0,0.30353004,0.7198857,0.630441,0.0,0.011575129,0.7082247,0.6775396,0.0,0.55445665,0.7970883,-0.022890218,0.0,0.37020257,0.66392404,848.1685,784.5055,802.6374,933.1868,1027.8755,0.180419921875,-0.021728515625,0.9884033203125,3.521575927734375,-8.112335205078125,-1.6448974609375,1,1.0,1.0,1.0,1.0,90.00
2021-03-30 09:37:39.787,0.8502726,0.0,0.45265496,0.35816026,0.4538745,0.0,0.23580307,0.4482114,0.7306861,0.0,0.10284843,0.5204014,0.4710957,0.0,0.5579525,0.6392601,0.062278457,0.0,0.2831122,0.4372947,715.6044,823.5897,796.99634,722.0513,659.19415,0.230712890625,0.0068359375,0.98175048828125,6.519775390625,-7.8955078125,-3.058013916015625,1,1.0,1.0,1.0,1.0,90.00
2021-03-30 09:37:40.235,,,,,,,,,,,,,,,,,,,,,,,,,,,,,,,,,,,,,,/muse/elements/blink
2021-03-30 09:37:40.331,1.0368469,0.0,0.5039082,0.3275892,0.46313947,0.0,0.22442491,0.44358665,0.74411017,0.0,0.1774805,0.5289722,0.5099965,0.0,0.6297959,0.6954266,0.07075837,0.0,0.22476925,0.3848893,696.26373,788.93774,808.2784,883.22345,774.43225,0.21484375,0.06170654296875,0.95574951171875,9.76470947265625,-4.8748779296875,-12.57598876953125,1,1.0,1.0,1.0,1.0,90.00
2021-03-30 09:37:40.782,,,,,,,,,,,,,,,,,,,,,,,,,,,,,,,,,,,,,,/muse/elements/blink
2021-03-30 09:37:40.833,1.2961816,0.0,0.73431766,0.28629324,0.77554893,0.0,0.3629537,0.3386892,0.81966364,0.0,0.27875692,0.4723283,0.54668707,0.0,0.664463,0.7258603,0.091785066,0.0,0.08142652,0.38654724,786.9231,873.95605,850.18317,974.2857,815.12823,0.269775390625,0.11053466796875,0.9759521484375,7.125396728515625,-5.203857421875,2.37762451171875,1,1.0,1.0,1.0,1.0,90.00
2021-03-30 09:37:41.344,1.4586353,0.0,0.92251444,0.26721323,0.92364436,0.0,0.63764125,0.37304932,0.8108674,0.0,0.51731205,0.3065984,0.6284421,0.0,0.66271377,0.78432584,0.11542756,0.0,0.06533412,0.30002198,745.42126,782.0879,791.75824,756.30035,740.58606,0.27325439453125,0.10528564453125,0.95611572265625,2.624359130859375,-3.820648193359375,6.95343017578125,1,1.0,1.0,1.0,1.0,90.00
2021-03-30 09:37:41.689,,,,,,,,,,,,,,,,,,,,,,,,,,,,,,,,,,,,,,/muse/elements/blink
2021-03-30 09:37:41.896,1.4586353,0.0,1.0709597,0.26721323,0.92364436,0.0,0.8342202,0.37304932,0.8108674,0.0,0.49849442,0.3065984,0.6284421,0.0,0.58726066,0.78432584,0.11542756,0.0,0.13263535,0.30002198,770.40295,762.3443,763.95605,662.4176,686.5934,0.2135009765625,0.04974365234375,0.9658203125,-1.51031494140625,-1.8243408203125,16.52374267578125,1,1.0,1.0,1.0,1.0,90.00
2021-03-30 09:37:42.410,1.4586353,0.0,1.0709597,1.7642319,0.92364436,0.0,0.8342202,1.486162,0.8108674,0.0,0.49849442,1.0325624,0.6284421,0.0,0.58726066,0.8741046,0.11542756,0.0,0.13263535,0.38454154,919.0842,791.75824,793.7729,813.1135,815.9341,0.25433349609375,-0.025390625,0.9869384765625,2.385101318359375,-7.835693359375,-0.859832763671875,1,1.0,1.0,1.0,1.0,90.00
2021-03-30 09:37:42.947,,,,,,,,,,,,,,,,,,,,,,,,,,,,,,,,,,,,,,/muse/elements/blink
2021-03-30 09:37:42.950,1.4586353,0.0,1.0709597,1.7642319,0.92364436,0.0,0.8342202,1.486162,0.8108674,0.0,0.49849442,1.0325624,0.6284421,0.0,0.58726066,0.8741046,0.11542756,0.0,0.13263535,0.38454154,776.8498,810.696,722.4542,539.12085,676.52014,0.21368408203125,0.03619384765625,0.96478271484375,13.211517333984375,-5.316009521484375,-31.32781982421875,1,1.0,1.0,1.0,1.0,90.00
2021-03-30 09:37:43.464,1.4586353,0.0,0.55338085,1.784909,0.92364436,0.0,0.22061956,1.5557184,0.8108674,0.0,0.47223002,1.0325624,0.6284421,0.0,0.4778497,0.861315,0.11542756,0.0,0.30270666,0.39047036,762.3443,823.5897,819.5604,857.4359,776.04395,0.2186279296875,0.123291015625,0.96343994140625,3.1402587890625,-1.65985107421875,-3.7982177734375,1,1.0,1.0,1.0,1.0,90.00
2021-03-30 09:37:43.991,1.4586353,0.0,0.55338085,1.784909,0.92364436,0.0,0.22061956,1.5557184,0.8108674,0.0,0.47223002,1.0325624,0.6284421,0.0,0.4778497,0.861315,0.11542756,0.0,0.30270666,0.39047036,780.07324,812.71063,814.3223,991.6117,742.6007,0.25518798828125,0.156494140625,0.98504638671875,4.20196533203125,0.1495361328125,3.409423828125,1,1.0,1.0,1.0,1.0,90.00
2021-03-30 09:37:44.340,,,,,,,,,,,,,,,,,,,,,,,,,,,,,,,,,,,,,,/muse/elements/blink
2021-03-30 09:37:44.494,1.4586353,0.0,0.6472889,1.784909,0.92364436,0.0,0.26471752,1.5557184,0.8108674,0.0,0.46440154,1.0325624,0.6284421,0.0,0.445056,0.861315,0.11542756,0.0,0.29314545,0.39047036,846.1539,752.27106,763.95605,711.5751,797.3993,0.2596435546875,0.06585693359375,0.98486328125,1.188812255859375,-10.36285400390625,29.74273681640625,1,1.0,1.0,1.0,1.0,85.00
2021-03-30 09:37:45.016,1.4586353,0.0,0.6472889,1.784909,0.92364436,0.0,0.26471752,1.5557184,0.8108674,0.0,0.46440154,1.0325624,0.6284421,0.0,0.445056,0.861315,0.11542756,0.0,0.29314545,0.39047036,883.6264,861.8681,839.304,967.03296,877.5824,0.2701416015625,0.059326171875,0.9873046875,6.3702392578125,-2.519683837890625,-9.891815185546875,1,1.0,1.0,1.0,1.0,85.00
2021-03-30 09:37:45.536,1.4586353,0.0,0.6472889,1.784909,0.92364436,0.0,0.26471752,1.5557184,0.8108674,0.0,0.46440154,1.0325624,0.6284421,0.0,0.445056,0.861315,0.11542756,0.0,0.29314545,0.39047036,774.0293,826.4103,827.619,926.7399,757.50916,0.244140625,0.108154296875,0.967041015625,6.616973876953125,-2.938385009765625,-5.30853271484375,1,2.0,1.0,1.0,2.0,85.00
2021-03-30 09:37:45.686,,,,,,,,,,,,,,,,,,,,,,,,,,,,,,,,,,,,,,/muse/elements/blink
2021-03-30 09:37:46.074,1.4586353,0.0,0.6472889,0.8712498,0.92364436,0.0,0.26471752,0.48663747,0.8108674,0.0,0.46440154,0.86569077,0.6284421,0.0,0.445056,0.8447445,0.11542756,0.0,0.29314545,0.24847116,821.5751,867.9121,833.2601,1008.5348,865.89746,0.2845458984375,0.15234375,0.9541015625,6.258087158203125,-9.084320068359375,-1.263580322265625,1,1.0,1.0,1.0,1.0,85.00
2021-03-30 09:37:46.615,1.4586353,0.0,0.43236443,1.1782131,0.92364436,0.0,0.22485685,0.6673077,0.8108674,0.0,0.18368334,0.93004864,0.6284421,0.0,0.6119811,0.86810976,0.11542756,0.0,0.0285257,0.34200945,736.1539,792.5641,858.24176,761.13556,692.6374,0.2802734375,0.18634033203125,0.9986572265625,8.7030029296875,-7.01324462890625,-10.946044921875,1,1.0,1.0,1.0,1.0,85.00
2021-03-30 09:37:47.041,,,,,,,,,,,,,,,,,,,,,,,,,,,,,,,,,,,,,,/muse/elements/blink
2021-03-30 09:37:47.161,1.4586353,0.0,0.43236443,1.2248874,0.92364436,0.0,0.22485685,0.7923324,0.8108674,0.0,0.18368334,0.85088605,0.6284421,0.0,0.6119811,0.8679332,0.11542756,0.0,0.0285257,0.35570645,823.5897,835.6777,842.9304,996.8498,834.0659,0.26055908203125,0.20849609375,0.93524169921875,3.641204833984375,-4.0972900390625,2.429962158203125,1,1.0,1.0,1.0,1.0,85.00
2021-03-30 09:37:47.675,1.4586353,0.0,0.49232087,1.4016179,0.92364436,0.0,0.22096184,1.0406271,0.8108674,0.0,-0.028539475,0.7691616,0.6284421,0.0,0.60477567,0.8434616,0.11542756,0.0,0.07434461,0.44636777,733.73627,794.57874,791.75824,635.0183,585.8608,0.23712158203125,0.19952392578125,0.97113037109375,8.725433349609375,-5.959014892578125,4.044952392578125,1,1.0,1.0,1.0,1.0,85.00
2021-03-30 09:37:48.220,1.4586353,0.0,0.751303,1.4016179,0.92364436,0.0,0.5575544,1.0406271,0.8108674,0.0,0.41764072,0.7691616,0.6284421,0.0,0.65017873,0.8434616,0.11542756,0.0,0.27629706,0.44636777,832.0513,759.5238,751.8681,678.1319,695.8608,0.24432373046875,0.0921630859375,0.95233154296875,-0.216827392578125,-8.0450439453125,30.7147216796875,1,1.0,1.0,1.0,1.0,85.00
2021-03-30 09:37:48.280,,,,,,,,,,,,,,,,,,,,,,,,,,,,,,,,,,,,,,/muse/elements/blink
2021-03-30 09:37:48.730,1.4586353,0.0,0.751303,1.4016179,0.92364436,0.0,0.5575544,1.0406271,0.8108674,0.0,0.41764072,0.7691616,0.6284421,0.0,0.65017873,0.8434616,0.11542756,0.0,0.27629706,0.44636777,725.6777,769.59705,763.1502,610.4396,636.2271,0.3369140625,0.01080322265625,0.97918701171875,3.1402587890625,-2.624359130859375,-4.658050537109375,1,1.0,1.0,1.0,1.0,85.00
2021-03-30 09:37:49.249,1.4586353,0.0,0.7645109,1.4016179,0.92364436,0.0,0.53309774,1.0406271,0.8108674,0.0,0.5617967,0.7691616,0.6284421,0.0,0.63529325,0.8434616,0.11542756,0.0,0.26873308,0.44636777,866.7033,790.9524,785.7143,805.05493,820.3663,0.39837646484375,0.0875244140625,0.97821044921875,9.82452392578125,-14.5648193359375,0.022430419921875,1,1.0,1.0,1.0,1.0,85.00
2021-03-30 09:37:49.576,,,,,,,,,,,,,,,,,,,,,,,,,,,,,,,,,,,,,,/muse/elements/blink
2021-03-30 09:37:49.756,1.3149811,0.0,0.8561522,1.1120435,1.0213944,0.0,0.5806229,1.0355935,1.0480982,0.0,0.62356275,0.9607103,0.5399319,0.0,0.470347,0.9228768,0.38531977,0.0,0.2449934,0.39733544,871.53845,821.1722,816.337,988.3883,1077.8389,0.213623046875,0.075927734375,0.9417724609375,3.6187744140625,-8.426361083984375,2.325286865234375,1,1.0,1.0,1.0,1.0,85.00
2021-03-30 09:37:50.260,1.192468,0.0,0.68104506,1.215131,0.96500456,0.0,0.41524598,0.8931048,0.94880867,0.0,0.6315898,0.9624273,0.5216155,0.0,0.4703354,0.830723,0.46056274,0.0,0.16767651,0.35124344,778.86444,762.3443,767.5824,660.80585,703.5165,0.20220947265625,0.059814453125,0.9609375,1.801910400390625,1.89910888671875,5.854339599609375,1,1.0,1.0,1.0,1.0,85.00
2021-03-30 09:37:50.798,1.0742085,0.0,0.8179036,1.2662544,0.831891,0.0,0.39084858,0.8085558,1.0268403,0.0,0.668371,0.939997,0.47808045,0.0,0.48691586,0.79946524,0.40662852,0.0,0.08833114,0.31721556,664.83514,772.4176,734.1392,542.74725,658.7912,0.2547607421875,0.0926513671875,0.93994140625,13.47320556640625,-1.42059326171875,-47.62725830078125,1,1.0,1.0,1.0,1.0,85.00
2021-03-30 09:37:51.062,,,,,,,,,,,,,,,,,,,,,,,,,,,,,,,,,,,,,,/muse/elements/blink
2021-03-30 09:37:51.310,0.40917253,0.0,0.82913214,1.2808571,0.43658227,0.0,0.2352094,0.6088345,0.74241936,0.0,0.5761899,0.5549152,0.39199606,0.0,0.5250536,0.6806233,0.072990656,0.0,-0.07741414,0.2753355,861.8681,798.60803,785.7143,725.6777,623.73627,0.26165771484375,0.17950439453125,0.9688720703125,3.12530517578125,-12.852630615234375,14.25079345703125,1,1.0,1.0,1.0,1.0,85.00
2021-03-30 09:37:51.858,0.40917253,0.0,1.089948,1.2808571,0.43658227,0.0,0.44310662,0.6088345,0.74241936,0.0,0.5761676,0.5549152,0.39199606,0.0,0.5622063,0.6806233,0.072990656,0.0,-0.082362324,0.2753355,872.3443,850.58606,821.978,944.0659,853.8095,0.30487060546875,0.04986572265625,0.96209716796875,6.34033203125,-5.63751220703125,2.0037841796875,1,1.0,1.0,1.0,1.0,85.00
2021-03-30 09:37:52.402,0.40917253,0.0,1.089948,1.2808571,0.43658227,0.0,0.44310662,0.6088345,0.74241936,0.0,0.5761676,0.5549152,0.39199606,0.0,0.5622063,0.6806233,0.072990656,0.0,-0.082362324,0.2753355,883.6264,818.7546,799.41394,888.86444,790.9524,0.302734375,0.0537109375,0.9483642578125,3.00567626953125,-3.33465576171875,-8.11981201171875,1,1.0,1.0,1.0,1.0,85.00
2021-03-30 09:37:52.462,,,,,,,,,,,,,,,,,,,,,,,,,,,,,,,,,,,,,,/muse/elements/blink
2021-03-30 09:37:52.955,0.40917253,0.0,1.089948,1.2808571,0.43658227,0.0,0.44310662,0.6088345,0.74241936,0.0,0.5761676,0.5549152,0.39199606,0.0,0.5622063,0.6806233,0.072990656,0.0,-0.082362324,0.2753355,842.52747,774.0293,793.36993,748.24176,759.12085,0.34271240234375,0.1781005859375,0.97857666015625,13.7274169921875,-12.2918701171875,-22.288360595703125,1,1.0,1.0,1.0,1.0,85.00
2021-03-30 09:37:53.477,0.40917253,0.0,1.089948,1.2808571,0.43658227,0.0,0.44310662,0.6088345,0.74241936,0.0,0.5761676,0.5549152,0.39199606,0.0,0.5622063,0.6806233,0.072990656,0.0,-0.082362324,0.2753355,865.89746,843.73627,828.4249,948.0952,907.8022,0.322265625,0.224853515625,0.9547119140625,3.028106689453125,-5.30853271484375,14.901275634765625,1,2.0,1.0,1.0,2.0,85.00
2021-03-30 09:37:53.827,,,,,,,,,,,,,,,,,,,,,,,,,,,,,,,,,,,,,,/muse/elements/blink
2021-03-30 09:37:53.987,0.40917253,0.0,0.6716485,1.2808571,0.43658227,0.0,0.30006602,0.6088345,0.74241936,0.0,0.37166077,0.5549152,0.39199606,0.0,0.51482505,0.6806233,0.072990656,0.0,0.14664356,0.2753355,755.4945,833.2601,832.4542,868.315,684.57874,0.2796630859375,0.14764404296875,0.90667724609375,-2.998199462890625,0.800018310546875,30.497894287109375,1,2.0,1.0,1.0,2.0,85.00
2021-03-30 09:37:54.531,0.40917253,0.0,0.6188647,1.2808571,0.43658227,0.0,0.21157122,0.6088345,0.74241936,0.0,-0.14492814,0.5549152,0.39199606,0.0,0.5480363,0.6806233,0.072990656,0.0,0.20516153,0.2753355,904.17584,794.57874,820.3663,885.2381,913.44324,0.15008544921875,0.0057373046875,0.96258544921875,0.1495361328125,-3.87298583984375,3.745880126953125,1,2.0,1.0,1.0,2.0,85.00
2021-03-30 09:37:55.051,0.40917253,0.0,0.6188647,1.2808571,0.43658227,0.0,0.21157122,0.6088345,0.74241936,0.0,-0.14492814,0.5549152,0.39199606,0.0,0.5480363,0.6806233,0.072990656,0.0,0.20516153,0.2753355,614.0659,804.2491,797.3993,610.4396,621.31866,0.4246826171875,-0.06927490234375,0.9129638671875,8.553466796875,-22.05657958984375,-4.942169189453125,1,2.0,1.0,1.0,2.0,90.00
2021-03-30 09:37:55.289,,,,,,,,,,,,,,,,,,,,,,,,,,,,,,,,,,,,,,/muse/elements/blink
2021-03-30 09:37:55.585,0.40917253,0.0,0.6188647,1.2808571,0.43658227,0.0,0.21157122,0.6088345,0.74241936,0.0,-0.14492814,0.5549152,0.39199606,0.0,0.5480363,0.6806233,0.072990656,0.0,0.20516153,0.2753355,769.19415,778.46155,782.8938,651.53845,707.9487,0.2998046875,0.12066650390625,0.9296875,3.865509033203125,-4.366455078125,-18.191070556640625,1,2.0,1.0,1.0,2.0,90.00
2021-03-30 09:37:56.092,0.40917253,0.0,0.6188647,1.2808571,0.43658227,0.0,0.21157122,0.6088345,0.74241936,0.0,-0.14492814,0.5549152,0.39199606,0.0,0.5480363,0.6806233,0.072990656,0.0,0.20516153,0.2753355,879.19415,781.28204,798.20514,845.7509,806.6667,0.32281494140625,0.13336181640625,0.9166259765625,5.1739501953125,-2.3028564453125,-2.564544677734375,1,2.0,1.0,1.0,2.0,90.00
2021-03-30 09:37:56.545,,,,,,,,,,,,,,,,,,,,,,,,,,,,,,,,,,,,,,/muse/elements/blink
2021-03-30 09:37:56.634,0.40917253,0.0,0.6188647,1.2808571,0.43658227,0.0,0.21157122,0.6088345,0.74241936,0.0,-0.14492814,0.5549152,0.39199606,0.0,0.5480363,0.6806233,0.072990656,0.0,0.20516153,0.2753355,832.8571,871.53845,829.6337,911.02563,766.3736,0.38836669921875,-0.01361083984375,0.9439697265625,-3.529052734375,-3.15521240234375,-7.349700927734375,1,2.0,1.0,1.0,2.0,90.00
2021-03-30 09:37:57.174,0.40917253,0.0,0.6188647,1.2808571,0.43658227,0.0,0.21157122,0.6088345,0.74241936,0.0,-0.14492814,0.5549152,0.39199606,0.0,0.5480363,0.6806233,0.072990656,0.0,0.20516153,0.2753355,867.50916,819.9634,812.71063,926.337,871.9414,0.285400390625,0.1217041015625,0.9437255859375,7.5067138671875,-3.0206298828125,-5.151519775390625,1,2.0,1.0,1.0,2.0,90.00
2021-03-30 09:37:57.681,0.40917253,0.0,0.6188647,1.2808571,0.43658227,0.0,0.21157122,0.6088345,0.74241936,0.0,-0.14492814,0.5549152,0.39199606,0.0,0.5480363,0.6806233,0.072990656,0.0,0.20516153,0.2753355,705.9341,834.4689,824.7985,882.4176,803.44324,0.3087158203125,0.17083740234375,0.936767578125,8.306732177734375,-7.25250244140625,-3.42437744140625,1,2.0,1.0,1.0,2.0,90.00
2021-03-30 09:37:57.827,,,,,,,,,,,,,,,,,,,,,,,,,,,,,,,,,,,,,,/muse/elements/blink
2021-03-30 09:37:58.185,0.40917253,0.0,0.6188647,1.2808571,0.43658227,0.0,0.21157122,0.6088345,0.74241936,0.0,-0.14492814,0.5549152,0.39199606,0.0,0.5480363,0.6806233,0.072990656,0.0,0.20516153,0.2753355,729.707,853.4066,834.0659,701.0989,636.63007,0.30743408203125,0.18756103515625,0.91455078125,10.2880859375,-4.089813232421875,5.2935791015625,1,2.0,1.0,1.0,2.0,90.00
2021-03-30 09:37:58.697,1.4848818,0.0,0.6188647,1.2031213,1.1120279,0.0,0.21157122,0.9566798,1.0426694,0.0,-0.14492814,0.98139954,0.95893836,0.0,0.5480363,0.87125885,0.44556046,0.0,0.20516153,0.53220975,821.1722,786.1172,772.8205,921.9048,1055.6776,0.27642822265625,0.22125244140625,0.93597412109375,7.61138916015625,-10.0189208984375,-0.3887939453125,1,1.0,1.0,1.0,1.0,90.00
2021-03-30 09:37:58.951,,,,,,,,,,,,,,,,,,,,,,,,,,,,,,,,,,,,,,/muse/elements/blink
2021-03-30 09:37:59.223,,,,,,,,,,,,,,,,,,,,,,,,,,,,,,,,,,,,,,/muse/elements/blink
2021-03-30 09:37:59.227,1.4848818,0.0,0.6188647,1.2031213,1.1120279,0.0,0.21157122,0.9566798,1.0426694,0.0,-0.14492814,0.98139954,0.95893836,0.0,0.5480363,0.87125885,0.44556046,0.0,0.20516153,0.53220975,900.14655,821.1722,811.9048,869.5238,867.9121,0.275390625,0.17388916015625,0.94293212890625,3.835601806640625,-1.667327880859375,2.205657958984375,1,1.0,1.0,1.0,1.0,90.00
2021-03-30 09:37:59.766,1.515162,0.0,0.6188647,1.3021897,1.1290008,0.0,0.21157122,0.7966356,1.0214168,0.0,-0.14492814,0.85769475,0.9069309,0.0,0.5480363,0.76422006,0.41428086,0.0,0.20516153,0.53872204,887.25275,768.7912,774.83514,782.8938,851.79486,0.26593017578125,0.07586669921875,0.9373779296875,-9.88433837890625,7.020721435546875,62.648162841796875,1,1.0,1.0,1.0,1.0,90.00
2021-03-30 09:38:00.300,1.515162,0.0,0.6188647,1.3021897,1.1290008,0.0,0.21157122,0.7966356,1.0214168,0.0,-0.14492814,0.85769475,0.9069309,0.0,0.5480363,0.76422006,0.41428086,0.0,0.20516153,0.53872204,846.1539,852.6007,809.4872,926.337,1043.5897,0.329345703125,-0.0194091796875,1.00006103515625,4.66552734375,-8.41888427734375,-6.945953369140625,1,1.0,1.0,1.0,1.0,90.00
2021-03-30 09:38:00.550,,,,,,,,,,,,,,,,,,,,,,,,,,,,,,,,,,,,,,/muse/elements/blink
2021-03-30 09:38:00.838,1.515162,0.0,0.6188647,1.3021897,1.1290008,0.0,0.21157122,0.7966356,1.0214168,0.0,-0.14492814,0.85769475,0.9069309,0.0,0.5480363,0.76422006,0.41428086,0.0,0.20516153,0.53872204,694.65204,830.84247,809.4872,817.5458,775.2381,0.34576416015625,0.13604736328125,0.96343994140625,16.14990234375,-12.66571044921875,-13.9068603515625,1,1.0,1.0,1.0,1.0,90.00
2021-03-30 09:38:01.375,1.515162,0.0,1.0891762,1.3021897,1.1290008,0.0,0.7843823,0.7966356,1.0214168,0.0,0.53186774,0.85769475,0.9069309,0.0,0.57970273,0.76422006,0.41428086,0.0,5.005098E-4,0.53872204,800.6227,823.9927,821.5751,942.4542,894.5055,0.30499267578125,0.18487548828125,0.94024658203125,3.043060302734375,-1.95892333984375,6.258087158203125,1,2.0,1.0,1.0,2.0,90.00
2021-03-30 09:38:01.822,,,,,,,,,,,,,,,,,,,,,,,,,,,,,,,,,,,,,,/muse/elements/blink
2021-03-30 09:38:01.883,1.515162,0.0,0.9197306,1.3021897,1.1290008,0.0,0.628222,0.7966356,1.0214168,0.0,0.53186774,0.85769475,0.9069309,0.0,0.54069936,0.76422006,0.41428086,0.0,0.02096713,0.53872204,724.0659,826.4103,801.4286,718.022,678.1319,0.32061767578125,0.18487548828125,0.96075439453125,3.45428466796875,4.53094482421875,3.192596435546875,1,2.0,1.0,1.0,2.0,90.00
2021-03-30 09:38:02.403,1.515162,0.0,0.87655324,1.3021897,1.1290008,0.0,0.59307367,0.7966356,1.0214168,0.0,0.53186774,0.85769475,0.9069309,0.0,0.4901247,0.76422006,0.41428086,0.0,-0.010172095,0.53872204,705.12823,786.1172,816.337,614.87177,731.7216,0.28094482421875,0.147216796875,0.9981689453125,6.280517578125,-7.22259521484375,-39.903717041015625,1,2.0,1.0,1.0,2.0,90.00
2021-03-30 09:38:02.912,1.515162,0.0,0.7117253,1.3021897,1.1290008,0.0,0.45236498,0.7966356,1.0214168,0.0,0.1889329,0.85769475,0.9069309,0.0,0.43729517,0.76422006,0.41428086,0.0,-0.01560839,0.53872204,772.01465,822.381,817.5458,940.4396,906.5934,0.2545166015625,0.207763671875,0.94683837890625,7.514190673828125,-11.746063232421875,3.252410888671875,1,2.0,1.0,1.0,2.0,90.00
2021-03-30 09:38:03.350,,,,,,,,,,,,,,,,,,,,,,,,,,,,,,,,,,,,,,/muse/elements/blink
2021-03-30 09:38:03.433,1.515162,0.0,0.7746973,1.3021897,1.1290008,0.0,0.5128867,0.7966356,1.0214168,0.0,5.502797E-4,0.85769475,0.9069309,0.0,0.36691505,0.76422006,0.41428086,0.0,-0.080072895,0.53872204,815.5311,825.6044,827.619,992.8205,837.28937,0.25091552734375,0.1771240234375,0.9410400390625,3.21502685546875,1.016845703125,2.67669677734375,1,2.0,1.0,1.0,2.0,90.00
2021-03-30 09:38:03.977,1.515162,0.0,0.7238701,1.3021897,1.1290008,0.0,0.4765888,0.7966356,1.0214168,0.0,-0.11954529,0.85769475,0.9069309,0.0,0.3590706,0.76422006,0.41428086,0.0,-0.1012642,0.53872204,886.04395,753.8828,763.95605,738.97437,668.0586,0.26763916015625,0.18304443359375,0.86883544921875,0.964508056640625,2.691650390625,-0.590667724609375,1,2.0,1.0,1.0,2.0,90.00
2021-03-30 09:38:04.049,,,,,,,,,,,,,,,,,,,,,,,,,,,,,,,,,,,,,,/muse/elements/blink
2021-03-30 09:38:04.482,1.515162,0.0,0.7709809,1.3021897,1.1290008,0.0,0.6737413,0.7966356,1.0214168,0.0,0.76193786,0.85769475,0.9069309,0.0,0.42326507,0.76422006,0.41428086,0.0,0.048422538,0.53872204,771.6117,815.12823,790.54944,597.9487,615.6777,0.3004150390625,0.1834716796875,0.97235107421875,3.529052734375,-0.949554443359375,-1.816864013671875,1,2.0,1.0,1.0,2.0,90.00
2021-03-30 09:38:04.535,,,,,,,,,,,,,,,,,,,,,,,,,,,,,,,,,,,,,,/muse/elements/blink
2021-03-30 09:38:04.700,,,,,,,,,,,,,,,,,,,,,,,,,,,,,,,,,,,,,,/muse/elements/blink
2021-03-30 09:38:05.027,1.515162,0.0,0.7823949,1.3021897,1.1290008,0.0,0.62579286,0.7966356,1.0214168,0.0,0.76193786,0.85769475,0.9069309,0.0,0.38954884,0.76422006,0.41428086,0.0,0.0070676142,0.53872204,902.96704,765.16486,784.10254,755.09155,790.54944,0.26806640625,0.18798828125,0.92596435546875,7.476806640625,-7.843170166015625,1.8243408203125,1,2.0,1.0,1.0,2.0,90.00
2021-03-30 09:38:05.532,1.515162,0.0,0.8521842,1.3021897,1.1290008,0.0,0.67943096,0.7966356,1.0214168,0.0,0.7566897,0.85769475,0.9069309,0.0,0.3297506,0.76422006,0.41428086,0.0,0.011272249,0.53872204,844.94507,822.381,805.05493,965.42126,857.8388,0.2679443359375,0.20404052734375,0.93621826171875,6.228179931640625,1.016845703125,3.162689208984375,1,2.0,1.0,1.0,2.0,90.00
2021-03-30 09:38:06.021,,,,,,,,,,,,,,,,,,,,,,,,,,,,,,,,,,,,,,/muse/elements/blink
2021-03-30 09:38:06.055,1.515162,0.0,0.7149733,1.3021897,1.1290008,0.0,0.43698207,0.7966356,1.0214168,0.0,0.2920373,0.85769475,0.9069309,0.0,0.22911829,0.76422006,0.41428086,0.0,-0.0068237847,0.53872204,724.87177,832.0513,808.68134,861.06226,733.73627,0.2515869140625,0.18646240234375,0.943359375,6.69921875,-12.66571044921875,-2.0037841796875,1,2.0,1.0,1.0,2.0,90.00
2021-03-30 09:38:06.569,1.2174288,0.0,0.5732084,1.063405,0.79767,0.0,0.2258829,0.77722555,1.0198648,0.0,0.45110145,0.9397312,0.8946601,0.0,0.21994509,0.6403229,0.43079624,0.0,-0.04968314,0.0520097,759.12085,774.0293,787.72894,669.67035,627.3626,0.2183837890625,0.1611328125,0.95599365234375,7.947845458984375,-8.50860595703125,1.95892333984375,1,1.0,1.0,1.0,1.0,90.00
2021-03-30 09:38:07.093,1.2787198,0.0,0.61092854,1.1886712,0.92338777,0.0,0.059896298,1.0053973,1.12132,0.0,0.42892608,1.0543075,0.8035191,0.0,0.33048856,0.64223504,0.4652303,0.0,-0.051449597,0.27818388,740.58606,799.011,802.23444,765.9707,635.0183,0.24652099609375,0.15582275390625,0.93670654296875,7.34222412109375,-2.459869384765625,4.403839111328125,1,1.0,1.0,1.0,1.0,90.00
2021-03-30 09:38:07.485,,,,,,,,,,,,,,,,,,,,,,,,,,,,,,,,,,,,,,/muse/elements/blink
2021-03-30 09:38:07.637,1.2801766,0.0,0.73730034,1.2645056,0.92677814,0.0,0.17912558,1.0607026,1.12132,0.0,0.47502017,1.1553246,0.78887695,0.0,0.42323473,0.73796135,0.48098373,0.0,-0.02332607,0.32598692,0.0,1625.4213,1182.1978,395.27472,634.21246,0.23712158203125,0.18408203125,1.0924072265625,-6.572113037109375,50.700225830078125,13.540496826171875,1,1.0,1.0,1.0,1.0,90.00
2021-03-30 09:38:07.865,,,,,,,,,,,,,,,,,,,,,,,,,,,,,,,,,,,,,,/muse/elements/blink
2021-03-30 09:38:08.167,1.3424082,0.0,0.815174,1.338809,1.0378696,0.0,0.23047164,1.1683344,1.1092589,0.0,0.47340205,1.1387438,0.6607272,0.0,0.4678895,0.7906911,0.5032424,0.0,0.045777105,0.4120558,916.26373,466.5934,779.2674,813.91943,844.5421,0.1990966796875,-0.00335693359375,0.93231201171875,-6.1907958984375,-14.213409423828125,-1.861724853515625,1,1.0,1.0,1.0,1.0,90.00
2021-03-30 09:38:08.680,1.243714,0.0,0.76627713,1.3500762,0.96459264,0.0,0.10531959,1.1185008,1.0599338,0.0,0.3786359,1.1117035,0.5901678,0.0,0.4537662,0.8995439,0.45560828,0.0,0.02928924,0.32474428,795.78754,750.65936,818.3516,924.7253,836.08057,0.27459716796875,0.00274658203125,0.9605712890625,17.488250732421875,-14.1461181640625,-36.554107666015625,1,1.0,1.0,1.0,1.0,90.00
2021-03-30 09:38:08.747,,,,,,,,,,,,,,,,,,,,,,,,,,,,,,,,,,,,,,/muse/elements/blink
2021-03-30 09:38:09.222,1.243714,0.0,0.80134606,1.3500762,0.96459264,0.0,0.12395252,1.1185008,1.0599338,0.0,0.3733653,1.1117035,0.5901678,0.0,0.4628564,0.8995439,0.45560828,0.0,0.024127398,0.32474428,736.55676,724.0659,788.1319,796.99634,759.5238,0.3021240234375,0.0269775390625,0.9813232421875,9.742279052734375,-5.944061279296875,-10.310516357421875,1,1.0,1.0,1.0,1.0,90.00
2021-03-30 09:38:09.730,1.243714,0.0,0.548295,1.3500762,0.96459264,0.0,0.5563264,1.1185008,1.0599338,0.0,0.65518874,1.1117035,0.5901678,0.0,0.38216177,0.8995439,0.45560828,0.0,-0.21239656,0.32474428,736.55676,780.4762,816.7399,877.5824,759.5238,0.2578125,0.08111572265625,0.93524169921875,8.037567138671875,-5.854339599609375,0.0897216796875,1,1.0,1.0,1.0,1.0,90.00
2021-03-30 09:38:09.957,,,,,,,,,,,,,,,,,,,,,,,,,,,,,,,,,,,,,,/muse/elements/blink
2021-03-30 09:38:10.186,,,,,,,,,,,,,,,,,,,,,,,,,,,,,,,,,,,,,,/muse/elements/blink
2021-03-30 09:38:10.235,1.243714,0.0,0.5005623,1.3245701,0.96459264,0.0,0.34508532,0.6909243,1.0599338,0.0,0.66307503,0.6869812,0.5901678,0.0,0.38046154,0.8643164,0.45560828,0.0,-0.05847229,0.5125477,720.0366,743.00366,799.81683,734.5421,657.1795,0.279541015625,0.1044921875,1.004638671875,7.5665283203125,-11.775970458984375,8.5833740234375,1,2.0,1.0,1.0,2.0,90.00
2021-03-30 09:38:10.779,1.243714,0.0,0.400849,1.3545593,0.96459264,0.0,0.20791066,0.7748758,1.0599338,0.0,0.5191106,0.79223657,0.5901678,0.0,0.42928565,0.9744856,0.45560828,0.0,0.04943322,0.44938573,829.2308,730.5128,779.2674,690.2198,839.304,0.2919921875,0.100830078125,0.9501953125,2.91595458984375,-5.203857421875,-3.0206298828125,1,1.0,1.0,1.0,1.0,90.00
2021-03-30 09:38:11.296,1.3304039,0.0,0.40238553,1.4119649,1.0803422,0.0,0.048417497,0.96032494,1.2283463,0.0,0.5711619,1.147894,0.89790016,0.0,0.42091554,0.8628411,0.45595175,0.0,0.08120117,0.34260353,728.0952,764.7619,782.0879,621.31866,623.3333,0.3792724609375,0.1500244140625,0.9718017578125,7.85064697265625,-16.97235107421875,3.3197021484375,1,1.0,1.0,1.0,1.0,90.00
2021-03-30 09:38:11.389,,,,,,,,,,,,,,,,,,,,,,,,,,,,,,,,,,,,,,/muse/elements/blink
2021-03-30 09:38:11.857,1.3304039,0.0,0.30927375,1.3603833,1.0803422,0.0,0.08414257,1.1166835,1.2283463,0.0,0.5711619,1.2315532,0.89790016,0.0,0.39162275,0.8135416,0.45595175,0.0,-0.038100462,0.3707785,861.06226,736.9597,779.67035,741.79486,808.2784,0.2923583984375,0.17572021484375,0.95074462890625,6.452484130859375,-6.183319091796875,-3.349609375,1,1.0,1.0,1.0,1.0,90.00
2021-03-30 09:38:12.404,1.4950478,0.0,0.2879431,1.2834067,0.8872513,0.0,0.07057432,1.319246,1.2145565,0.0,0.5770939,1.3395554,0.79801136,0.0,0.4036649,0.6297868,0.42419386,0.0,-0.18546444,0.33683962,832.8571,811.0989,805.05493,899.34064,894.90845,0.29205322265625,0.1783447265625,0.93408203125,6.243133544921875,-6.153411865234375,3.760833740234375,1,1.0,1.0,1.0,1.0,90.00
2021-03-30 09:38:12.606,,,,,,,,,,,,,,,,,,,,,,,,,,,,,,,,,,,,,,/muse/elements/blink
2021-03-30 09:38:12.876,,,,,,,,,,,,,,,,,,,,,,,,,,,,,,,,,,,,,,/muse/elements/blink
2021-03-30 09:38:12.959,1.476381,0.0,8.425275E-4,1.0268537,0.95858216,0.0,0.12127781,1.3230076,1.1509902,0.0,0.3874966,1.276949,0.674789,0.0,0.42868748,0.6881285,0.38736385,0.0,-0.17825468,0.33050042,820.3663,764.35895,778.0586,649.5238,685.38464,0.35662841796875,0.22607421875,1.02886962890625,5.988922119140625,-10.086212158203125,16.650848388671875,1,1.0,1.0,1.0,1.0,90.00
2021-03-30 09:38:13.462,1.476381,0.0,0.3415,1.1275438,0.95858216,0.0,0.43675384,1.137502,1.1509902,0.0,0.4888319,1.270509,0.674789,0.0,0.48109385,0.74487954,0.38736385,0.0,-0.1107029,0.24622813,820.3663,960.18317,814.3223,777.25275,758.315,0.2657470703125,0.181884765625,0.93597412109375,5.1739501953125,-3.96270751953125,4.388885498046875,1,1.0,1.0,1.0,1.0,90.00
2021-03-30 09:38:13.964,,,,,,,,,,,,,,,,,,,,,,,,,,,,,,,,,,,,,,/muse/elements/blink
2021-03-30 09:38:13.968,1.4236668,0.0,0.6806723,1.1157712,0.86685276,0.0,0.5049224,0.661789,1.0105304,0.0,0.39496583,0.9719601,0.6511594,0.0,0.45689753,0.8035946,0.31166357,0.0,-0.13292404,0.18244264,625.7509,867.1062,819.15753,672.8938,704.3223,0.35009765625,0.19287109375,0.9276123046875,5.046844482421875,-5.600128173828125,5.031890869140625,1,1.0,1.0,1.0,1.0,90.00
2021-03-30 09:38:14.489,1.4236668,0.0,0.9725396,1.1157712,0.86685276,0.0,0.5252759,0.661789,1.0105304,0.0,0.52265924,0.9719601,0.6511594,0.0,0.44061187,0.8035946,0.31166357,0.0,-0.14795238,0.18244264,770.80585,800.6227,809.4872,857.03296,882.01465,0.29937744140625,0.16485595703125,0.95660400390625,4.44122314453125,-17.645263671875,3.102874755859375,1,1.0,1.0,1.0,1.0,90.00
2021-03-30 09:38:15.002,1.4236668,0.0,1.0042487,1.1157712,0.86685276,0.0,0.35689992,0.661789,1.0105304,0.0,0.4299411,0.9719601,0.6511594,0.0,0.3893855,0.8035946,0.31166357,0.0,-0.2302073,0.18244264,881.2088,782.8938,801.4286,778.46155,832.8571,0.317138671875,0.145751953125,0.87701416015625,7.67120361328125,-7.080535888671875,4.964599609375,1,1.0,1.0,1.0,1.0,90.00
2021-03-30 09:38:15.516,1.4236668,0.0,0.8587956,1.1157712,0.86685276,0.0,0.20982692,0.661789,1.0105304,0.0,0.39408198,0.9719601,0.6511594,0.0,0.37551963,0.8035946,0.31166357,0.0,-0.15880175,0.18244264,854.21246,839.707,825.2015,920.293,840.10986,0.35406494140625,0.1893310546875,0.893310546875,7.4468994140625,-4.089813232421875,6.093597412109375,1,2.0,1.0,1.0,2.0,85.00
2021-03-30 09:38:16.060,1.4236668,0.6326862,0.38963205,1.1050009,0.86685276,0.33162498,0.020393861,0.84729326,1.0105304,0.39446908,0.16538234,0.9639152,0.6511594,1.0351497,0.3151938,0.5626154,0.31166357,0.62582606,-0.117385,0.15775411,741.39197,812.3077,816.337,850.58606,705.12823,0.3741455078125,0.20849609375,0.90826416015625,5.24871826171875,-4.852447509765625,3.551483154296875,1,1.0,1.0,1.0,1.0,85.00
2021-03-30 09:38:16.577,0.940117,0.6326862,0.10794006,1.0303048,0.84882116,0.33162498,0.12573636,0.9073328,0.9697168,0.39446908,0.39429834,1.0240511,0.69247335,1.0351497,0.30688888,0.69580454,0.43220687,0.62582606,-0.15608786,0.16002625,783.2967,832.0513,820.3663,880.0,741.39197,0.3768310546875,0.1690673828125,0.94024658203125,5.899200439453125,-9.390869140625,-1.338348388671875,1,1.0,1.0,1.0,1.0,85.00
2021-03-30 09:38:16.674,,,,,,,,,,,,,,,,,,,,,,,,,,,,,,,,,,,,,,/muse/elements/blink
2021-03-30 09:38:17.128,1.1706153,0.09232421,0.297068,0.9792891,0.96950775,0.5087962,0.31180617,0.85754555,1.1650054,0.5062866,0.5861399,0.96050507,0.86378026,1.0390016,0.35382268,0.8048492,0.42718977,0.36620897,-0.29575524,0.17694132,831.6484,794.57874,811.9048,935.6044,973.8828,0.34417724609375,0.215087890625,0.8961181640625,5.450592041015625,-2.452392578125,0.381317138671875,1,1.0,1.0,1.0,1.0,85.00
2021-03-30 09:38:17.636,1.1304785,0.15354854,0.3203547,1.0891556,0.89967424,0.47760323,0.3500913,0.8576514,1.1749705,0.39982438,0.61759984,0.9529143,0.8378404,1.062387,0.3808867,0.82592416,0.41184542,0.29538867,-0.26017436,0.16362335,722.8571,827.619,815.12823,854.61536,788.93774,0.37420654296875,0.23870849609375,0.89862060546875,7.110443115234375,-1.92901611328125,5.555267333984375,1,1.0,1.0,1.0,1.0,85.00
2021-03-30 09:38:18.112,,,,,,,,,,,,,,,,,,,,,,,,,,,,,,,,,,,,,,/muse/elements/blink
2021-03-30 09:38:18.179,1.1917305,0.17730637,0.44220167,1.2363373,0.8076427,0.43379882,0.29128605,0.7870209,1.1500442,0.39982438,0.59963876,1.0012108,0.8112709,1.0461911,0.34812993,0.7421939,0.2966974,0.34770676,-0.22128353,0.19183065,721.2454,770.80585,793.36993,672.8938,667.25275,0.3336181640625,0.22430419921875,0.91619873046875,3.33465576171875,-3.536529541015625,1.278533935546875,1,1.0,1.0,1.0,1.0,85.00
2021-03-30 09:38:18.714,1.103138,0.3122324,0.30042773,1.2656633,0.70940346,0.24749494,0.16414122,0.76912403,0.9132997,0.35754192,0.43898833,0.89792186,0.65930945,1.0359814,0.3055931,0.6935155,0.30412707,0.449852,-0.14915092,0.21704915,855.0183,753.8828,796.1905,721.6484,638.6447,0.33074951171875,0.18084716796875,0.91375732421875,2.684173583984375,-4.56085205078125,3.297271728515625,1,1.0,1.0,1.0,1.0,85.00
2021-03-30 09:38:19.259,1.3101971,0.3122324,0.2365453,1.382732,0.83486927,0.24749494,0.15250838,0.90511084,1.1244719,0.35754192,0.3129056,1.0348473,0.6617292,1.0359814,0.31950212,0.6759356,0.35210097,0.449852,-0.052101176,0.30112165,817.5458,770.80585,797.8022,694.2491,631.39197,0.37310791015625,0.19903564453125,0.92010498046875,8.89739990234375,-8.6431884765625,22.35565185546875,1,1.0,1.0,1.0,1.0,85.00
2021-03-30 09:38:19.301,,,,,,,,,,,,,,,,,,,,,,,,,,,,,,,,,,,,,,/muse/elements/blink
2021-03-30 09:38:19.789,1.4064165,0.3122324,0.49458086,1.5411005,0.9607914,0.24749494,0.44481856,1.0953733,1.1113379,0.35754192,0.48132375,1.2940929,0.7425849,1.0359814,0.33779508,0.7399215,0.3698829,0.449852,0.034025475,0.3078942,848.1685,857.03296,786.52014,828.022,1062.9304,0.3134765625,0.1646728515625,0.90484619140625,8.8226318359375,-10.90118408203125,-8.725433349609375,1,1.0,1.0,1.0,1.0,85.00
2021-03-30 09:38:20.122,,,,,,,,,,,,,,,,,,,,,,,,,,,,,,,,,,,,,,/muse/elements/blink
2021-03-30 09:38:20.296,1.505213,0.3122324,0.9406026,1.6396368,1.060608,0.24749494,0.67946523,1.2192281,1.1113379,0.35754192,0.6890708,1.289197,0.744099,1.0359814,0.36798343,0.74413174,0.2967871,0.449852,0.09394764,0.3362661,867.1062,798.60803,832.4542,955.34796,830.0366,0.29156494140625,0.21240234375,0.91632080078125,1.6748046875,-14.288177490234375,-36.883087158203125,1,1.0,1.0,1.0,1.0,85.00
2021-03-30 09:38:20.733,,,,,,,,,,,,,,,,,,,,,,,,,,,,,,,,,,,,,,/muse/elements/blink
2021-03-30 09:38:20.824,1.6014979,0.3122324,1.1572593,1.8000399,1.2634617,0.24749494,0.86917824,1.400566,1.1113379,0.35754192,0.6890708,1.2737653,0.80159867,1.0359814,0.3970221,0.82082677,0.17241079,0.449852,0.013985557,0.34504122,772.4176,780.87915,809.0842,834.4689,726.8865,0.19757080078125,0.248291015625,0.9290771484375,3.170166015625,3.887939453125,1.831817626953125,1,1.0,1.0,1.0,1.0,85.00
2021-03-30 09:38:21.326,1.6014979,0.3122324,1.350074,1.8000399,1.2634617,0.24749494,0.9822616,1.400566,1.1113379,0.35754192,0.6890708,1.2737653,0.80159867,1.0359814,0.44408286,0.82082677,0.17241079,0.449852,-0.009353966,0.34504122,751.8681,828.8278,828.022,905.78754,803.0403,0.31005859375,0.2303466796875,0.9490966796875,5.90667724609375,-14.706878662109375,30.153961181640625,1,1.0,1.0,1.0,1.0,85.00
2021-03-30 09:38:21.832,1.0294064,0.3122324,1.350074,1.8000399,1.1285685,0.24749494,0.9822616,1.400566,0.99714977,0.35754192,0.6890708,1.2737653,1.1044376,1.0359814,0.44408286,0.82082677,0.5238762,0.449852,-0.009353966,0.34504122,858.6447,789.7436,788.1319,697.0696,729.304,0.332275390625,0.2393798828125,0.8963623046875,4.717864990234375,2.64678955078125,-3.39447021484375,1,1.0,1.0,1.0,1.0,85.00
2021-03-30 09:38:22.008,,,,,,,,,,,,,,,,,,,,,,,,,,,,,,,,,,,,,,/muse/elements/blink
2021-03-30 09:38:22.358,1.0456702,0.3122324,0.55470735,1.5027324,1.1053249,0.24749494,0.09043664,1.0100265,1.0838388,0.35754192,0.40653354,0.7953777,1.0300595,1.0359814,0.36049584,0.8482455,0.5768844,0.449852,-0.18906046,0.32163322,943.663,805.4579,791.75824,961.79486,867.50916,0.289306640625,0.22119140625,0.915771484375,0.059814453125,-6.302947998046875,-11.783447265625,1,1.0,1.0,1.0,1.0,85.00
2021-03-30 09:38:22.395,,,,,,,,,,,,,,,,,,,,,,,,,,,,,,,,,,,,,,/muse/elements/blink
2021-03-30 09:38:22.862,1.0456702,0.3122324,0.67559344,1.5027324,1.1053249,0.24749494,0.30166805,1.0100265,1.0838388,0.35754192,0.40779436,0.7953777,1.0300595,1.0359814,0.40937513,0.8482455,0.5768844,0.449852,-0.11729844,0.32163322,581.8315,790.14655,826.8132,720.84247,794.17584,0.29400634765625,0.2711181640625,0.96209716796875,7.357177734375,-3.768310546875,-16.82281494140625,1,1.0,1.0,1.0,1.0,85.00
2021-03-30 09:38:22.905,,,,,,,,,,,,,,,,,,,,,,,,,,,,,,,,,,,,,,/muse/elements/blink
2021-03-30 09:38:23.121,,,,,,,,,,,,,,,,,,,,,,,,,,,,,,,,,,,,,,/muse/elements/blink
2021-03-30 09:38:23.375,1.0442765,0.3122324,0.87379503,1.5027324,1.1126524,0.24749494,0.40512058,1.0100265,0.9224725,0.35754192,0.4080541,0.7953777,0.9284581,1.0359814,0.4459379,0.8482455,0.6125514,0.449852,-0.07469083,0.32163322,775.2381,1096.3737,793.7729,750.65936,616.4835,0.2918701171875,0.1759033203125,0.98052978515625,7.476806640625,-16.172332763671875,-5.5029296875,1,1.0,1.0,1.0,1.0,85.00
2021-03-30 09:38:23.892,1.0442765,0.3122324,0.9709008,1.5027324,1.1126524,0.24749494,0.49696553,1.0100265,0.9224725,0.35754192,0.23517233,0.7953777,0.9284581,1.0359814,0.4962103,0.8482455,0.6125514,0.449852,-0.011441636,0.32163322,857.4359,726.4835,786.52014,668.46155,819.15753,0.29510498046875,0.1861572265625,0.9144287109375,7.58148193359375,0.261688232421875,10.706787109375,1,1.0,1.0,1.0,1.0,85.00
2021-03-30 09:38:24.445,1.0442765,0.3122324,0.78676224,1.5027324,1.1126524,0.24749494,0.30499825,1.0100265,0.9224725,0.35754192,0.20045473,0.7953777,0.9284581,1.0359814,0.4176127,0.8482455,0.6125514,0.449852,-0.13082542,0.32163322,788.1319,789.34064,794.17584,653.1502,602.381,0.2598876953125,0.13970947265625,0.9173583984375,10.467529296875,2.31781005859375,-3.99261474609375,1,1.0,1.0,1.0,1.0,85.00
2021-03-30 09:38:24.862,,,,,,,,,,,,,,,,,,,,,,,,,,,,,,,,,,,,,,/muse/elements/blink
2021-03-30 09:38:24.951,1.0442765,0.3122324,0.14221887,1.3461229,1.1126524,0.24749494,0.13513526,1.4312043,0.9224725,0.35754192,0.16394673,0.97265375,0.9284581,1.0359814,0.33348778,0.8754695,0.6125514,0.449852,-0.228968,0.3815861,839.707,766.77655,790.54944,734.5421,830.4396,0.30792236328125,0.161865234375,0.9320068359375,3.87298583984375,6.243133544921875,-5.63751220703125,1,1.0,1.0,1.0,1.0,85.00
2021-03-30 09:38:25.462,0.87600434,0.3122324,0.14221887,1.4296654,0.5925151,0.24749494,0.13513526,1.391185,0.9344772,0.35754192,0.16394673,1.0104305,0.9819911,1.0359814,0.33348778,0.82572937,0.6027161,0.449852,-0.228968,0.2760079,759.92676,775.64105,797.8022,780.07324,728.0952,0.2470703125,0.1732177734375,0.92535400390625,5.151519775390625,-1.18133544921875,9.353485107421875,1,1.0,1.0,1.0,1.0,85.00
2021-03-30 09:38:25.981,0.8319895,0.3122324,0.9669435,1.4678769,0.7309122,0.24749494,0.3483119,1.4164616,1.1898487,0.35754192,0.33789384,1.0078617,0.919104,1.0359814,0.3278969,0.8013553,0.5569177,0.449852,-0.07391673,0.2443079,797.3993,796.5934,796.5934,655.9707,618.49817,0.2677001953125,0.16943359375,0.94464111328125,5.630035400390625,-4.47113037109375,2.1832275390625,1,1.0,1.0,1.0,1.0,90.00
2021-03-30 09:38:26.273,,,,,,,,,,,,,,,,,,,,,,,,,,,,,,,,,,,,,,/muse/elements/blink
2021-03-30 09:38:26.536,0.74009126,0.3122324,0.9935931,1.5308933,0.70447737,0.24749494,0.4702393,1.3232576,1.1622409,0.35754192,0.46944547,0.8288709,0.9119597,1.0359814,0.32144156,0.73847157,0.5627314,0.449852,-0.15081336,0.044794243,782.0879,811.50183,811.9048,918.2784,844.94507,0.292724609375,0.1551513671875,0.9462890625,7.514190673828125,-10.42266845703125,-1.614990234375,1,1.0,1.0,1.0,1.0,90.00
2021-03-30 09:38:27.078,0.74663913,0.3122324,1.0398648,1.5308933,0.89911145,0.24749494,0.60155785,1.3232576,1.1602113,0.35754192,0.5087597,0.8288709,0.75828594,1.0359814,0.30300197,0.73847157,0.42103156,0.449852,-0.18817064,0.044794243,738.97437,0.0,813.5165,758.71796,656.77655,0.29559326171875,0.1512451171875,0.96258544921875,5.682373046875,-9.8095703125,-9.876861572265625,1,1.0,1.0,1.0,1.0,90.00
2021-03-30 09:38:27.349,,,,,,,,,,,,,,,,,,,,,,,,,,,,,,,,,,,,,,/muse/elements/blink
2021-03-30 09:38:27.597,0.74663913,0.3122324,1.0215241,1.5308933,0.89911145,0.24749494,0.7021122,1.3232576,1.1602113,0.35754192,0.38510573,0.8288709,0.75828594,1.0359814,0.28429037,0.73847157,0.42103156,0.449852,-0.31105298,0.044794243,784.5055,817.5458,803.8461,642.674,668.86444,0.2774658203125,0.26922607421875,0.9735107421875,8.605804443359375,-9.622650146484375,3.09539794921875,1,1.0,1.0,1.0,1.0,90.00
2021-03-30 09:38:28.149,1.4786361,0.3122324,0.98092556,1.6788574,1.2100406,0.24749494,0.64614433,1.198902,1.2254206,0.35754192,0.519122,1.2031898,1.3445796,1.0359814,0.24702077,0.84785545,0.825218,0.449852,-0.08758943,0.30081615,744.21246,859.0476,795.38464,689.011,612.0513,0.309814453125,0.25079345703125,0.96099853515625,7.424468994140625,-11.357269287109375,2.1234130859375,1,1.0,1.0,1.0,1.0,90.00
2021-03-30 09:38:28.583,,,,,,,,,,,,,,,,,,,,,,,,,,,,,,,,,,,,,,/muse/elements/blink
2021-03-30 09:38:28.662,1.4773861,0.3122324,0.54547375,1.5962187,1.1176487,0.24749494,0.35028645,1.1068507,1.2569594,0.35754192,0.49963197,1.2031898,1.3287351,1.0359814,0.19955605,0.81504816,0.7653725,0.449852,-0.024768978,0.39506447,881.2088,737.76556,792.5641,716.4103,680.54944,0.218994140625,0.15936279296875,0.9644775390625,2.893524169921875,-3.3197021484375,-2.609405517578125,1,1.0,1.0,1.0,1.0,90.00
2021-03-30 09:38:29.169,1.3216093,0.3122324,0.4733592,1.328914,0.7801587,0.24749494,0.38695577,0.7754976,1.0954936,0.35754192,0.6284967,0.98149663,1.3332922,1.0359814,0.20723902,0.78299433,0.7904098,0.449852,-0.013979091,0.4576208,977.50916,846.55676,787.326,1021.02563,1227.326,0.28558349609375,0.195556640625,0.968505859375,-0.276641845703125,3.431854248046875,2.55706787109375,1,1.0,1.0,1.0,1.0,90.00
2021-03-30 09:38:29.291,,,,,,,,,,,,,,,,,,,,,,,,,,,,,,,,,,,,,,/muse/elements/blink
2021-03-30 09:38:29.712,1.3474717,0.3122324,0.7629101,1.0973785,0.5678916,0.24749494,0.60053307,0.5160498,0.9981031,0.35754192,0.6037729,0.61913955,1.2791108,1.0359814,0.2047039,0.7254682,0.6814099,0.449852,-0.017864972,0.5180517,783.2967,864.68866,815.12823,884.0293,788.5348,0.15380859375,0.09320068359375,0.98663330078125,-2.714080810546875,-0.16448974609375,10.774078369140625,1,1.0,1.0,1.0,1.0,90.00
2021-03-30 09:38:30.245,,,,,,,,,,,,,,,,,,,,,,,,,,,,,,,,,,,,,,/muse/elements/blink
2021-03-30 09:38:30.254,1.3474717,0.3122324,0.9193189,1.0973785,0.5678916,0.24749494,0.7693083,0.5160498,0.9981031,0.35754192,0.62502587,0.61913955,1.2791108,1.0359814,0.2466922,0.7254682,0.6814099,0.449852,-0.030678296,0.5180517,823.5897,833.2601,817.1429,919.0842,902.96704,0.19439697265625,0.128173828125,0.9588623046875,22.908935546875,-7.663726806640625,8.314208984375,1,1.0,1.0,1.0,1.0,90.00
2021-03-30 09:38:30.760,1.3474717,0.3122324,0.9301887,1.0973785,0.5678916,0.24749494,0.71302694,0.5160498,0.9981031,0.35754192,0.39000002,0.61913955,1.2791108,1.0359814,0.28272772,0.7254682,0.6814099,0.449852,-0.12160433,0.5180517,805.05493,777.6557,799.011,730.10986,754.68866,0.2867431640625,0.2783203125,0.92999267578125,19.798583984375,-8.306732177734375,21.593017578125,1,1.0,1.0,1.0,1.0,90.00
2021-03-30 09:38:31.291,1.0624075,0.3122324,0.66786015,0.9573834,1.0042764,0.24749494,0.4909269,0.90219855,1.0463003,0.35754192,0.38913128,1.102389,0.8990667,1.0359814,0.32429343,1.0340837,0.4311007,0.449852,-0.15150405,0.49242494,763.5531,1007.326,796.99634,738.1685,705.9341,0.3421630859375,0.28887939453125,0.90216064453125,5.1141357421875,-16.277008056640625,6.392669677734375,1,1.0,1.0,1.0,1.0,90.00
2021-03-30 09:38:31.320,,,,,,,,,,,,,,,,,,,,,,,,,,,,,,,,,,,,,,/muse/elements/blink
2021-03-30 09:38:31.808,1.0624075,0.3122324,0.6918433,0.9573834,1.0042764,0.24749494,0.13290726,0.90219855,1.0463003,0.35754192,0.48837215,1.102389,0.8990667,1.0359814,0.30482632,1.0340837,0.4311007,0.449852,-0.1898991,0.49242494,802.6374,814.7253,774.43225,683.7729,685.78754,0.40802001953125,0.2620849609375,0.90863037109375,0.201873779296875,-9.891815185546875,-11.207733154296875,1,1.0,1.0,1.0,1.0,90.00
2021-03-30 09:38:32.313,1.1308463,0.3122324,0.74947727,0.98074275,0.8720401,0.24749494,0.11059921,0.88202757,0.8573018,0.35754192,0.5164346,1.0695717,0.7765753,1.0359814,0.30301154,1.054254,0.33738855,0.449852,-0.19067898,0.5379931,741.39197,960.58606,814.3223,832.0513,715.2015,0.3380126953125,0.321044921875,0.85577392578125,4.867401123046875,-2.0037841796875,-3.90289306640625,1,1.0,1.0,1.0,1.0,90.00
2021-03-30 09:38:32.830,1.1610209,0.3122324,0.8156163,0.98074275,0.6409613,0.24749494,0.20689183,0.88202757,0.809955,0.35754192,0.51177377,1.0695717,0.7841292,1.0359814,0.3446597,1.054254,0.7063622,0.449852,-0.13484344,0.5379931,703.5165,825.6044,836.8865,828.022,853.4066,0.34136962890625,0.2978515625,0.90826416015625,-3.087921142578125,-5.749664306640625,15.43212890625,1,1.0,1.0,1.0,1.0,90.00
2021-03-30 09:38:33.060,,,,,,,,,,,,,,,,,,,,,,,,,,,,,,,,,,,,,,/muse/elements/blink
2021-03-30 09:38:33.344,1.0411221,0.3122324,0.718961,0.98074275,0.54444945,0.24749494,0.10494364,0.88202757,0.797619,0.35754192,0.47892478,1.0695717,0.8222484,1.0359814,0.41124687,1.054254,0.78304493,0.449852,-0.084071234,0.5379931,740.58606,805.4579,794.57874,736.1539,697.47253,0.36181640625,0.024169921875,0.9305419921875,7.4169921875,-3.192596435546875,3.8580322265625,1,1.0,1.0,1.0,1.0,90.00
2021-03-30 09:38:33.896,1.0411221,0.3122324,0.71373785,0.98074275,0.54444945,0.24749494,0.28898653,0.88202757,0.797619,0.35754192,0.34387806,1.0695717,0.8222484,1.0359814,0.43090135,1.054254,0.78304493,0.449852,0.023310717,0.5379931,817.9487,807.0696,791.3553,725.2747,682.96704,0.3419189453125,0.038818359375,0.9281005859375,6.392669677734375,-8.441314697265625,1.472930908203125,1,1.0,1.0,1.0,1.0,90.00
2021-03-30 09:38:34.431,1.0411221,0.3122324,0.64746565,0.98074275,0.54444945,0.24749494,0.32179672,0.88202757,0.797619,0.35754192,0.28915632,1.0695717,0.8222484,1.0359814,0.395393,1.054254,0.78304493,0.449852,0.021797648,0.5379931,852.1978,803.0403,796.5934,831.6484,877.5824,0.42022705078125,0.0706787109375,0.9285888671875,5.570220947265625,-8.05999755859375,-0.01495361328125,1,1.0,1.0,1.0,1.0,90.00
2021-03-30 09:38:34.963,0.58332354,0.3122324,-0.015634058,0.47583833,0.23594138,0.24749494,-0.11371397,0.015441784,0.31063312,0.35754192,0.2711136,0.568778,0.32100996,1.0359814,0.18110973,0.73569083,0.09565882,0.449852,-0.29015562,0.4333274,835.2747,809.4872,784.90845,756.7033,738.97437,0.37603759765625,0.07958984375,0.92193603515625,3.887939453125,-3.043060302734375,-5.9814453125,1,1.0,1.0,1.0,1.0,90.00
2021-03-30 09:38:35.493,0.8244079,0.3122324,0.53139323,0.47583833,0.4499632,0.24749494,0.22805202,0.015441784,0.72450984,0.35754192,0.4356339,0.568778,0.35048246,1.0359814,0.21422,0.73569083,0.094385535,0.449852,-0.15219337,0.4333274,863.47986,800.6227,805.8608,887.6557,868.71796,0.44610595703125,0.12481689453125,0.88482666015625,7.289886474609375,13.29376220703125,-2.25799560546875,1,1.0,1.0,1.0,1.0,90.00
2021-03-30 09:38:35.507,,,,,,,,,,,,,,,,,,,,,,,,,,,,,,,,,,,,,,/muse/elements/blink
2021-03-30 09:38:36.023,1.0127281,0.3122324,0.7271666,0.49196893,0.64848757,0.24749494,0.35581672,0.06705285,0.7745756,0.35754192,0.47075924,0.45900527,0.40075827,1.0359814,0.22345161,0.739938,0.13439055,0.449852,-0.072624855,0.43515724,849.7802,891.685,795.78754,807.8755,821.978,0.0655517578125,0.02520751953125,0.911376953125,2.0635986328125,10.968475341796875,-10.27313232421875,1,1.0,1.0,1.0,1.0,90.00
2021-03-30 09:38:36.529,1.1352308,0.3122324,0.9333249,0.49196893,0.75027615,0.24749494,0.5275059,0.06705285,0.7660654,0.35754192,0.45258328,0.45900527,0.45431143,1.0359814,0.25781646,0.739938,0.120169,0.449852,0.026942663,0.43515724,790.9524,821.1722,816.337,868.71796,716.4103,0.09234619140625,0.1888427734375,1.0009765625,17.936859130859375,-11.716156005859375,-5.263671875,1,1.0,1.0,1.0,1.0,90.00
2021-03-30 09:38:37.074,1.1352308,0.3122324,0.9843855,0.49196893,0.75027615,0.24749494,0.53864753,0.06705285,0.7660654,0.35754192,0.40196666,0.45900527,0.45431143,1.0359814,0.24780932,0.739938,0.120169,0.449852,0.04241667,0.43515724,816.337,828.8278,822.7839,898.1319,802.6374,0.2161865234375,0.1654052734375,0.9578857421875,-1.697235107421875,1.891632080078125,-22.781829833984375,1,1.0,1.0,1.0,1.0,90.00
2021-03-30 09:38:37.577,1.1352308,0.3122324,0.9843855,0.49196893,0.75027615,0.24749494,0.53864753,0.06705285,0.7660654,0.35754192,0.40196666,0.45900527,0.45431143,1.0359814,0.24780932,0.739938,0.120169,0.449852,0.04241667,0.43515724,750.65936,739.3773,825.6044,613.663,612.4542,0.29327392578125,0.33563232421875,0.97344970703125,9.503021240234375,-10.347900390625,12.18719482421875,1,1.0,1.0,1.0,1.0,90.00
2021-03-30 09:38:37.730,,,,,,,,,,,,,,,,,,,,,,,,,,,,,,,,,,,,,,/muse/elements/blink
2021-03-30 09:38:38.027,,,,,,,,,,,,,,,,,,,,,,,,,,,,,,,,,,,,,,/muse/elements/blink
2021-03-30 09:38:38.090,1.1352308,0.3122324,0.9843855,0.49196893,0.75027615,0.24749494,0.53864753,0.06705285,0.7660654,0.35754192,0.40196666,0.45900527,0.45431143,1.0359814,0.24780932,0.739938,0.120169,0.449852,0.04241667,0.43515724,887.25275,770.80585,785.7143,795.78754,818.3516,0.2469482421875,0.27606201171875,0.89801025390625,3.27484130859375,-9.712371826171875,29.4586181640625,1,2.0,1.0,1.0,2.0,90.00
2021-03-30 09:38:38.230,,,,,,,,,,,,,,,,,,,,,,,,,,,,,,,,,,,,,,/muse/elements/blink
2021-03-30 09:38:38.618,1.1352308,0.3122324,0.9843855,0.49196893,0.75027615,0.24749494,0.53864753,0.06705285,0.7660654,0.35754192,0.40196666,0.45900527,0.45431143,1.0359814,0.24780932,0.739938,0.120169,0.449852,0.04241667,0.43515724,871.53845,805.05493,804.65204,894.90845,1111.6849,0.30126953125,0.0711669921875,0.9560546875,1.45050048828125,-8.082427978515625,10.78155517578125,1,2.0,1.0,1.0,2.0,90.00
2021-03-30 09:38:39.156,1.1352308,0.3122324,0.9449909,0.49196893,0.75027615,0.24749494,0.56306404,0.06705285,0.7660654,0.35754192,0.13793117,0.45900527,0.45431143,1.0359814,0.19581953,0.739938,0.120169,0.449852,-0.026533732,0.43515724,848.5714,827.2161,803.44324,846.1539,839.707,0.372802734375,0.039306640625,0.89739990234375,10.400238037109375,-19.641571044921875,0.2691650390625,1,2.0,1.0,1.0,2.0,90.00
2021-03-30 09:38:39.402,,,,,,,,,,,,,,,,,,,,,,,,,,,,,,,,,,,,,,/muse/elements/blink
2021-03-30 09:38:39.629,,,,,,,,,,,,,,,,,,,,,,,,,,,,,,,,,,,,,,/muse/elements/blink
2021-03-30 09:38:39.665,1.1352308,0.3122324,0.80235523,0.49196893,0.75027615,0.24749494,0.39850798,0.06705285,0.7660654,0.35754192,0.15204483,0.45900527,0.45431143,1.0359814,0.21889609,0.739938,0.120169,0.449852,-0.0862131,0.43515724,794.9817,803.8461,823.1868,866.30035,915.4579,0.378662109375,0.229736328125,0.92138671875,10.27313232421875,-7.768402099609375,-5.046844482421875,1,2.0,1.0,1.0,2.0,90.00
2021-03-30 09:38:40.179,1.1352308,0.3122324,0.82545847,0.8340764,0.75027615,0.24749494,0.31528056,0.9238685,0.7660654,0.35754192,0.2391819,0.6759268,0.45431143,1.0359814,0.18284523,0.79037994,0.120169,0.449852,-0.13602787,0.24828504,718.4249,823.1868,810.696,739.7802,652.74725,0.32379150390625,0.255859375,0.9200439453125,9.7796630859375,-3.87298583984375,-8.89739990234375,1,1.0,1.0,1.0,1.0,90.00
2021-03-30 09:38:40.655,,,,,,,,,,,,,,,,,,,,,,,,,,,,,,,,,,,,,,/muse/elements/blink
2021-03-30 09:38:40.720,1.2549975,0.3122324,0.67182505,1.2117902,1.1119974,0.24749494,0.3399899,1.0369545,1.1378489,0.35754192,0.4354747,1.0792869,1.0719379,1.0359814,0.17369595,0.8621922,0.42604458,0.449852,-0.18814108,0.20728722,774.83514,778.86444,788.93774,676.9231,707.9487,0.30169677734375,0.26690673828125,0.916259765625,6.347808837890625,-9.6002197265625,-2.250518798828125,1,1.0,1.0,1.0,1.0,90.00
2021-03-30 09:38:41.263,1.1019325,0.3122324,0.5969708,1.2474158,0.9260889,0.24749494,0.42633155,1.1140368,1.1410288,0.35754192,0.6320513,1.0792869,0.9821573,1.0359814,0.20711812,0.8582436,0.4290144,0.449852,-0.22283795,0.15324634,790.14655,764.35895,786.1172,768.3883,905.78754,0.33740234375,0.246826171875,0.908935546875,-7.4169921875,-1.24114990234375,8.77777099609375,1,1.0,1.0,1.0,1.0,90.00
2021-03-30 09:38:41.481,,,,,,,,,,,,,,,,,,,,,,,,,,,,,,,,,,,,,,/muse/elements/blink
2021-03-30 09:38:41.767,1.125086,0.3122324,0.2452166,1.4567087,0.9043846,0.24749494,0.47791603,1.1404103,1.1410288,0.35754192,0.6634553,1.0756102,0.99341536,1.0359814,0.24375501,0.9170792,0.43323055,0.449852,-0.28387222,0.12382412,857.4359,805.8608,795.78754,740.58606,714.3956,0.3184814453125,0.23529052734375,0.9324951171875,2.729034423828125,-3.768310546875,3.910369873046875,1,1.0,1.0,1.0,1.0,90.00
2021-03-30 09:38:42.109,,,,,,,,,,,,,,,,,,,,,,,,,,,,,,,,,,,,,,/muse/elements/blink
2021-03-30 09:38:42.284,0.7947353,0.3122324,-0.1351612,1.4567087,0.48099938,0.24749494,0.35385123,1.1404103,0.90662646,0.35754192,0.6529077,1.0756102,0.84214956,1.0359814,0.2236121,0.9170792,0.4325516,0.449852,-0.27022603,0.12382412,769.59705,810.293,808.2784,791.3553,757.1062,0.1806640625,0.1895751953125,1.0140380859375,4.149627685546875,-3.46923828125,-4.209442138671875,1,1.0,1.0,1.0,1.0,90.00
2021-03-30 09:38:42.817,0.60651284,0.43640006,-0.020200714,1.4567087,0.28384498,0.731472,0.2630921,1.1404103,0.7910809,0.40916324,0.58134395,1.0756102,0.8236077,1.0880085,0.15775827,0.9170792,0.4285585,0.72878623,-0.20137276,0.12382412,783.2967,850.989,826.4103,846.55676,790.14655,0.28594970703125,0.168701171875,0.8939208984375,11.46942138671875,-5.7421875,19.806060791015625,1,1.0,1.0,1.0,1.0,90.00
2021-03-30 09:38:43.340,1.1050291,0.35541028,0.22633165,1.0308988,0.61103994,0.74592334,0.09774051,0.67489916,0.863383,0.42814603,0.44372353,0.82096833,0.6332156,1.1316092,0.17362906,0.8149221,0.3319407,0.67232317,-0.24419367,0.23170169,840.10986,835.6777,797.3993,776.8498,680.54944,0.2900390625,0.22967529296875,0.90081787109375,4.56085205078125,-5.615081787109375,2.8411865234375,1,1.0,1.0,1.0,1.0,90.00
2021-03-30 09:38:43.407,,,,,,,,,,,,,,,,,,,,,,,,,,,,,,,,,,,,,,/muse/elements/blink
2021-03-30 09:38:43.849,1.1623821,0.24629205,0.60242337,1.0308988,0.5881332,0.76540554,0.23061876,0.67489916,0.8772323,0.40579417,0.3051842,0.82096833,0.5839463,1.1352218,0.14431845,0.8149221,0.30395192,0.6496073,-0.2644308,0.23170169,813.5165,805.4579,789.34064,695.8608,713.9927,0.31488037109375,0.21026611328125,0.942626953125,4.18701171875,-5.884246826171875,-8.53851318359375,1,1.0,1.0,1.0,1.0,90.00
2021-03-30 09:38:44.357,1.2108793,-0.14106685,0.67197466,1.1216424,0.63677526,0.79298013,0.34530962,0.5739708,0.8409052,0.1619208,0.52540386,0.78560436,0.52044404,1.1935534,0.20986599,0.86605465,0.23268136,0.4901145,-0.31351253,0.20460376,872.74725,819.5604,809.0842,826.0073,772.8205,0.28924560546875,0.2772216796875,0.94378662109375,7.095489501953125,-7.947845458984375,1.577606201171875,1,1.0,1.0,1.0,1.0,90.00
2021-03-30 09:38:44.814,,,,,,,,,,,,,,,,,,,,,,,,,,,,,,,,,,,,,,/muse/elements/blink
2021-03-30 09:38:44.860,1.3116424,-0.14106685,0.6692106,1.1216424,0.8191987,0.79298013,0.39754114,0.5739708,1.0594544,0.1619208,0.5736408,0.78560436,0.7325305,1.1935534,0.17245622,0.86605465,0.19193605,0.4901145,-0.2778784,0.20460376,629.3773,780.4762,875.9707,740.58606,850.989,0.3079833984375,0.28131103515625,0.91082763671875,0.889739990234375,-2.19818115234375,6.02630615234375,1,1.0,1.0,1.0,1.0,90.00
2021-03-30 09:38:45.020,,,,,,,,,,,,,,,,,,,,,,,,,,,,,,,,,,,,,,/muse/elements/blink
2021-03-30 09:38:45.399,1.4112672,-0.14106685,0.5107104,1.1216424,0.9938382,0.79298013,0.35708627,0.5739708,1.0412245,0.1619208,0.5736408,0.78560436,0.8865781,1.1935534,0.20950986,0.86605465,0.20507327,0.4901145,-0.27669832,0.20460376,820.3663,792.5641,779.2674,772.01465,761.9414,0.2449951171875,0.07830810546875,0.9578857421875,-1.33087158203125,-1.734619140625,26.580047607421875,1,1.0,1.0,1.0,1.0,90.00
2021-03-30 09:38:45.917,1.4112672,-0.14106685,0.3709953,1.1216424,0.9938382,0.79298013,0.18719973,0.5739708,1.0412245,0.1619208,0.4569793,0.78560436,0.8865781,1.1935534,0.07702707,0.86605465,0.20507327,0.4901145,-0.27876532,0.20460376,764.7619,828.022,800.2198,797.3993,754.68866,0.27655029296875,0.08953857421875,0.94390869140625,5.8319091796875,-7.3272705078125,-1.532745361328125,1,1.0,1.0,1.0,1.0,90.00
2021-03-30 09:38:46.423,1.4112672,-0.14106685,0.30177718,1.1216424,0.9938382,0.79298013,0.040417675,0.5739708,1.0412245,0.1619208,0.27430764,0.78560436,0.8865781,1.1935534,0.059807297,0.86605465,0.20507327,0.4901145,-0.26463836,0.20460376,850.58606,780.87915,807.8755,832.0513,792.5641,0.302978515625,0.0909423828125,0.97418212890625,5.33843994140625,-6.018829345703125,3.84307861328125,1,1.0,1.0,1.0,1.0,85.00
2021-03-30 09:38:46.927,0.6668343,-0.14106685,0.5620566,1.1216424,0.0077580884,0.79298013,-0.026940718,0.5739708,0.20723031,0.1619208,0.13602899,0.78560436,0.53541243,1.1935534,0.13186598,0.86605465,-0.006901103,0.4901145,-0.22684246,0.20460376,719.6337,829.6337,789.7436,718.4249,676.52014,0.32196044921875,0.09405517578125,0.95709228515625,6.856231689453125,-3.75335693359375,-2.22808837890625,1,2.0,1.0,1.0,2.0,85.00
2021-03-30 09:38:47.457,,,,,,,,,,,,,,,,,,,,,,,,,,,,,,,,,,,,,,/muse/elements/blink
2021-03-30 09:38:47.463,0.98007363,-0.14106685,0.8160706,1.1216424,0.5013918,0.79298013,0.251845,0.5739708,0.44412655,0.1619208,0.17412427,0.78560436,0.467952,1.1935534,0.082253374,0.86605465,0.22859415,0.4901145,-0.24380782,0.20460376,791.3553,814.3223,800.2198,829.6337,834.0659,0.3433837890625,0.11505126953125,0.95208740234375,7.334747314453125,5.944061279296875,6.59454345703125,1,1.0,1.0,1.0,1.0,85.00
2021-03-30 09:38:47.966,0.98007363,-0.14106685,0.9492707,1.1216424,0.5013918,0.79298013,0.45826674,0.5739708,0.44412655,0.1619208,0.69980586,0.78560436,0.467952,1.1935534,0.1399192,0.86605465,0.22859415,0.4901145,-0.22116907,0.20460376,710.3663,877.1795,766.77655,695.8608,776.04395,0.2060546875,0.03936767578125,0.8970947265625,2.76641845703125,0.58319091796875,-37.092437744140625,1,1.0,1.0,1.0,1.0,85.00
2021-03-30 09:38:48.499,1.1080118,-0.14106685,1.108595,1.1216424,0.6635783,0.79298013,0.6567071,0.5739708,0.34836578,0.1619208,0.73684746,0.78560436,0.4163496,1.1935534,0.16884421,0.86605465,0.33547834,0.4901145,-0.21172045,0.20460376,821.978,867.50916,848.5714,898.1319,956.55676,0.1002197265625,0.21636962890625,0.9549560546875,11.626434326171875,-6.497344970703125,-5.330963134765625,1,1.0,1.0,1.0,1.0,85.00
2021-03-30 09:38:48.757,,,,,,,,,,,,,,,,,,,,,,,,,,,,,,,,,,,,,,/muse/elements/blink
2021-03-30 09:38:49.025,1.4939933,-0.14106685,1.213089,1.1216424,1.0619848,0.79298013,0.8229891,0.5739708,0.8996763,0.1619208,0.73398495,0.78560436,0.7425858,1.1935534,0.30101284,0.86605465,0.58390695,0.4901145,-0.15585896,0.20460376,837.28937,837.6923,799.011,834.87177,858.24176,0.20660400390625,0.31793212890625,0.94439697265625,12.837677001953125,-1.95892333984375,-18.46771240234375,1,1.0,1.0,1.0,1.0,85.00
2021-03-30 09:38:49.534,1.4939933,-0.14106685,1.2499443,1.1216424,1.0619848,0.79298013,0.88640934,0.5739708,0.8996763,0.1619208,0.73398495,0.78560436,0.7425858,1.1935534,0.32486925,0.86605465,0.58390695,0.4901145,-0.14883491,0.20460376,884.43225,821.5751,838.9011,979.12085,880.0,0.17620849609375,0.33880615234375,0.957275390625,6.332855224609375,-9.263763427734375,19.8284912109375,1,1.0,1.0,1.0,1.0,85.00
2021-03-30 09:38:50.063,1.4939933,-0.14106685,1.2499443,1.1216424,1.0619848,0.79298013,0.88640934,0.5739708,0.8996763,0.1619208,0.73398495,0.78560436,0.7425858,1.1935534,0.32486925,0.86605465,0.58390695,0.4901145,-0.14883491,0.20460376,731.7216,844.94507,803.0403,738.1685,676.52014,0.24176025390625,0.33087158203125,0.92718505859375,10.18341064453125,-9.82452392578125,13.435821533203125,1,1.0,1.0,1.0,1.0,85.00
2021-03-30 09:38:50.135,,,,,,,,,,,,,,,,,,,,,,,,,,,,,,,,,,,,,,/muse/elements/blink
2021-03-30 09:38:50.603,1.4939933,-0.14106685,0.91148347,1.1216424,1.0619848,0.79298013,0.67686856,0.5739708,0.8996763,0.1619208,0.2579065,0.78560436,0.7425858,1.1935534,0.1290242,0.86605465,0.58390695,0.4901145,0.050045386,0.20460376,802.6374,737.76556,797.8022,753.47986,722.4542,0.3076171875,0.36480712890625,0.89849853515625,5.196380615234375,-6.98333740234375,13.615264892578125,1,1.0,1.0,1.0,1.0,85.00
2021-03-30 09:38:51.125,1.4939933,-0.14106685,0.86230725,1.1216424,1.0619848,0.79298013,0.65014344,0.5739708,0.8996763,0.1619208,0.40686926,0.78560436,0.7425858,1.1935534,0.2863765,0.86605465,0.58390695,0.4901145,0.023586895,0.20460376,812.3077,858.6447,831.2454,876.77655,718.8278,0.25811767578125,0.28131103515625,0.904296875,4.306640625,-2.160797119140625,1.099090576171875,1,1.0,1.0,1.0,1.0,85.00
2021-03-30 09:38:51.416,,,,,,,,,,,,,,,,,,,,,,,,,,,,,,,,,,,,,,/muse/elements/blink
2021-03-30 09:38:51.634,1.4939933,-0.14106685,0.8665884,1.1216424,1.0619848,0.79298013,0.6555461,0.5739708,0.8996763,0.1619208,0.40314606,0.78560436,0.7425858,1.1935534,0.34897235,0.86605465,0.58390695,0.4901145,0.026736123,0.20460376,688.60803,769.19415,832.0513,730.5128,681.75824,0.40069580078125,0.3497314453125,0.859619140625,11.065673828125,-8.433837890625,0.052337646484375,1,2.0,1.0,1.0,2.0,85.00
2021-03-30 09:38:51.832,,,,,,,,,,,,,,,,,,,,,,,,,,,,,,,,,,,,,,/muse/elements/blink
2021-03-30 09:38:52.148,1.4939933,-0.14106685,0.7762068,1.1216424,1.0619848,0.79298013,0.6066939,0.5739708,0.8996763,0.1619208,0.23851135,0.78560436,0.7425858,1.1935534,0.4495103,0.86605465,0.58390695,0.4901145,-0.019393012,0.20460376,861.06226,834.0659,818.3516,883.6264,885.2381,0.29266357421875,0.34503173828125,0.892333984375,5.031890869140625,-1.5850830078125,3.9178466796875,1,2.0,1.0,1.0,2.0,85.00
2021-03-30 09:38:52.683,,,,,,,,,,,,,,,,,,,,,,,,,,,,,,,,,,,,,,/muse/elements/blink
2021-03-30 09:38:52.689,1.4939933,-0.14106685,0.7762068,1.1216424,1.0619848,0.79298013,0.6066939,0.5739708,0.8996763,0.1619208,0.23851135,0.78560436,0.7425858,1.1935534,0.4495103,0.86605465,0.58390695,0.4901145,-0.019393012,0.20460376,816.7399,843.3333,846.1539,851.39197,749.85345,0.2779541015625,0.33416748046875,0.89471435546875,5.286102294921875,-10.923614501953125,6.975860595703125,1,2.0,1.0,1.0,2.0,85.00
2021-03-30 09:38:53.209,1.4939933,-0.14106685,0.7762068,1.1216424,1.0619848,0.79298013,0.6066939,0.5739708,0.8996763,0.1619208,0.23851135,0.78560436,0.7425858,1.1935534,0.4495103,0.86605465,0.58390695,0.4901145,-0.019393012,0.20460376,738.5714,792.96704,795.38464,767.1795,679.34064,0.29595947265625,0.3448486328125,0.88299560546875,5.66741943359375,-3.1402587890625,1.966400146484375,1,2.0,1.0,1.0,2.0,85.00
2021-03-30 09:38:53.717,0.75952107,-0.14106685,0.7762068,0.9958387,0.8515379,0.79298013,0.6066939,0.6971739,0.88694704,0.1619208,0.23851135,0.70001477,0.6174881,1.1935534,0.4495103,0.4158885,0.24655725,0.4901145,-0.019393012,0.035128254,757.50916,841.7216,820.3663,813.5165,688.20514,0.32318115234375,0.3267822265625,0.8951416015625,3.21502685546875,-1.33087158203125,3.349609375,1,1.0,1.0,1.0,1.0,85.00
2021-03-30 09:38:54.000,,,,,,,,,,,,,,,,,,,,,,,,,,,,,,,,,,,,,,/muse/elements/blink
2021-03-30 09:38:54.258,1.0311601,0.3703995,0.37656084,1.0278783,0.72108996,0.2089016,0.0403317,0.78725386,0.89548963,0.30669883,0.07640318,0.7079896,0.67647636,1.1023167,0.05660799,0.4792031,0.30581766,0.76135945,-0.0977601,0.030123025,729.707,774.83514,793.36993,708.3516,701.0989,0.3193359375,0.27642822265625,0.92034912109375,0.321502685546875,-4.007568359375,-0.37384033203125,1,1.0,1.0,1.0,1.0,85.00
2021-03-30 09:38:54.772,0.94606036,0.22824357,0.4247424,1.0566301,0.6199137,0.1365326,-0.069433354,0.8571738,0.89609456,0.33978423,0.10367654,0.7079896,0.65597683,1.0875565,0.17993353,0.49421036,0.32376203,0.6946904,-0.12613924,-0.003941178,842.1245,788.1319,805.8608,768.7912,671.28204,0.29986572265625,0.23797607421875,0.93023681640625,6.646881103515625,-2.9608154296875,0.904693603515625,1,1.0,1.0,1.0,1.0,85.00
2021-03-30 09:38:55.287,0.9086969,0.06551849,0.34179202,1.01948,0.3441464,0.08481464,-0.006405413,0.72814465,0.48366,0.35017776,0.21935123,0.58708113,0.5732476,1.0488806,0.18068944,0.5658585,0.27942932,0.6635844,-0.18336335,-0.015269931,864.2857,831.2454,809.4872,851.79486,625.34796,0.32940673828125,0.2681884765625,0.91717529296875,2.811279296875,-1.15142822265625,1.03179931640625,1,1.0,1.0,1.0,1.0,85.00
2021-03-30 09:38:55.412,,,,,,,,,,,,,,,,,,,,,,,,,,,,,,,,,,,,,,/muse/elements/blink
2021-03-30 09:38:55.819,0.65703315,0.09191439,0.4038695,1.0100929,0.23735493,0.057988312,-0.0072243996,0.5013095,0.36307746,0.25582302,0.30980793,0.30451295,0.4532125,1.0392636,0.19103578,0.58306414,0.17970723,0.5176067,-0.27075103,0.024292372,797.8022,775.64105,798.20514,852.1978,951.31866,0.3092041015625,0.22747802734375,0.93896484375,-4.164581298828125,-4.02252197265625,16.31439208984375,1,1.0,1.0,1.0,1.0,85.00
2021-03-30 09:38:56.347,0.7533433,0.20571779,0.5644621,1.1351192,0.34027442,0.09675506,0.16579525,0.70664406,0.6542526,0.15826331,0.3547325,0.4880165,0.45281646,1.0238478,0.18882,0.564475,-0.020500425,0.488328,-0.2546178,0.0893489,785.7143,813.91943,786.1172,772.8205,692.6374,0.2271728515625,0.0606689453125,0.96783447265625,-6.990814208984375,3.372039794921875,0.740203857421875,1,1.0,1.0,1.0,1.0,85.00
2021-03-30 09:38:56.425,,,,,,,,,,,,,,,,,,,,,,,,,,,,,,,,,,,,,,/muse/elements/blink
2021-03-30 09:38:56.708,,,,,,,,,,,,,,,,,,,,,,,,,,,,,,,,,,,,,,/muse/elements/blink
2021-03-30 09:38:56.854,0.9133271,0.35369247,0.7670925,1.1911552,0.51586854,0.27789885,0.24656442,0.76177204,0.6542526,0.01489034,0.28449234,0.48535848,0.51853806,1.025209,0.18735485,0.54030836,0.04014611,0.5198453,-0.19482149,0.12778458,906.5934,800.6227,792.1612,834.4689,782.8938,0.236328125,0.00738525390625,0.981201171875,1.114044189453125,-8.770294189453125,-11.970367431640625,1,1.0,1.0,1.0,1.0,85.00
2021-03-30 09:38:56.875,,,,,,,,,,,,,,,,,,,,,,,,,,,,,,,,,,,,,,/muse/elements/blink
2021-03-30 09:38:57.200,,,,,,,,,,,,,,,,,,,,,,,,,,,,,,,,,,,,,,/muse/elements/blink
2021-03-30 09:38:57.373,0.9133271,0.35369247,1.0542705,1.3633828,0.51586854,0.27789885,0.5847111,0.91564655,0.6542526,0.01489034,0.42488885,0.44708192,0.51853806,1.025209,0.31793156,0.454119,0.04014611,0.5198453,-0.10565941,0.17976514,868.71796,958.1685,813.91943,859.0476,1132.2344,0.22418212890625,0.0020751953125,0.9893798828125,11.05072021484375,-5.63751220703125,0.2093505859375,1,1.0,1.0,1.0,1.0,85.00
2021-03-30 09:38:57.877,0.9133271,0.35369247,1.1009728,1.3633828,0.51586854,0.27789885,0.65531266,0.91564655,0.6542526,0.01489034,0.50446147,0.44708192,0.51853806,1.025209,0.4593924,0.454119,0.04014611,0.5198453,-0.07869842,0.17976514,853.4066,799.41394,834.87177,817.9487,776.4469,0.32061767578125,0.106201171875,0.95050048828125,5.62255859375,-10.7965087890625,19.671478271484375,1,1.0,1.0,1.0,1.0,85.00
2021-03-30 09:38:58.048,,,,,,,,,,,,,,,,,,,,,,,,,,,,,,,,,,,,,,/muse/elements/blink
2021-03-30 09:38:58.401,0.9133271,0.35369247,1.0357579,1.3633828,0.51586854,0.27789885,0.5683906,0.91564655,0.6542526,0.01489034,0.50344145,0.44708192,0.51853806,1.025209,0.4804951,0.454119,0.04014611,0.5198453,-0.084253564,0.17976514,853.00366,817.9487,800.6227,869.5238,842.9304,0.3533935546875,0.08660888671875,0.9410400390625,4.7552490234375,-5.66741943359375,-1.256103515625,1,1.0,1.0,1.0,1.0,85.00
2021-03-30 09:38:58.952,0.9133271,0.35369247,0.9577673,1.3633828,0.51586854,0.27789885,0.49022436,0.91564655,0.6542526,0.01489034,0.50104195,0.44708192,0.51853806,1.025209,0.5358043,0.454119,0.04014611,0.5198453,-0.032937624,0.17976514,730.9158,819.9634,815.12823,802.23444,701.0989,0.33355712890625,0.11285400390625,0.93878173828125,7.245025634765625,-8.29925537109375,-2.145843505859375,1,2.0,1.0,1.0,2.0,85.00
2021-03-30 09:38:59.295,,,,,,,,,,,,,,,,,,,,,,,,,,,,,,,,,,,,,,/muse/elements/blink
2021-03-30 09:38:59.480,0.9133271,0.35369247,0.4051076,1.3633828,0.51586854,0.27789885,-0.1683201,0.91564655,0.6542526,0.01489034,0.069294006,0.44708192,0.51853806,1.025209,0.316725,0.454119,0.04014611,0.5198453,-0.16641165,0.17976514,731.7216,811.50183,809.0842,728.49817,641.06226,0.32891845703125,0.1934814453125,0.94915771484375,9.607696533203125,-7.693634033203125,-15.74615478515625,1,2.0,1.0,1.0,2.0,85.00
2021-03-30 09:39:00.029,0.9133271,0.35369247,0.626634,1.3633828,0.51586854,0.27789885,0.028295353,0.91564655,0.6542526,0.01489034,0.18277143,0.44708192,0.51853806,1.025209,0.44076544,0.454119,0.04014611,0.5198453,-0.11463669,0.17976514,747.03296,820.7692,813.5165,805.05493,805.4579,0.294921875,0.24163818359375,0.92236328125,3.312225341796875,-3.626251220703125,1.30096435546875,1,2.0,1.0,1.0,2.0,85.00
2021-03-30 09:39:00.543,1.5523739,0.35369247,0.59286207,1.3633828,1.3516988,0.27789885,0.040144254,0.91564655,1.2090278,0.01489034,0.24613051,0.44708192,0.53927314,1.025209,0.42290726,0.454119,0.29730603,0.5198453,-0.13170291,0.17976514,755.09155,806.26373,798.20514,711.978,650.32965,0.3028564453125,0.21405029296875,0.9417724609375,4.344024658203125,-7.304840087890625,-2.6318359375,1,2.0,1.0,1.0,2.0,85.00
2021-03-30 09:39:01.086,0.86877465,0.35369247,0.5381723,0.85576695,0.34567463,0.27789885,0.040955458,0.004341761,0.54983616,0.01489034,0.24613051,0.17200938,0.4743843,1.025209,0.3934963,0.6654594,0.06454555,0.5198453,-0.15573531,0.07028024,836.08057,795.38464,798.20514,776.04395,780.4762,0.225830078125,0.24639892578125,0.95684814453125,4.97955322265625,-6.59454345703125,-0.40374755859375,1,1.0,1.0,1.0,1.0,85.00
2021-03-30 09:39:01.630,0.7105436,0.47252128,0.39537188,0.89407754,0.17983024,0.25445813,-0.15102798,0.0085049,0.55961335,0.32514682,0.13833845,0.25871506,0.4265087,0.9888891,0.2603716,0.6372103,0.06793037,0.71022356,-0.092349686,0.15485406,862.674,837.28937,827.619,894.10254,847.76556,0.26702880859375,0.20306396484375,0.954833984375,2.4822998046875,-11.065673828125,-5.061798095703125,1,1.0,1.0,1.0,1.0,85.00
2021-03-30 09:39:01.949,,,,,,,,,,,,,,,,,,,,,,,,,,,,,,,,,,,,,,/muse/elements/blink
2021-03-30 09:39:02.183,0.5182389,0.5864795,0.55955476,0.956759,0.011819955,0.3832331,-0.18278298,-0.042630147,0.38668647,0.5791785,-0.04400072,0.2091968,0.41999522,1.015167,0.20546187,0.58046466,0.11465261,0.70522594,0.013725789,0.16888346,742.1978,768.7912,796.99634,676.9231,725.6777,0.24530029296875,0.17498779296875,0.9434814453125,7.0880126953125,-13.226470947265625,4.6954345703125,1,1.0,1.0,1.0,1.0,85.00
2021-03-30 09:39:02.686,0.52835184,0.5463949,0.5739355,0.8590934,0.23564476,0.37912714,-0.13413566,0.072258495,0.3920087,0.5729774,0.26651642,0.3875232,0.44651902,1.0256352,0.19381057,0.65926933,0.13301578,0.670217,0.022946319,0.124157116,833.2601,817.5458,800.6227,758.315,801.8315,0.36285400390625,0.182861328125,0.9058837890625,7.77587890625,-9.43572998046875,7.34222412109375,1,1.0,1.0,1.0,1.0,85.00
2021-03-30 09:39:03.203,,,,,,,,,,,,,,,,,,,,,,,,,,,,,,,,,,,,,,/muse/elements/blink
2021-03-30 09:39:03.208,0.56878424,0.71799314,0.5255423,0.5071346,0.27648383,0.5244009,-0.18526493,0.19159491,0.38399953,0.5726241,0.34223711,0.315875,0.4635479,1.0461056,0.16123165,0.68951905,0.10166229,0.6821123,-0.10391569,0.051177453,857.03296,834.87177,814.7253,882.01465,885.64105,0.361572265625,0.17535400390625,0.9149169921875,4.194488525390625,-3.925323486328125,1.51031494140625,1,1.0,1.0,1.0,1.0,85.00
2021-03-30 09:39:03.536,,,,,,,,,,,,,,,,,,,,,,,,,,,,,,,,,,,,,,/muse/elements/blink
2021-03-30 09:39:03.724,0.6058461,0.71799314,0.34888127,0.62387574,0.37820816,0.5244009,-0.26753187,0.38875315,0.5983748,0.5726241,0.34123603,0.48560256,0.43921944,1.0461056,0.204203,0.6502337,0.14009948,0.6821123,-0.1716132,0.024208527,797.3993,826.0073,817.5458,870.32965,850.58606,0.34234619140625,0.1815185546875,0.9290771484375,4.358978271484375,-0.321502685546875,-1.6448974609375,1,1.0,1.0,1.0,1.0,85.00
2021-03-30 09:39:04.236,0.5846171,0.33567286,0.34970203,0.6517425,0.30378246,0.2035499,-0.40945578,0.47480094,0.60534525,0.2341368,0.36269268,0.53407454,0.4235357,0.964603,0.20908368,0.55008626,0.21083665,0.6959813,-0.16666867,-0.007828463,749.85345,812.3077,807.8755,730.9158,683.7729,0.2904052734375,0.11444091796875,0.9403076171875,3.0804443359375,-6.9384765625,8.321685791015625,1,1.0,1.0,1.0,1.0,85.00
2021-03-30 09:39:04.755,0.5484568,0.32166505,0.41235745,0.76461387,0.2750906,0.17840116,-0.22294617,0.48478222,0.6004731,0.24431749,0.22417256,0.5135325,0.39543733,0.9405227,0.2103812,0.4636626,0.27567205,0.72154343,-0.06541357,0.03372802,823.9927,791.3553,805.4579,737.76556,719.6337,0.2806396484375,0.08013916015625,0.95892333984375,3.170166015625,-2.400054931640625,10.086212158203125,1,1.0,1.0,1.0,1.0,85.00
2021-03-30 09:39:05.284,0.61055154,0.2888603,0.4479018,0.8619416,0.18015103,0.12184079,-0.17118989,0.4278759,0.5944038,0.2276375,0.2611949,0.6040581,0.3847315,0.90895385,0.21267143,0.45695853,0.23301019,0.7362726,-0.04218628,0.10451006,774.83514,810.293,809.0842,839.304,834.87177,0.2791748046875,0.10357666015625,0.9412841796875,9.13665771484375,-2.97576904296875,-11.252593994140625,1,1.0,1.0,1.0,1.0,85.00
2021-03-30 09:39:05.792,0.61311835,0.23102528,0.4062041,0.8645229,0.14406623,0.0027865442,-0.10697756,0.3605364,0.6079154,0.1718439,0.28348413,0.52089494,0.49023438,0.8856817,0.13250436,0.46544135,0.21089534,0.7775084,-0.075595506,0.13020317,834.4689,755.89746,826.8132,885.2381,731.31866,0.2850341796875,0.03253173828125,0.962890625,7.932891845703125,-4.94964599609375,-5.525360107421875,1,1.0,1.0,1.0,1.0,85.00
2021-03-30 09:39:05.984,,,,,,,,,,,,,,,,,,,,,,,,,,,,,,,,,,,,,,/muse/elements/blink
2021-03-30 09:39:06.296,0.81455904,0.23102528,0.29375353,0.8509938,0.23145069,0.0027865442,-0.20977835,0.3264026,0.6410921,0.1718439,0.26524758,0.4709055,0.47955018,0.8856817,0.083487555,0.4669234,0.06316701,0.7775084,-0.17538197,0.10577687,757.9121,803.0403,803.8461,785.31134,702.3077,0.285400390625,0.04449462890625,0.96014404296875,2.594451904296875,-1.517791748046875,17.3760986328125,1,1.0,1.0,1.0,1.0,85.00
2021-03-30 09:39:06.800,0.83279306,0.23102528,0.21932857,0.6773154,0.26716635,0.0027865442,-0.20640339,0.1060956,0.632733,0.1718439,0.07255037,0.3606177,0.47930384,0.8856817,0.026500693,0.42036143,0.019827027,0.7775084,-0.30508772,0.01902393,848.97437,784.90845,808.68134,847.76556,879.59705,0.28936767578125,0.03753662109375,0.97381591796875,6.856231689453125,-3.955230712890625,-11.521759033203125,1,1.0,1.0,1.0,1.0,90.00
2021-03-30 09:39:07.191,,,,,,,,,,,,,,,,,,,,,,,,,,,,,,,,,,,,,,/muse/elements/blink
2021-03-30 09:39:07.308,0.92836,0.23102528,0.2680136,0.6436878,0.24137034,0.0027865442,-0.2106891,0.12657799,0.53879356,0.1718439,0.22134972,0.3860087,0.3488231,0.8856817,0.19317237,0.40027937,-0.058269676,0.7775084,-0.2145926,-0.048141163,835.6777,751.8681,795.38464,778.0586,701.50183,0.28875732421875,0.07232666015625,0.9755859375,6.631927490234375,-7.334747314453125,-2.28790283203125,1,1.0,1.0,1.0,1.0,90.00
2021-03-30 09:39:07.821,0.8739998,0.23102528,0.70641816,0.680638,0.24532634,0.0027865442,0.15100384,0.10311006,0.51260906,0.1718439,0.66483766,0.37870434,0.38568276,0.8856817,0.36905262,0.3985425,0.042789478,0.7775084,-0.028424637,-0.083306134,748.24176,766.3736,798.60803,778.86444,753.8828,0.28228759765625,0.05133056640625,0.9564208984375,3.835601806640625,-0.530853271484375,-10.36285400390625,1,1.0,1.0,1.0,1.0,90.00
2021-03-30 09:39:07.987,,,,,,,,,,,,,,,,,,,,,,,,,,,,,,,,,,,,,,/muse/elements/blink
2021-03-30 09:39:08.327,0.7088498,0.23102528,0.8544698,0.49310103,0.060716838,0.0027865442,0.39006022,0.21281645,0.23651172,0.1718439,0.66483766,0.32954484,0.37947848,0.8856817,0.43863058,0.44970545,0.07739674,0.7775084,0.093519226,-0.1864562,759.92676,832.4542,830.0366,838.9011,819.15753,0.23614501953125,0.18310546875,0.96826171875,10.280609130859375,-5.196380615234375,-2.878570556640625,1,1.0,1.0,1.0,1.0,90.00
2021-03-30 09:39:08.635,,,,,,,,,,,,,,,,,,,,,,,,,,,,,,,,,,,,,,/muse/elements/blink
2021-03-30 09:39:08.856,0.7088498,0.23102528,0.9361369,0.49310103,0.060716838,0.0027865442,0.5393104,0.21281645,0.23651172,0.1718439,0.66193736,0.32954484,0.37947848,0.8856817,0.33119893,0.44970545,0.07739674,0.7775084,0.08390509,-0.1864562,753.8828,773.22345,791.3553,734.1392,712.381,0.2520751953125,0.17254638671875,0.954345703125,5.9515380859375,-7.37213134765625,11.880645751953125,1,1.0,1.0,1.0,1.0,90.00
2021-03-30 09:39:09.363,0.7088498,0.23102528,0.7784502,0.49310103,0.060716838,0.0027865442,0.41685247,0.21281645,0.23651172,0.1718439,0.253619,0.32954484,0.37947848,0.8856817,0.13519305,0.44970545,0.07739674,0.7775084,-0.062174223,-0.1864562,591.50183,788.93774,848.5714,644.2857,817.9487,0.28143310546875,0.1591796875,0.95068359375,3.267364501953125,-2.1533203125,-0.83740234375,1,1.0,1.0,1.0,1.0,90.00
2021-03-30 09:39:09.657,,,,,,,,,,,,,,,,,,,,,,,,,,,,,,,,,,,,,,/muse/elements/blink
2021-03-30 09:39:09.885,0.7088498,0.23102528,0.718714,0.49310103,0.060716838,0.0027865442,0.26971218,0.21281645,0.23651172,0.1718439,0.2048738,0.32954484,0.37947848,0.8856817,0.08384195,0.44970545,0.07739674,0.7775084,-0.14447206,-0.1864562,768.3883,841.31866,803.44324,815.9341,789.34064,0.24652099609375,0.094482421875,0.97711181640625,-3.70849609375,-3.895416259765625,4.007568359375,1,2.0,1.0,1.0,2.0,90.00
2021-03-30 09:39:09.959,,,,,,,,,,,,,,,,,,,,,,,,,,,,,,,,,,,,,,/muse/elements/blink
2021-03-30 09:39:10.401,0.7088498,0.23102528,0.65539205,0.49310103,0.060716838,0.0027865442,-0.091584966,0.21281645,0.23651172,0.1718439,-0.077974625,0.32954484,0.37947848,0.8856817,0.010695317,0.44970545,0.07739674,0.7775084,-0.3760738,-0.1864562,774.43225,767.98535,790.14655,741.79486,694.2491,0.19415283203125,0.0787353515625,0.97247314453125,5.375823974609375,-3.207550048828125,-8.022613525390625,1,2.0,1.0,1.0,2.0,90.00
2021-03-30 09:39:10.949,0.7088498,0.23102528,0.57921183,0.49310103,0.060716838,0.0027865442,0.24114062,0.21281645,0.23651172,0.1718439,0.06767684,0.32954484,0.37947848,0.8856817,0.24615517,0.44970545,0.07739674,0.7775084,-0.11862504,-0.1864562,728.9011,802.23444,794.17584,747.4359,705.5311,0.240966796875,0.1612548828125,0.96502685546875,5.7720947265625,-9.58526611328125,4.32159423828125,1,2.0,1.0,1.0,2.0,90.00
2021-03-30 09:39:11.457,0.7088498,0.23102528,0.459349,0.49310103,0.060716838,0.0027865442,0.105726,0.21281645,0.23651172,0.1718439,0.06767684,0.32954484,0.37947848,0.8856817,0.1508158,0.44970545,0.07739674,0.7775084,-0.09687655,-0.1864562,850.58606,816.337,825.2015,866.7033,761.53845,0.26873779296875,0.144287109375,0.95361328125,6.10107421875,-11.783447265625,5.271148681640625,1,2.0,1.0,1.0,2.0,90.00
2021-03-30 09:39:11.466,,,,,,,,,,,,,,,,,,,,,,,,,,,,,,,,,,,,,,/muse/elements/blink
2021-03-30 09:39:11.960,0.7088498,0.23102528,0.46433935,1.047495,0.060716838,0.0027865442,0.013034347,0.8982917,0.23651172,0.1718439,0.1464315,1.1731704,0.37947848,0.8856817,0.17292328,0.5394821,0.07739674,0.7775084,-0.15698165,0.17774965,736.1539,790.54944,796.5934,722.0513,651.9414,0.298583984375,0.16845703125,0.96331787109375,4.269256591796875,-5.465545654296875,-0.1495361328125,1,1.0,1.0,1.0,1.0,90.00
2021-03-30 09:39:12.463,1.0191983,0.23102528,0.32351294,0.5254927,0.65417826,0.0027865442,-0.17224887,0.6047156,0.54318994,0.1718439,0.06516197,0.76974016,0.48049483,0.8856817,0.16518302,0.5251948,0.07011886,0.7775084,-0.248107,0.063364886,741.79486,795.78754,805.8608,774.43225,674.5055,0.29388427734375,0.14178466796875,0.937255859375,3.745880126953125,-4.269256591796875,9.151611328125,1,1.0,1.0,1.0,1.0,90.00
2021-03-30 09:39:12.651,,,,,,,,,,,,,,,,,,,,,,,,,,,,,,,,,,,,,,/muse/elements/blink
2021-03-30 09:39:12.997,0.9952044,0.23102528,0.40288126,0.747407,0.7698965,0.0027865442,0.017745089,0.7568561,0.6582777,0.1718439,0.1698926,0.9577007,0.4817574,0.8856817,0.21764678,0.58066344,0.009255187,0.7775084,-0.34093347,0.03874797,770.0,817.9487,804.65204,817.9487,726.08057,0.32080078125,0.179443359375,0.94500732421875,4.792633056640625,-4.844970703125,2.385101318359375,1,1.0,1.0,1.0,1.0,90.00
2021-03-30 09:39:13.540,0.85074306,0.23102528,0.3382804,0.79866934,0.6910739,0.0027865442,-0.008580517,0.7149611,0.65723395,0.1718439,0.10164141,0.953868,0.43858734,0.8856817,0.15735745,0.5551825,-0.035086367,0.7775084,-0.34853858,0.04190848,762.74725,774.43225,798.20514,743.00366,732.9304,0.30828857421875,0.13677978515625,0.95989990234375,2.729034423828125,-2.938385009765625,1.60003662109375,1,1.0,1.0,1.0,1.0,90.00
2021-03-30 09:39:13.884,,,,,,,,,,,,,,,,,,,,,,,,,,,,,,,,,,,,,,/muse/elements/blink
2021-03-30 09:39:14.072,0.78478616,0.23102528,0.299089,0.84576523,0.61419785,0.0027865442,-0.070626535,0.71747464,0.61424536,0.1718439,0.034033768,0.953868,0.46922746,0.8856817,0.17280614,0.49556765,-0.0035569603,0.7775084,-0.34039864,0.13580562,811.9048,806.6667,805.05493,751.4652,717.2161,0.26885986328125,0.09625244140625,0.9822998046875,4.65057373046875,-1.016845703125,3.013153076171875,1,1.0,1.0,1.0,1.0,90.00
2021-03-30 09:39:14.612,1.103327,0.23102528,0.40673685,0.6096,0.6401199,0.0027865442,0.101217516,0.33099976,0.51804596,0.1718439,0.28618157,0.3982124,0.4227177,0.8856817,0.28424788,0.3317157,0.084101826,0.7775084,-0.3610084,0.18305816,807.8755,771.2088,799.011,715.2015,730.5128,0.2359619140625,0.19464111328125,0.95330810546875,12.66571044921875,-5.061798095703125,-3.84307861328125,1,1.0,1.0,1.0,1.0,90.00
2021-03-30 09:39:15.130,1.2389015,0.23102528,0.44894472,0.541174,0.82165647,0.0027865442,0.15728433,0.31885636,0.8781603,0.1718439,0.30623636,0.1387177,0.6186739,0.8856817,0.3397847,0.24310027,0.10087656,0.7775084,-0.32765457,0.16852492,843.73627,811.50183,808.68134,823.5897,872.3443,0.2015380859375,0.2982177734375,0.9443359375,18.602294921875,0.261688232421875,6.519775390625,1,1.0,1.0,1.0,1.0,90.00
2021-03-30 09:39:15.310,,,,,,,,,,,,,,,,,,,,,,,,,,,,,,,,,,,,,,/muse/elements/blink
2021-03-30 09:39:15.657,1.1302413,0.23102528,0.43010092,0.7890941,0.877768,0.0027865442,0.14779139,0.36664647,1.0724404,0.1718439,0.2918369,0.75301844,0.74219066,0.8856817,0.2795053,0.6478938,0.28532687,0.7775084,-0.27088282,0.07344619,844.5421,834.0659,816.7399,898.93774,809.4872,0.244140625,0.34417724609375,0.91339111328125,6.41510009765625,-4.90478515625,2.52716064453125,1,1.0,1.0,1.0,1.0,90.00
2021-03-30 09:39:16.162,0.85960615,0.23102528,0.076500006,0.68561965,0.8507927,0.0027865442,-0.308796,0.4305349,1.0905294,0.1718439,0.062108926,0.75301844,0.7176492,0.8856817,0.20986216,0.5631794,0.23838344,0.7775084,-0.27210265,0.06796454,732.1245,809.4872,806.26373,834.87177,736.55676,0.2459716796875,0.32177734375,0.92803955078125,3.27484130859375,-3.058013916015625,6.400146484375,1,1.0,1.0,1.0,1.0,90.00
2021-03-30 09:39:16.423,,,,,,,,,,,,,,,,,,,,,,,,,,,,,,,,,,,,,,/muse/elements/blink
2021-03-30 09:39:16.592,,,,,,,,,,,,,,,,,,,,,,,,,,,,,,,,,,,,,,/muse/elements/blink
2021-03-30 09:39:16.673,0.6802885,0.23102528,-0.16589935,0.8009323,0.8359364,0.0027865442,-0.33862925,0.5209698,1.0378442,0.1718439,-0.02534403,0.9339258,0.6913047,0.8856817,0.30336487,0.58611953,0.30724302,0.7775084,-0.28625453,0.09324708,768.7912,803.0403,792.96704,726.08057,683.7729,0.27325439453125,0.28753662109375,0.9007568359375,3.401947021484375,-4.605712890625,1.07666015625,1,1.0,1.0,1.0,1.0,90.00
2021-03-30 09:39:17.181,0.5701921,0.23102528,-0.18799382,0.90424913,0.8106617,0.0027865442,-0.25835285,0.64215076,0.96474034,0.1718439,0.07774458,0.92480177,0.6033663,0.8856817,0.3085508,0.6125271,0.11475843,0.7775084,-0.19307292,0.3195271,877.5824,779.67035,798.20514,790.9524,868.71796,0.23870849609375,0.2813720703125,0.93121337890625,3.94775390625,-4.8748779296875,5.57769775390625,1,1.0,1.0,1.0,1.0,90.00
2021-03-30 09:39:17.702,0.5213957,0.23102528,-0.2514761,1.0111468,0.5523911,0.0027865442,-0.21619628,0.70316154,0.7321116,0.1718439,0.089741684,0.9229077,0.58975834,0.8856817,0.30480224,0.67316103,0.0882136,0.7775084,-0.1058204,0.40709475,859.45056,817.5458,805.8608,866.30035,865.89746,0.25177001953125,0.22564697265625,0.9554443359375,2.878570556640625,-0.43365478515625,2.6019287109375,1,1.0,1.0,1.0,1.0,90.00
2021-03-30 09:39:18.246,0.5213957,0.42538863,-0.23570327,1.018291,0.5523911,-0.043348007,-0.14301129,0.7100782,0.7321116,0.3813629,-0.0010468306,0.83997506,0.58975834,0.8597268,0.16672026,0.6961374,0.0882136,0.37750039,-0.10816639,0.60312194,844.1392,809.4872,808.2784,824.3956,802.23444,0.3074951171875,0.21240234375,0.909423828125,10.048828125,-10.220794677734375,1.981353759765625,1,1.0,1.0,1.0,1.0,90.00
2021-03-30 09:39:18.770,0.5213957,0.42538863,0.0029796634,1.001112,0.5523911,-0.043348007,-0.09695222,0.6088389,0.7321116,0.3813629,-0.16206874,0.6975834,0.58975834,0.8597268,0.17740367,0.6359995,0.0882136,0.37750039,-0.17134781,0.54275274,863.0769,823.9927,819.9634,910.2198,907.8022,0.2879638671875,0.21734619140625,0.91705322265625,3.2000732421875,-6.871185302734375,11.0955810546875,1,1.0,1.0,1.0,1.0,90.00
2021-03-30 09:39:19.135,,,,,,,,,,,,,,,,,,,,,,,,,,,,,,,,,,,,,,/muse/elements/blink
2021-03-30 09:39:19.279,0.5213957,0.42538863,0.34951797,1.001112,0.5523911,-0.043348007,0.051031258,0.6088389,0.7321116,0.3813629,0.09626206,0.6975834,0.58975834,0.8597268,0.13294677,0.6359995,0.0882136,0.37750039,-0.25047317,0.54275274,794.57874,813.1135,837.6923,832.0513,708.7546,0.33514404296875,0.20361328125,0.9300537109375,3.3197021484375,-5.42816162109375,2.75146484375,1,1.0,1.0,1.0,1.0,90.00
2021-03-30 09:39:19.792,0.5213957,0.42538863,0.741893,1.001112,0.5523911,-0.043348007,0.16844097,0.6088389,0.7321116,0.3813629,0.4831006,0.6975834,0.58975834,0.8597268,0.16881062,0.6359995,0.0882136,0.37750039,-0.31092975,0.54275274,739.3773,783.2967,783.2967,728.49817,649.12085,0.3353271484375,0.19537353515625,0.92877197265625,7.170257568359375,-3.895416259765625,-1.42059326171875,1,1.0,1.0,1.0,1.0,90.00
2021-03-30 09:39:20.335,0.5213957,0.42538863,0.90078443,1.001112,0.5523911,-0.043348007,0.22318728,0.6088389,0.7321116,0.3813629,0.5115041,0.6975834,0.58975834,0.8597268,0.20470352,0.6359995,0.0882136,0.37750039,-0.40596798,0.54275274,855.82416,824.3956,811.0989,853.4066,808.2784,0.31683349609375,0.17919921875,0.9246826171875,6.482391357421875,-3.60382080078125,-2.7813720703125,1,2.0,1.0,1.0,2.0,90.00
2021-03-30 09:39:20.557,,,,,,,,,,,,,,,,,,,,,,,,,,,,,,,,,,,,,,/muse/elements/blink
2021-03-30 09:39:20.879,0.5213957,0.42538863,0.8724755,1.001112,0.5523911,-0.043348007,0.24659452,0.6088389,0.7321116,0.3813629,0.50890255,0.6975834,0.58975834,0.8597268,0.23218408,0.6359995,0.0882136,0.37750039,-0.4702127,0.54275274,874.35895,847.3626,826.4103,846.55676,774.83514,0.30694580078125,0.15191650390625,0.96917724609375,5.1141357421875,-3.66363525390625,-5.39825439453125,1,2.0,1.0,1.0,2.0,90.00
2021-03-30 09:39:21.389,0.5213957,0.42538863,0.6484606,1.001112,0.5523911,-0.043348007,0.2076672,0.6088389,0.7321116,0.3813629,0.4374792,0.6975834,0.58975834,0.8597268,0.14495844,0.6359995,0.0882136,0.37750039,-0.45743093,0.54275274,873.1502,799.41394,810.293,848.97437,900.54944,0.29608154296875,0.1561279296875,0.92864990234375,7.2076416015625,-9.144134521484375,1.1663818359375,1,2.0,1.0,1.0,2.0,90.00
2021-03-30 09:39:21.939,0.5213957,0.8788796,0.41115203,1.4206116,0.5523911,0.43105167,0.16816491,1.1861802,0.7321116,0.30850932,0.3052201,1.0010422,0.58975834,0.8027315,0.035277538,0.65420294,0.0882136,0.55719876,-0.37050074,0.035540935,822.7839,838.49817,816.337,854.21246,804.65204,0.32403564453125,0.17095947265625,0.9351806640625,6.332855224609375,-3.51409912109375,0.201873779296875,1,1.0,1.0,1.0,1.0,90.00
2021-03-30 09:39:21.992,,,,,,,,,,,,,,,,,,,,,,,,,,,,,,,,,,,,,,/muse/elements/blink
2021-03-30 09:39:22.455,0.5213957,0.79116553,0.29303995,1.0735807,0.5523911,0.36302194,0.06363437,0.73494375,0.7321116,0.31678003,0.27193967,0.883227,0.58975834,0.82127523,-0.023741553,0.6130494,0.0882136,0.5673672,-0.38451487,-0.124500625,758.71796,789.7436,802.6374,782.0879,745.42126,0.29803466796875,0.200439453125,0.92901611328125,2.415008544921875,-5.435638427734375,-1.861724853515625,1,1.0,1.0,1.0,1.0,90.00
2021-03-30 09:39:22.976,0.6788557,0.5605417,-0.11906775,0.78631574,0.7355755,0.1931734,-0.11359653,0.44083402,0.6043896,0.2981668,0.1812419,0.5068566,0.34289744,0.85437375,-0.008668095,0.55006844,0.019698694,0.48939565,-0.4047691,-0.10198389,782.0879,824.7985,803.8461,815.5311,749.85345,0.295166015625,0.19671630859375,0.9384765625,4.777679443359375,-0.874786376953125,0.471038818359375,1,1.0,1.0,1.0,1.0,90.00
2021-03-30 09:39:23.385,,,,,,,,,,,,,,,,,,,,,,,,,,,,,,,,,,,,,,/muse/elements/blink
2021-03-30 09:39:23.503,1.0106102,0.28770605,0.08105288,1.0018075,0.7263318,0.058813453,-0.14406142,0.50428224,0.83548117,0.17804582,0.18034574,0.5838504,0.31027788,0.83682823,0.061830815,0.4859724,-0.03444725,0.44279677,-0.43586528,-0.08248352,846.9597,805.05493,810.696,819.15753,763.1502,0.3233642578125,0.21746826171875,0.95086669921875,5.921630859375,-5.031890869140625,2.684173583984375,1,1.0,1.0,1.0,1.0,90.00
2021-03-30 09:39:24.046,1.0663658,0.3675487,0.48160082,1.059725,0.6399909,0.19496259,-0.20428237,0.49977,0.8369191,0.2371587,0.019747453,0.4956672,0.3470627,0.758006,0.0762168,0.3932454,-0.115834,0.42156264,-0.39317715,-0.040794533,851.79486,817.9487,818.7546,872.74725,815.5311,0.300048828125,0.20111083984375,0.93701171875,4.7552490234375,-3.805694580078125,1.966400146484375,1,1.0,1.0,1.0,1.0,90.00
2021-03-30 09:39:24.565,0.98158634,0.38058105,0.5818627,1.1847975,0.41883358,0.22939318,-0.11665239,0.38424182,0.81888634,0.24948621,0.24037474,0.59402734,0.26296625,0.7194404,0.13974802,0.3111062,-0.10744728,0.48564592,-0.37105313,-0.0511475,852.6007,862.27106,856.2271,840.5128,770.40295,0.29376220703125,0.18017578125,0.976806640625,-0.9271240234375,-3.416900634765625,13.77227783203125,1,1.0,1.0,1.0,1.0,90.00
2021-03-30 09:39:25.074,0.7575713,0.35140195,0.844333,0.69877315,0.2204907,0.26061362,0.2451061,0.32550228,0.58013195,0.18615319,0.26183197,0.48035854,0.3561713,0.73718214,0.19301993,0.65838015,-0.07045006,0.486865,-0.3529051,0.21302447,859.0476,749.0476,815.5311,848.1685,925.5311,0.3216552734375,0.10821533203125,0.96356201171875,2.803802490234375,-6.841278076171875,-0.560760498046875,1,1.0,1.0,1.0,1.0,90.00
2021-03-30 09:39:25.611,0.27028608,0.3020042,0.84717476,0.46556386,0.2897342,0.18665835,0.40801746,0.33413172,0.78105885,-0.11256941,0.35345873,0.56025434,0.35327297,0.79372334,0.21803454,0.6078024,0.047815893,0.4984806,-0.34852847,0.18267284,846.9597,842.1245,823.5897,862.674,770.0,0.33599853515625,0.1370849609375,0.95428466796875,6.930999755859375,-7.693634033203125,-0.560760498046875,1,1.0,1.0,1.0,1.0,90.00
2021-03-30 09:39:25.942,,,,,,,,,,,,,,,,,,,,,,,,,,,,,,,,,,,,,,/muse/elements/blink
2021-03-30 09:39:26.149,0.36867476,0.3020042,0.93192333,0.6837034,0.36420605,0.18665835,0.6090128,0.5332934,0.8766132,-0.11256941,0.35905036,0.7305179,0.3833817,0.79372334,0.2584343,0.64990675,0.08844823,0.4984806,-0.3351029,0.20448013,780.87915,828.4249,814.3223,812.3077,706.7399,0.2900390625,0.14111328125,0.94775390625,6.77398681640625,-3.529052734375,-2.968292236328125,1,1.0,1.0,1.0,1.0,90.00
2021-03-30 09:39:26.162,,,,,,,,,,,,,,,,,,,,,,,,,,,,,,,,,,,,,,/muse/elements/blink
2021-03-30 09:39:26.674,0.4316642,0.3020042,0.78859514,1.0278349,0.47343338,0.18665835,0.4948851,0.83589983,0.8766132,-0.11256941,0.4048853,0.7548828,0.3154932,0.79372334,0.20465182,0.49035135,0.14155024,0.4984806,-0.22762378,-0.008526376,746.63007,788.93774,790.9524,718.022,703.5165,0.294189453125,0.22381591796875,0.9630126953125,10.579681396484375,-5.375823974609375,-5.4730224609375,1,1.0,1.0,1.0,1.0,90.00
2021-03-30 09:39:27.183,0.52687836,0.3020042,0.6088679,1.001063,0.41282672,0.18665835,0.2684694,0.8056139,0.7647706,-0.11256941,0.34134325,0.7671604,0.19238184,0.79372334,0.19116628,0.66213655,0.15985344,0.4984806,-0.19355312,0.07366584,758.315,819.9634,809.4872,763.95605,626.1539,0.25885009765625,0.2364501953125,0.92901611328125,2.46734619140625,-9.682464599609375,-1.906585693359375,1,1.0,1.0,1.0,1.0,90.00
2021-03-30 09:39:27.689,0.71037334,-0.14191744,0.35453963,0.29739672,0.2700672,0.15626228,0.0070656147,0.2659681,0.5101184,0.31573,0.37415472,0.5398184,0.12865451,0.9360472,0.14973474,0.54905844,-0.06797962,0.49105617,-0.14817801,0.12166284,859.45056,806.6667,813.1135,857.4359,880.40295,0.25408935546875,0.2567138671875,0.9383544921875,5.6524658203125,-4.14215087890625,3.192596435546875,1,1.0,1.0,1.0,1.0,90.00
2021-03-30 09:39:28.193,0.6351744,0.010281218,-0.005014673,0.3101738,0.19364747,0.16843766,-0.1172159,0.26611897,0.5357346,0.32070473,0.40166777,0.69977677,0.23851736,0.930047,0.16845343,0.5151641,-0.03164199,0.46347266,-0.21268736,0.05305518,860.2564,813.1135,810.696,827.619,818.7546,0.2728271484375,0.2752685546875,0.9393310546875,6.5496826171875,-5.136566162109375,6.392669677734375,1,1.0,1.0,1.0,1.0,90.00
2021-03-30 09:39:28.713,0.59798217,0.011166767,0.34920847,0.659961,0.16679464,0.18539959,0.09348344,0.37860984,0.5409607,0.29892674,0.48709717,0.7139655,0.28153035,0.92568046,0.16089399,0.52834535,0.021960407,0.49424624,-0.29001763,-0.032729328,740.18317,826.4103,814.3223,761.13556,704.3223,0.26849365234375,0.25848388671875,0.924560546875,2.983245849609375,-3.192596435546875,5.719757080078125,1,1.0,1.0,1.0,1.0,90.00
2021-03-30 09:39:29.217,0.6804985,0.20272723,0.4127976,0.8127114,0.07892573,0.19480646,0.13213266,0.34187102,0.38838685,0.13274308,0.38723445,0.7538485,0.34807014,0.93749493,0.17051426,0.5847791,0.003959419,0.42087463,-0.37413916,-0.08637944,779.2674,775.64105,812.3077,821.1722,792.5641,0.28948974609375,0.167724609375,0.95867919921875,-1.1065673828125,-7.514190673828125,2.833709716796875,1,1.0,1.0,1.0,1.0,90.00
2021-03-30 09:39:29.737,0.8674325,0.20272723,0.4293625,1.0241814,0.35314173,0.19480646,0.13797602,0.57232,0.4226217,0.13274308,0.40240437,0.7538485,0.32502574,0.93749493,0.19597723,0.6552125,0.014992199,0.42087463,-0.40590063,0.12986656,832.8571,819.9634,798.60803,815.9341,805.05493,0.28204345703125,0.14044189453125,0.93768310546875,4.0374755859375,-6.6094970703125,-1.996307373046875,1,1.0,1.0,1.0,1.0,90.00
2021-03-30 09:39:29.933,,,,,,,,,,,,,,,,,,,,,,,,,,,,,,,,,,,,,,/muse/elements/blink
2021-03-30 09:39:30.250,0.9743784,0.20272723,0.29473853,1.0965881,0.4380665,0.19480646,0.11143702,0.63507783,0.39593175,0.13274308,0.23388936,0.6975431,0.30835506,0.93749493,0.1642669,0.63184375,-0.043534346,0.42087463,-0.40998828,0.23445414,752.27106,798.20514,799.81683,738.5714,632.1978,0.2921142578125,0.1629638671875,0.95892333984375,5.36834716796875,-7.91046142578125,0.366363525390625,1,1.0,1.0,1.0,1.0,90.00
2021-03-30 09:39:30.760,0.9249181,0.20272723,0.24978194,1.1170306,0.49608228,0.19480646,0.08982451,0.7031053,0.39611298,0.13274308,0.21403973,0.6749876,0.28765878,0.93749493,0.13073698,0.5225023,-0.038921602,0.42087463,-0.36167958,0.2414005,768.7912,777.6557,800.6227,805.05493,958.97437,0.31982421875,0.1551513671875,0.94549560546875,7.4169921875,-2.908477783203125,0.10467529296875,1,1.0,1.0,1.0,1.0,90.00
2021-03-30 09:39:31.282,0.74946505,0.20272723,0.2664675,1.1438808,0.29089916,0.19480646,0.12810807,0.6588295,0.057303913,0.13274308,0.1872635,0.6815254,0.32054558,0.93749493,0.07418525,0.449133,-0.134616,0.42087463,-0.22535498,0.055480827,855.82416,820.7692,811.0989,829.2308,846.9597,0.32525634765625,0.17462158203125,0.93707275390625,5.57769775390625,-5.24871826171875,2.848663330078125,1,1.0,1.0,1.0,1.0,90.00
2021-03-30 09:39:31.791,0.6497292,0.20272723,0.12940972,1.0032398,0.21881263,0.19480646,0.024892453,0.5506348,0.17460755,0.13274308,0.060818445,0.56849563,0.2780532,0.93749493,0.03415717,0.41108114,-0.14060995,0.42087463,-0.25537327,0.03044354,841.31866,792.5641,800.6227,794.57874,748.24176,0.32696533203125,0.18115234375,0.91845703125,6.930999755859375,-6.57958984375,4.78515625,1,1.0,1.0,1.0,1.0,90.00
2021-03-30 09:39:32.335,0.7297156,0.20272723,0.57838464,1.1186297,0.38633657,0.19480646,0.26239136,0.70744604,0.33589306,0.13274308,0.30034152,0.6993285,0.24070568,0.93749493,-0.0203412,0.44634742,-0.02210057,0.42087463,-0.32826075,0.016838992,862.27106,782.49084,795.38464,873.1502,1180.989,0.3460693359375,0.1812744140625,0.9398193359375,5.39825439453125,-8.889923095703125,1.039276123046875,1,1.0,1.0,1.0,1.0,90.00
2021-03-30 09:39:32.481,,,,,,,,,,,,,,,,,,,,,,,,,,,,,,,,,,,,,,/muse/elements/blink
2021-03-30 09:39:32.796,,,,,,,,,,,,,,,,,,,,,,,,,,,,,,,,,,,,,,/muse/elements/blink
2021-03-30 09:39:32.873,0.6202086,0.20272723,0.636238,1.0591277,0.33476126,0.19480646,0.271921,0.67463285,0.6924911,0.13274308,0.3906212,0.70493966,0.30632573,0.93749493,0.023602156,0.4277768,-0.0035386966,0.42087463,-0.49888748,0.027605783,863.8828,836.8865,814.7253,865.09155,753.0769,0.3165283203125,0.18280029296875,0.9287109375,4.717864990234375,-4.344024658203125,4.29168701171875,1,1.0,1.0,1.0,1.0,90.00
2021-03-30 09:39:33.379,0.73234457,0.20272723,0.7748797,1.2144856,0.3019366,0.19480646,0.2989696,0.84237957,0.70913476,0.13274308,0.5697583,0.6976758,0.45187736,0.93749493,0.14032558,0.50317097,0.030362893,0.42087463,-0.43288592,0.03177398,822.7839,815.12823,809.4872,848.1685,823.9927,0.33148193359375,0.17547607421875,0.94189453125,2.803802490234375,-4.822540283203125,6.1309814453125,1,1.0,1.0,1.0,1.0,90.00
2021-03-30 09:39:33.840,,,,,,,,,,,,,,,,,,,,,,,,,,,,,,,,,,,,,,/muse/elements/blink
2021-03-30 09:39:33.893,0.7253666,0.20272723,0.6335487,1.2065309,0.18793651,0.19480646,0.1418925,0.82397443,0.7473502,0.13274308,0.52502704,0.69756967,0.46610945,0.93749493,0.16935149,0.5279005,-0.070524104,0.42087463,-0.47078875,0.06231174,734.5421,831.2454,792.1612,744.61536,680.14655,0.3511962890625,0.17901611328125,0.94317626953125,8.142242431640625,-4.702911376953125,-8.695526123046875,1,1.0,1.0,1.0,1.0,90.00
2021-03-30 09:39:34.441,1.0131431,0.20272723,0.83639723,1.2065309,0.4854153,0.19480646,0.2987655,0.82397443,0.7553658,0.13274308,0.51875746,0.69756967,0.58533335,0.93749493,0.13186106,0.5279005,-0.025518056,0.42087463,-0.47025943,0.06231174,780.07324,785.31134,784.10254,735.7509,670.87915,0.2818603515625,0.22113037109375,0.90087890625,13.136749267578125,-5.78704833984375,6.228179931640625,1,1.0,1.0,1.0,1.0,90.00
2021-03-30 09:39:34.955,1.0599597,0.20272723,0.79223144,1.2065309,0.6941681,0.19480646,0.29347795,0.82397443,0.7206793,0.13274308,0.36300182,0.69756967,0.5660835,0.93749493,0.10358275,0.5279005,0.06136184,0.42087463,-0.447619,0.06231174,837.28937,794.17584,800.2198,771.6117,820.7692,0.29400634765625,0.21630859375,0.9320068359375,2.624359130859375,-2.908477783203125,1.757049560546875,1,1.0,1.0,1.0,1.0,90.00
2021-03-30 09:39:35.493,1.0616964,0.20272723,0.73896605,0.9710257,0.71103275,0.19480646,0.32152104,0.7126232,0.70879257,0.13274308,0.3293671,0.89570975,0.5553444,0.93749493,0.11111599,0.515774,0.07081212,0.42087463,-0.35988227,0.16881563,847.3626,850.18317,826.8132,865.09155,778.46155,0.33404541015625,0.2445068359375,0.92254638671875,4.0374755859375,-3.09539794921875,2.115936279296875,1,1.0,1.0,1.0,1.0,90.00
2021-03-30 09:39:36.036,0.6459662,0.29819682,0.38262635,0.72776407,0.47116068,0.018434927,0.065630816,0.5996201,0.62248445,0.070223175,0.11745504,0.76296747,0.30089957,0.8152216,0.08711,0.37219205,0.08532936,0.2397115,-0.35682052,0.057437725,778.0586,815.5311,813.5165,821.5751,791.3553,0.30078125,0.2222900390625,0.9190673828125,4.418792724609375,-5.36834716796875,-0.299072265625,1,1.0,1.0,1.0,1.0,90.00
2021-03-30 09:39:36.431,,,,,,,,,,,,,,,,,,,,,,,,,,,,,,,,,,,,,,/muse/elements/blink
2021-03-30 09:39:36.562,0.41292167,0.1872508,0.08040482,0.43523303,0.017578246,0.087282546,-0.08326559,0.44089314,0.4797545,0.24046612,0.010666784,0.62586904,0.2767864,0.7889909,0.07909304,0.24787162,-0.026385015,0.29210478,-0.4481501,-0.050687525,838.0952,834.4689,816.337,852.6007,873.95605,0.29595947265625,0.20416259765625,0.94921875,1.77947998046875,-3.84307861328125,-3.1103515625,1,1.0,1.0,1.0,1.0,90.00
2021-03-30 09:39:37.082,0.47128555,0.04873972,0.022000087,0.3619701,0.05429254,0.27180266,-0.062653996,0.39333665,0.45023623,0.38246584,0.14484335,0.54543424,0.35240725,0.8445014,0.100269355,0.22678514,0.07808289,0.25390077,-0.6092354,-0.049489,761.9414,805.4579,808.2784,788.93774,685.38464,0.28076171875,0.21826171875,0.9364013671875,6.3702392578125,-1.8243408203125,2.444915771484375,1,1.0,1.0,1.0,1.0,90.00
2021-03-30 09:39:37.631,0.71862304,-0.047886543,-0.012643656,0.7397395,0.5840342,0.23949449,-0.015527397,0.6749729,0.39268604,0.38552877,0.16897464,0.3250753,0.33137172,0.8574801,0.10230303,0.38726866,0.1002689,0.25444224,-0.5585709,0.041823685,780.87915,782.49084,787.326,740.18317,754.68866,0.25384521484375,0.22515869140625,0.958740234375,4.14215087890625,-10.549774169921875,-12.03765869140625,1,1.0,1.0,1.0,1.0,90.00
2021-03-30 09:39:37.844,,,,,,,,,,,,,,,,,,,,,,,,,,,,,,,,,,,,,,/muse/elements/blink
2021-03-30 09:39:38.167,0.89736277,-0.08048863,0.4444137,0.9483057,0.84570664,0.21890843,0.14931121,0.9271345,0.6218543,0.37256247,0.42199227,0.49744725,0.2843422,0.9213109,0.1927373,0.4376991,0.26248863,0.19014068,-0.36118907,0.08213592,828.4249,827.619,813.5165,871.9414,790.54944,0.30535888671875,0.25079345703125,0.93353271484375,10.63201904296875,-6.930999755859375,-1.592559814453125,1,1.0,1.0,1.0,1.0,85.00
2021-03-30 09:39:38.703,0.89736277,-0.10124539,0.59301555,0.9483057,0.84570664,-0.1673256,0.1201532,0.9271345,0.6218543,0.01722075,0.42229164,0.49744725,0.2843422,0.8726697,0.1968841,0.4376991,0.26248863,0.24806778,-0.34544426,0.08213592,762.74725,802.23444,806.6667,802.6374,763.95605,0.29071044921875,0.2774658203125,0.91656494140625,7.304840087890625,-4.66552734375,2.699127197265625,1,1.0,1.0,1.0,1.0,85.00
2021-03-30 09:39:39.154,,,,,,,,,,,,,,,,,,,,,,,,,,,,,,,,,,,,,,/muse/elements/blink
2021-03-30 09:39:39.228,0.9493817,-0.10124539,0.579489,0.9483057,0.95281816,-0.1673256,0.06869325,0.9271345,0.6218543,0.01722075,0.45500916,0.49744725,0.29266593,0.8726697,0.20345625,0.4376991,0.34569767,0.24806778,-0.36221614,0.08213592,747.8388,807.0696,797.3993,713.9927,611.6484,0.312255859375,0.28179931640625,0.91143798828125,4.97955322265625,-5.15899658203125,1.547698974609375,1,1.0,1.0,1.0,1.0,85.00
2021-03-30 09:39:39.736,0.56945956,0.60852283,0.32225806,0.9483057,0.31285146,0.15944509,-0.15044826,0.9271345,0.18788952,-0.027320832,0.35963362,0.49744725,0.119578436,0.6766693,0.15036254,0.4376991,0.067746334,0.45350915,-0.46831033,0.08213592,838.0952,787.72894,803.44324,794.9817,782.8938,0.3096923828125,0.2939453125,0.90399169921875,5.196380615234375,-6.452484130859375,2.093505859375,1,1.0,1.0,1.0,1.0,85.00
2021-03-30 09:39:40.291,0.62283653,0.45276022,0.22600031,1.1138735,0.37158972,0.019553188,-0.032498974,0.737507,0.56169516,0.029797085,0.34755218,0.76621693,0.3383765,0.7495209,0.13905191,0.36798847,0.11347214,0.4169586,-0.42315808,-0.14935493,789.34064,796.5934,789.7436,729.707,726.08057,0.31781005859375,0.271728515625,0.905029296875,4.29168701171875,-5.802001953125,1.62994384765625,1,1.0,1.0,1.0,1.0,85.00
2021-03-30 09:39:40.567,,,,,,,,,,,,,,,,,,,,,,,,,,,,,,,,,,,,,,/muse/elements/blink
2021-03-30 09:39:40.831,0.7906366,0.45611385,0.52404076,1.0570608,0.5255046,0.06218412,0.1285349,0.93654996,0.92222136,0.3165585,0.3082456,0.8740452,0.39884275,0.75485116,0.12818755,0.3788678,0.11302246,0.38107222,-0.49772185,-0.06007002,671.28204,813.5165,819.5604,651.9414,799.011,0.2835693359375,0.32244873046875,0.921875,9.607696533203125,-1.786956787109375,0.261688232421875,1,1.0,1.0,1.0,1.0,85.00
2021-03-30 09:39:40.985,,,,,,,,,,,,,,,,,,,,,,,,,,,,,,,,,,,,,,/muse/elements/blink
2021-03-30 09:39:41.351,0.85572636,0.33632356,0.5892018,1.0516037,0.5869055,0.25084493,0.31066978,0.9522368,0.9179343,0.58104074,0.37860182,0.8422806,0.4793984,0.83528554,0.03308938,0.37342966,0.123189464,0.28151673,-0.3975896,-0.062801436,848.1685,788.93774,811.50183,793.7729,761.9414,0.3087158203125,0.2938232421875,0.91632080078125,6.168365478515625,-4.538421630859375,6.138458251953125,1,1.0,1.0,1.0,1.0,85.00
2021-03-30 09:39:41.854,1.0057365,0.52694196,0.63104576,1.1695362,0.728759,0.54150146,0.48651364,1.1404346,0.90899146,0.599874,0.37652138,0.6728523,0.49919325,0.86314297,0.008837092,0.41143218,0.1121217,0.3075836,-0.35902396,0.04391654,770.0,832.8571,812.3077,788.93774,713.1868,0.32757568359375,0.30120849609375,0.89117431640625,6.183319091796875,-12.194671630859375,-2.863616943359375,1,1.0,1.0,1.0,1.0,85.00
2021-03-30 09:39:41.886,,,,,,,,,,,,,,,,,,,,,,,,,,,,,,,,,,,,,,/muse/elements/blink
2021-03-30 09:39:42.365,1.0333717,0.51583153,0.4405672,1.1986219,0.7397887,0.5928225,0.39691857,1.1643957,0.908401,0.6033938,0.34852904,0.67116416,0.5028657,0.906855,0.0426625,0.4402818,0.101017594,0.30408493,-0.2780853,0.07932118,753.0769,778.86444,795.78754,726.08057,722.8571,0.3314208984375,0.27685546875,0.90179443359375,1.801910400390625,-11.6339111328125,14.93865966796875,1,1.0,1.0,1.0,1.0,85.00
2021-03-30 09:39:42.872,1.2663828,0.65688133,0.52204484,1.5196447,0.7436109,0.6088088,0.27156702,0.8716167,0.44680604,0.58322906,0.32749167,0.3851659,0.5474846,0.8354867,0.09301127,0.20149788,0.24359117,0.41078427,-0.29555723,-0.0087180585,859.45056,764.7619,794.17584,814.3223,1164.0659,0.3795166015625,0.23223876953125,0.876220703125,4.77020263671875,-2.572021484375,18.40789794921875,1,1.0,1.0,1.0,1.0,85.00
2021-03-30 09:39:43.394,1.2111686,0.6169068,0.60378873,1.481274,0.62643325,0.44401345,0.09991421,0.8265643,0.59143275,0.48951998,0.19997323,0.5955035,0.48051924,0.7799478,0.15682268,0.34630865,0.17787948,0.41827354,-0.2693277,-0.071426794,854.61536,845.34796,822.7839,851.39197,801.4286,0.39947509765625,0.2261962890625,0.8939208984375,6.639404296875,-3.536529541015625,-2.220611572265625,1,1.0,1.0,1.0,1.0,85.00
2021-03-30 09:39:43.955,1.1863922,0.7527515,0.6886008,1.4471987,0.60144323,0.58832854,0.2467768,0.81206954,0.6795131,0.47114363,0.32498494,0.6452105,0.4125271,0.7627885,0.11909179,0.49934807,0.08877845,0.4074816,-0.339596,-0.0067226267,884.83514,772.01465,821.978,855.0183,929.5604,0.389892578125,0.2454833984375,0.9083251953125,6.317901611328125,-4.254302978515625,1.413116455078125,1,1.0,1.0,1.0,1.0,85.00
2021-03-30 09:39:44.363,,,,,,,,,,,,,,,,,,,,,,,,,,,,,,,,,,,,,,/muse/elements/blink
2021-03-30 09:39:44.481,1.0900556,0.73499566,0.6156768,1.2913711,0.55965936,0.6352523,0.25082394,0.79973316,0.67488635,0.55215687,0.3270407,0.6538892,0.33945593,0.88044035,0.08353683,0.61265624,-0.05785802,0.11532073,-0.43606925,0.09107565,850.58606,842.52747,828.8278,871.9414,807.0696,0.3946533203125,0.26519775390625,0.8883056640625,5.121612548828125,0.201873779296875,-7.596435546875,1,1.0,1.0,1.0,1.0,85.00
2021-03-30 09:39:45.000,1.0744388,0.73499566,0.5831956,1.231062,0.5979885,0.6352523,0.23102596,0.80916464,0.5941446,0.55215687,0.447364,0.45597577,0.29946062,0.88044035,0.07696082,0.66441834,-0.20385882,0.11532073,-0.5252398,0.18497573,859.85345,810.293,817.5458,868.71796,894.90845,0.18206787109375,0.23968505859375,0.9501953125,-4.59075927734375,-6.20574951171875,-3.9776611328125,1,1.0,1.0,1.0,1.0,85.00
2021-03-30 09:39:45.505,1.0571928,0.7788002,0.6694901,1.2025571,0.5524472,0.6056881,0.1742086,0.75855017,0.5877199,0.58459973,0.36110085,0.41748986,0.31357345,0.83294004,0.093614005,0.6857498,-0.19922726,0.082755916,-0.48844686,0.23990288,786.52014,820.7692,817.9487,837.28937,771.6117,0.2161865234375,0.224609375,0.9376220703125,7.888031005859375,-13.6676025390625,2.9608154296875,1,1.0,1.0,1.0,1.0,85.00
2021-03-30 09:39:45.919,,,,,,,,,,,,,,,,,,,,,,,,,,,,,,,,,,,,,,/muse/elements/blink
2021-03-30 09:39:46.032,1.0571928,0.8503528,0.8084313,1.2025571,0.5524472,0.555837,0.10742438,0.75855017,0.5877199,0.43498793,0.3641824,0.41748986,0.31357345,0.7568076,0.18976617,0.6857498,-0.19922726,-0.010300282,-0.3976122,0.23990288,759.5238,807.0696,803.8461,761.13556,563.2967,0.3026123046875,0.21807861328125,0.9256591796875,2.94586181640625,-6.691741943359375,2.100982666015625,1,1.0,1.0,1.0,1.0,85.00
2021-03-30 09:39:46.544,1.0571928,0.8503528,0.8455502,1.2025571,0.5524472,0.555837,0.25044295,0.75855017,0.5877199,0.43498793,0.6521005,0.41748986,0.31357345,0.7568076,0.23053594,0.6857498,-0.19922726,-0.010300282,-0.36908722,0.23990288,816.7399,850.18317,791.3553,816.337,857.03296,0.36724853515625,0.15252685546875,0.9200439453125,0.49346923828125,-2.7215576171875,5.9814453125,1,1.0,1.0,1.0,1.0,85.00
2021-03-30 09:39:46.995,,,,,,,,,,,,,,,,,,,,,,,,,,,,,,,,,,,,,,/muse/elements/blink
2021-03-30 09:39:47.077,1.0571928,0.8503528,0.9481177,1.2025571,0.5524472,0.555837,0.5169583,0.75855017,0.5877199,0.43498793,0.689033,0.41748986,0.31357345,0.7568076,0.20006597,0.6857498,-0.19922726,-0.010300282,-0.30811194,0.23990288,850.989,797.8022,819.5604,845.34796,794.17584,0.392333984375,0.205078125,0.89459228515625,15.91064453125,-14.2059326171875,17.645263671875,1,2.0,1.0,1.0,2.0,85.00
2021-03-30 09:39:47.605,1.0571928,0.8503528,0.959332,1.2025571,0.5524472,0.555837,0.49064738,0.75855017,0.5877199,0.43498793,0.6758495,0.41748986,0.31357345,0.7568076,0.15254427,0.6857498,-0.19922726,-0.010300282,-0.26263267,0.23990288,856.2271,826.0073,829.2308,856.63007,823.9927,0.3885498046875,0.20703125,0.90655517578125,8.680572509765625,-6.65435791015625,3.641204833984375,1,2.0,1.0,1.0,2.0,85.00
2021-03-30 09:39:47.888,,,,,,,,,,,,,,,,,,,,,,,,,,,,,,,,,,,,,,/muse/elements/blink
2021-03-30 09:39:48.131,1.0571928,0.8503528,1.054926,1.2025571,0.5524472,0.555837,0.49787122,0.75855017,0.5877199,0.43498793,0.44925866,0.41748986,0.31357345,0.7568076,0.12936251,0.6857498,-0.19922726,-0.010300282,-0.083689846,0.23990288,764.35895,800.2198,820.7692,808.2784,725.2747,0.3792724609375,0.21881103515625,0.91400146484375,4.486083984375,-3.96270751953125,-7.5665283203125,1,2.0,1.0,1.0,2.0,90.00
2021-03-30 09:39:48.674,1.0571928,0.8503528,1.0389341,1.2025571,0.5524472,0.555837,0.41622502,0.75855017,0.5877199,0.43498793,0.31546572,0.41748986,0.31357345,0.7568076,0.14397666,0.6857498,-0.19922726,-0.010300282,-0.01755627,0.23990288,759.92676,801.4286,871.53845,740.18317,632.1978,0.3958740234375,0.25018310546875,0.942138671875,1.457977294921875,-2.7215576171875,-11.9927978515625,1,2.0,1.0,1.0,2.0,90.00
2021-03-30 09:39:49.182,1.0571928,0.8503528,1.1310554,1.2025571,0.5524472,0.555837,0.58672047,0.75855017,0.5877199,0.43498793,0.14397399,0.41748986,0.31357345,0.7568076,0.21017171,0.6857498,-0.19922726,-0.010300282,0.10680331,0.23990288,824.7985,833.2601,815.12823,877.5824,897.326,0.31951904296875,0.2703857421875,0.8997802734375,7.215118408203125,-6.878662109375,11.013336181640625,1,2.0,1.0,1.0,2.0,90.00
2021-03-30 09:39:49.621,,,,,,,,,,,,,,,,,,,,,,,,,,,,,,,,,,,,,,/muse/elements/blink
2021-03-30 09:39:49.701,1.0571928,0.8503528,1.1310554,1.2025571,0.5524472,0.555837,0.58672047,0.75855017,0.5877199,0.43498793,0.14397399,0.41748986,0.31357345,0.7568076,0.21017171,0.6857498,-0.19922726,-0.010300282,0.10680331,0.23990288,764.35895,785.7143,793.36993,738.97437,640.65936,0.340087890625,0.23687744140625,0.95892333984375,2.609405517578125,-11.20025634765625,5.27862548828125,1,2.0,1.0,1.0,2.0,90.00
2021-03-30 09:39:50.225,1.0571928,0.8503528,0.37030587,1.2025571,0.5524472,0.555837,0.55314076,0.75855017,0.5877199,0.43498793,0.26370537,0.41748986,0.31357345,0.7568076,0.17127924,0.6857498,-0.19922726,-0.010300282,-0.2832686,0.23990288,866.7033,822.381,805.05493,829.6337,814.7253,0.3739013671875,0.25750732421875,0.91455078125,7.19268798828125,-3.24493408203125,12.6507568359375,1,2.0,1.0,1.0,2.0,90.00
2021-03-30 09:39:50.585,,,,,,,,,,,,,,,,,,,,,,,,,,,,,,,,,,,,,,/muse/elements/blink
2021-03-30 09:39:50.731,1.0571928,0.8503528,0.9279505,1.2025571,0.5524472,0.555837,0.50921816,0.75855017,0.5877199,0.43498793,0.4682308,0.41748986,0.31357345,0.7568076,0.1567183,0.6857498,-0.19922726,-0.010300282,-0.33749044,0.23990288,885.2381,835.6777,815.12823,899.34064,834.4689,0.3443603515625,0.2108154296875,0.8955078125,7.499237060546875,1.71966552734375,-0.515899658203125,1,2.0,1.0,1.0,2.0,90.00
2021-03-30 09:39:51.054,,,,,,,,,,,,,,,,,,,,,,,,,,,,,,,,,,,,,,/muse/elements/blink
2021-03-30 09:39:51.285,1.0571928,0.8503528,1.1485649,1.2025571,0.5524472,0.555837,0.5333671,0.75855017,0.5877199,0.43498793,0.4682308,0.41748986,0.31357345,0.7568076,0.19585212,0.6857498,-0.19922726,-0.010300282,-0.3057791,0.23990288,765.56775,848.97437,801.4286,786.9231,667.25275,0.33685302734375,0.2708740234375,0.8912353515625,3.050537109375,-3.75335693359375,-17.667694091796875,1,2.0,1.0,1.0,2.0,90.00
2021-03-30 09:39:51.804,1.0571928,0.8503528,1.2291691,1.2025571,0.5524472,0.555837,0.5926188,0.75855017,0.5877199,0.43498793,0.62069577,0.41748986,0.31357345,0.7568076,0.23368438,0.6857498,-0.19922726,-0.010300282,-0.27247983,0.23990288,823.9927,807.0696,820.3663,863.0769,815.9341,0.30706787109375,0.29931640625,0.91961669921875,7.117919921875,1.428070068359375,-6.11602783203125,1,2.0,1.0,1.0,2.0,90.00
2021-03-30 09:39:52.323,1.0571928,0.8503528,1.1575221,1.2025571,0.5524472,0.555837,0.5525081,0.75855017,0.5877199,0.43498793,0.58826685,0.41748986,0.31357345,0.7568076,0.24000719,0.6857498,-0.19922726,-0.010300282,-0.10665883,0.23990288,726.4835,832.8571,805.8608,747.8388,655.16486,0.30419921875,0.2755126953125,0.91973876953125,2.026214599609375,-8.3441162109375,1.009368896484375,1,2.0,1.0,1.0,2.0,90.00
2021-03-30 09:39:52.551,,,,,,,,,,,,,,,,,,,,,,,,,,,,,,,,,,,,,,/muse/elements/blink
2021-03-30 09:39:52.857,1.0571928,0.85841364,0.8658088,1.2025571,0.5524472,0.45112973,0.37996045,0.75855017,0.5877199,0.5684282,0.5286364,0.41748986,0.31357345,0.7947619,0.104245186,0.6857498,-0.19922726,0.34350199,-0.11615335,0.23990288,825.2015,751.4652,815.12823,782.8938,678.93774,0.32708740234375,0.29449462890625,0.898193359375,7.22259521484375,-4.26177978515625,11.192779541015625,1,2.0,1.0,1.0,2.0,90.00
2021-03-30 09:39:53.375,1.0571928,0.85841364,0.6738506,1.2025571,0.5524472,0.45112973,0.16588694,0.75855017,0.5877199,0.5684282,0.4992267,0.41748986,0.31357345,0.7947619,-0.029136311,0.6857498,-0.19922726,0.34350199,-0.09534065,0.23990288,668.0586,815.12823,806.6667,612.4542,865.89746,0.3814697265625,0.28509521484375,0.8929443359375,7.409515380859375,-5.959014892578125,3.3795166015625,1,2.0,1.0,1.0,2.0,90.00
2021-03-30 09:39:53.552,,,,,,,,,,,,,,,,,,,,,,,,,,,,,,,,,,,,,,/muse/elements/blink
2021-03-30 09:39:53.891,1.0571928,0.84883666,0.67004913,1.2025571,0.5524472,0.3753817,0.22347194,0.75855017,0.5877199,0.5006428,0.39982426,0.41748986,0.31357345,0.7837446,-0.022025622,0.6857498,-0.19922726,0.3318977,-0.1590666,0.23990288,901.3553,829.2308,823.1868,933.1868,769.59705,0.3724365234375,0.33349609375,0.903564453125,2.250518798828125,-3.8580322265625,0.4486083984375,1,2.0,1.0,1.0,2.0,90.00
2021-03-30 09:39:53.929,,,,,,,,,,,,,,,,,,,,,,,,,,,,,,,,,,,,,,/muse/elements/blink
2021-03-30 09:39:54.404,1.0571928,0.84883666,0.91272265,1.2025571,0.5524472,0.3753817,0.539502,0.75855017,0.5877199,0.5006428,0.40414444,0.41748986,0.31357345,0.7837446,0.13872465,0.6857498,-0.19922726,0.3318977,-0.23331468,0.23990288,798.60803,810.293,808.2784,831.6484,831.6484,0.318115234375,0.3043212890625,0.90350341796875,1.39068603515625,-2.504730224609375,-0.904693603515625,1,2.0,1.0,1.0,2.0,90.00
2021-03-30 09:39:54.919,1.0571928,0.84883666,0.958177,1.2025571,0.5524472,0.3753817,0.55385244,0.75855017,0.5877199,0.5006428,0.3218827,0.41748986,0.31357345,0.7837446,0.19189276,0.6857498,-0.19922726,0.3318977,-0.33639887,0.23990288,812.71063,834.87177,821.5751,863.8828,838.0952,0.25177001953125,0.233642578125,0.9178466796875,3.45428466796875,-2.6318359375,-9.21142578125,1,2.0,1.0,1.0,2.0,90.00
