TimeStamp,Delta_TP9,Delta_AF7,Delta_AF8,Delta_TP10,Theta_TP9,Theta_AF7,Theta_AF8,Theta_TP10,Alpha_TP9,Alpha_AF7,Alpha_AF8,Alpha_TP10,Beta_TP9,Beta_AF7,Beta_AF8,Beta_TP10,Gamma_TP9,Gamma_AF7,Gamma_AF8,Gamma_TP10,RAW_TP9,RAW_AF7,RAW_AF8,RAW_TP10,AUX_RIGHT,Accelerometer_X,Accelerometer_Y,Accelerometer_Z,Gyro_X,Gyro_Y,Gyro_Z,HeadBandOn,HSI_TP9,HSI_AF7,HSI_AF8,HSI_TP10,Battery,Elements
2021-04-12 22:46:01.820,0.8794296,-0.05733252,-0.13800438,0.87080353,1.0993582,0.38011315,-0.033060957,0.86443865,1.173234,0.310574,0.099803604,0.61231625,0.67118186,-0.011311606,-0.01953768,0.48258245,0.23673664,-0.46786764,-0.40191975,0.16905515,764.7619,806.6667,796.99634,726.4835,707.1429,0.6986083984375,0.02642822265625,0.71337890625,4.725341796875,-3.925323486328125,1.2860107421875,1,1.0,1.0,1.0,1.0,50.00
2021-04-12 22:46:02.328,0.6407568,-0.105395794,-0.12891014,0.6692213,0.9811805,0.3072086,-0.13023974,0.6656335,1.1531442,0.27615005,-0.047144346,0.6394813,0.6759475,-0.07128894,0.0073059136,0.4144917,0.32785505,-0.5843915,-0.5002244,0.23120679,768.7912,786.1172,793.7729,747.4359,677.72894,0.70745849609375,0.0185546875,0.70947265625,4.747772216796875,-4.837493896484375,0.46356201171875,1,1.0,1.0,1.0,1.0,50.00
2021-04-12 22:46:02.493,,,,,,,,,,,,,,,,,,,,,,,,,,,,,,,,,,,,,,/muse/elements/blink
2021-04-12 22:46:02.838,0.57332116,-0.10810486,-0.096789554,0.6094524,0.7715575,0.0031828054,-0.14048319,0.6756987,1.1348382,0.16057219,-0.17452005,0.72690463,0.7369238,-0.16826524,-0.046536453,0.596913,0.310492,-0.6717295,-0.5036773,0.25390217,758.315,796.1905,811.0989,745.42126,721.2454,0.7294921875,0.017333984375,0.70697021484375,3.671112060546875,-3.72344970703125,0.777587890625,1,1.0,1.0,1.0,1.0,50.00
2021-04-12 22:46:03.342,0.6664559,0.24128225,0.06518198,0.709807,0.67222106,0.06627957,-0.13807794,0.6620235,0.9260326,0.14801762,-0.10691339,0.7896875,0.763095,-0.2751078,-0.043024134,0.6173569,0.3456664,-0.6664467,-0.52858216,0.1390568,805.05493,796.1905,808.2784,817.9487,709.5604,0.69873046875,0.0264892578125,0.75714111328125,3.1402587890625,4.38140869140625,6.527252197265625,1,1.0,1.0,1.0,1.0,50.00
2021-04-12 22:46:03.808,,,,,,,,,,,,,,,,,,,,,,,,,,,,,,,,,,,,,,/muse/elements/blink
2021-04-12 22:46:03.869,0.9332503,0.401874,0.12788685,0.9523799,0.78891134,0.16698964,-0.047185842,0.69174284,0.95575994,0.21240377,-0.014708183,0.8483988,0.7520359,-0.23562297,-0.05736452,0.617788,0.26936483,-0.6402896,-0.5414348,-0.013395405,770.80585,806.26373,809.4872,752.674,693.44324,0.5579833984375,0.00946044921875,0.87884521484375,0.874786376953125,21.06964111328125,12.4114990234375,1,1.0,1.0,1.0,1.0,50.00
2021-04-12 22:46:04.396,1.0676357,0.64685774,0.59308887,1.03146,0.8955242,0.24623658,0.13430712,0.6618774,0.97595537,0.08415348,0.017927406,0.9153214,0.7171532,-0.06513785,-0.089731626,0.4837188,0.24341807,-0.5806352,-0.5973832,0.041307304,790.14655,950.5128,668.86444,782.0879,671.685,0.13482666015625,-0.1075439453125,0.9404296875,0.55328369140625,32.053070068359375,12.7105712890625,1,1.0,1.0,1.0,1.0,50.00
2021-04-12 22:46:04.921,1.0236717,0.710485,0.6832117,0.97353375,0.9924861,0.27804357,0.1932844,0.6697712,1.0106066,0.08415348,0.017927406,0.9015415,0.6697154,0.041359738,-0.2011055,0.525122,0.09334835,-0.5167535,-0.55343837,0.16154303,862.27106,940.4396,843.3333,858.24176,824.3956,-0.1619873046875,-0.1243896484375,0.93310546875,10.48248291015625,18.026580810546875,2.28790283203125,1,1.0,1.0,1.0,1.0,50.00
2021-04-12 22:46:05.433,0.8230984,0.88415855,0.9252887,0.81209064,0.9061968,0.3590338,0.2996207,0.712404,1.0005707,0.06292169,-0.0636519,0.89849114,0.5917853,0.16834842,-0.21292223,0.46598613,-0.011320961,-0.43607455,-0.5251114,0.15320045,813.1135,868.315,840.9158,809.0842,666.8498,-0.27252197265625,-0.01263427734375,0.95074462890625,9.79461669921875,-7.6263427734375,-3.2000732421875,1,1.0,1.0,1.0,1.0,55.00
2021-04-12 22:46:05.938,0.574313,0.88415855,0.98327357,0.77158165,0.8767438,0.3590338,0.33448207,0.94804454,0.6858459,0.06292169,-0.08189662,0.7571513,0.35833645,0.16834842,-0.17426978,0.36631668,-0.22522824,-0.43607455,-0.5309425,-0.0154981855,836.08057,875.56775,813.1135,840.10986,781.685,-0.2254638671875,0.059814453125,0.99261474609375,5.301055908203125,-3.887939453125,2.093505859375,1,1.0,1.0,1.0,1.0,55.00
2021-04-12 22:46:06.442,0.50460255,0.88415855,0.98327357,0.8177027,0.76467013,0.3590338,0.33448207,0.9805356,0.56179065,0.06292169,-0.08189662,0.6131221,0.2387084,0.16834842,-0.17426978,0.24445817,-0.33243388,-0.43607455,-0.5309425,-0.14586724,766.3736,787.72894,786.1172,774.0293,766.3736,-0.1689453125,0.0487060546875,0.986083984375,6.041259765625,-5.62255859375,12.501220703125,1,1.0,1.0,1.0,1.0,55.00
2021-04-12 22:46:06.951,0.45837286,0.88415855,0.98327357,0.7437277,0.7302144,0.3590338,0.33448207,0.93835396,0.39906976,0.06292169,-0.08189662,0.46964857,0.2810061,0.16834842,-0.17426978,0.38517746,-0.35778394,-0.43607455,-0.5309425,-0.19110774,850.18317,805.05493,786.52014,850.18317,736.1539,-0.20416259765625,-0.004638671875,0.983154296875,9.6600341796875,7.85064697265625,-1.577606201171875,1,1.0,1.0,1.0,1.0,55.00
2021-04-12 22:46:07.073,,,,,,,,,,,,,,,,,,,,,,,,,,,,,,,,,,,,,,/muse/elements/blink
2021-04-12 22:46:07.467,0.049517136,0.88415855,0.7180304,0.02899146,0.3686976,0.3590338,-0.009353337,0.100169204,0.3960859,0.06292169,0.31832486,0.29153553,0.34382778,0.16834842,0.071069285,0.49354902,-0.3000337,-0.43607455,-0.55565184,-0.29761642,836.4835,854.61536,812.3077,826.8132,768.3883,-0.261962890625,0.07537841796875,0.9879150390625,1.173858642578125,-6.452484130859375,5.405731201171875,1,1.0,1.0,1.0,1.0,55.00
2021-04-12 22:46:07.976,-0.14115691,0.88415855,1.1354308,-0.07451769,0.17772022,0.3590338,0.08015568,0.15258005,0.2805907,0.06292169,0.441732,0.29153553,0.4621445,0.16834842,-0.005711231,0.534582,-0.2788327,-0.43607455,-0.51660216,-0.29000896,767.98535,813.1135,807.0696,782.8938,715.2015,-0.16748046875,0.1422119140625,0.9842529296875,7.34222412109375,-9.3609619140625,-5.96649169921875,1,1.0,1.0,1.0,1.0,55.00
2021-04-12 22:46:08.505,-0.14115691,0.88415855,1.1884478,-0.07451769,0.17772022,0.3590338,0.19737431,0.15258005,0.2805907,0.06292169,0.45801184,0.29153553,0.4621445,0.16834842,-0.03353674,0.534582,-0.2788327,-0.43607455,-0.48734415,-0.29000896,819.5604,796.99634,786.52014,835.2747,778.0586,-0.15533447265625,0.11846923828125,0.99298095703125,3.835601806640625,-9.10675048828125,0.485992431640625,1,1.0,1.0,1.0,1.0,55.00
2021-04-12 22:46:08.575,,,,,,,,,,,,,,,,,,,,,,,,,,,,,,,,,,,,,,/muse/elements/blink
2021-04-12 22:46:09.015,-0.14115691,1.2197622,1.2082853,-0.07451769,0.17772022,1.1182774,0.22414543,0.15258005,0.2805907,0.7185462,0.40538764,0.29153553,0.4621445,0.69720936,-0.16087662,0.534582,-0.2788327,0.06412549,-0.5029432,-0.29000896,839.707,778.86444,803.0403,795.78754,877.98535,-0.22021484375,0.06390380859375,0.9820556640625,-0.418701171875,-3.768310546875,-0.785064697265625,1,1.0,1.0,1.0,1.0,55.00
2021-04-12 22:46:09.529,-0.14115691,1.0439956,0.9210181,-0.07451769,0.17772022,0.9922454,0.10882112,0.15258005,0.2805907,0.7250526,0.27714935,0.29153553,0.4621445,0.49213764,-0.19560115,0.534582,-0.2788327,-0.047355775,-0.56421435,-0.29000896,835.2747,778.46155,792.1612,811.50183,917.0696,-0.1588134765625,0.05682373046875,0.979736328125,4.3963623046875,4.673004150390625,13.936767578125,1,2.0,1.0,1.0,2.0,55.00
2021-04-12 22:46:10.034,-0.024450624,0.7300181,0.6198599,-0.07451769,-0.15182357,0.7693242,-0.10821577,0.15258005,0.07301047,0.6954334,0.102035284,0.29153553,0.19050947,0.34627348,-0.1786888,0.534582,-0.29617143,-0.12608618,-0.6306823,-0.29000896,758.71796,824.3956,805.05493,789.34064,682.1612,-0.27386474609375,0.1033935546875,0.95953369140625,7.835693359375,-1.921539306640625,13.75732421875,1,2.0,1.0,1.0,2.0,55.00
2021-04-12 22:46:10.541,0.46396556,0.6654758,0.5674056,0.5175727,-0.19371149,0.6616945,-0.3533082,0.25866336,0.08795606,0.4124445,-0.08670375,0.1116455,0.14222243,0.076411866,-0.18013538,0.07091586,-0.33666542,-0.26757994,-0.63901806,-0.37623924,751.8681,817.9487,787.72894,768.3883,680.54944,-0.244384765625,0.1697998046875,0.96258544921875,10.460052490234375,-8.03009033203125,-1.79443359375,1,1.0,1.0,1.0,1.0,55.00
2021-04-12 22:46:11.043,0.5698766,0.32283553,0.62598324,0.55567145,-0.27036455,0.13138124,-0.39025533,0.14596997,0.40172884,0.2345334,-0.07988623,0.22067724,0.15117185,-0.17060928,-0.1447563,0.04548878,-0.37283617,-0.44778877,-0.5978999,-0.353466,823.1868,811.50183,797.3993,811.0989,636.63007,-0.2196044921875,0.18707275390625,0.93603515625,9.7796630859375,-5.794525146484375,5.719757080078125,1,1.0,1.0,1.0,1.0,55.00
2021-04-12 22:46:11.559,0.5718689,0.32283553,0.636636,0.4842318,-0.040611472,0.13138124,-0.46444458,0.06537828,0.4745352,0.2345334,0.02110129,0.37107113,0.20623073,-0.17060928,-0.12488426,0.09997012,-0.341401,-0.44778877,-0.56578016,-0.23438144,754.68866,808.2784,804.65204,771.6117,645.09155,-0.22686767578125,0.1678466796875,0.96185302734375,-0.897216796875,-7.55157470703125,-2.07855224609375,1,1.0,1.0,1.0,1.0,55.00
2021-04-12 22:46:12.067,0.53178734,0.32283553,0.4633729,0.7371454,0.06747876,0.13138124,-0.37963262,-0.007484617,0.48586765,0.2345334,0.18110554,0.3675072,0.32674268,-0.17060928,-0.067974225,0.27680942,0.0110038705,-0.44778877,-0.48122698,-0.074654624,792.5641,822.7839,797.8022,779.67035,702.3077,-0.21307373046875,0.139892578125,0.96337890625,3.312225341796875,3.5888671875,-0.49346923828125,1,1.0,1.0,1.0,1.0,55.00
2021-04-12 22:46:12.582,0.5954755,0.32283553,0.35378483,0.7319295,0.30111626,0.13138124,-0.2743729,0.08373705,0.46894196,0.2345334,0.18110554,0.31139213,0.4167273,-0.17060928,-0.044336867,0.31845716,0.26293087,-0.44778877,-0.527749,0.023244655,841.31866,779.67035,799.41394,836.4835,803.0403,-0.2174072265625,0.05926513671875,0.97607421875,1.457977294921875,-4.59075927734375,0.418701171875,1,1.0,1.0,1.0,1.0,55.00
2021-04-12 22:46:13.112,0.5803557,1.2672389,0.3177313,0.6985093,0.2876013,0.67948604,-0.25813466,0.104430914,0.44329113,0.6579427,0.16283897,0.17716685,0.39209193,0.5014365,-0.07240844,0.28871197,0.26086688,-0.13885964,-0.5173942,0.02288491,833.2601,796.99634,794.9817,838.9011,811.0989,-0.24072265625,0.11334228515625,0.96392822265625,10.00396728515625,-1.30096435546875,-1.622467041015625,1,1.0,1.0,1.0,1.0,55.00
2021-04-12 22:46:13.615,0.4517429,0.9271357,0.2769223,0.42085734,0.25464553,0.16015027,-0.34361395,0.14241403,0.26295733,0.31210783,5.614814E-4,0.22348748,0.306881,0.09132558,-0.14348575,0.2400424,0.14125621,-0.5344408,-0.5407738,-0.0653034,761.53845,791.3553,795.38464,787.72894,678.5348,-0.21234130859375,0.10333251953125,0.97265625,2.385101318359375,-9.832000732421875,2.811279296875,1,1.0,1.0,1.0,1.0,55.00
2021-04-12 22:46:14.128,0.08348443,0.73800737,-0.045147516,0.28989917,0.07019248,0.095181815,-0.43078178,0.24105057,0.32561162,0.34936514,-0.14463729,0.3709354,0.2323778,0.045366578,-0.1301999,0.30588013,-0.13041174,-0.44482365,-0.4405381,-0.13016054,770.0,778.0586,801.4286,779.2674,665.2381,-0.232177734375,0.099853515625,0.97332763671875,5.30853271484375,-4.762725830078125,2.115936279296875,1,1.0,1.0,1.0,1.0,55.00
2021-04-12 22:46:14.640,0.47557613,0.597297,-0.1293845,0.5119292,0.044368632,0.06383252,-0.4577252,0.2120622,0.34649977,0.3175518,-0.17873491,0.42989162,0.21455893,0.035030268,-0.102895916,0.2921482,-0.14534071,-0.4259294,-0.3260754,-0.14900646,822.7839,791.3553,792.5641,817.1429,856.2271,-0.22918701171875,0.11273193359375,0.96881103515625,5.45806884765625,-3.3197021484375,0.0897216796875,1,1.0,1.0,1.0,1.0,55.00
2021-04-12 22:46:15.005,,,,,,,,,,,,,,,,,,,,,,,,,,,,,,,,,,,,,,/muse/elements/blink
2021-04-12 22:46:15.142,0.6060928,0.47171837,0.24603301,0.5244525,0.0544922,0.035722427,-0.06005929,0.22304706,0.26295623,0.2346966,0.10532631,0.42989162,0.23161633,0.041628208,-0.059084788,0.2643781,-0.17590639,-0.3868515,-0.33840695,-0.0832619,847.3626,782.8938,794.17584,825.6044,846.1539,-0.24835205078125,0.06439208984375,0.96832275390625,5.99639892578125,-5.390777587890625,-17.772369384765625,1,1.0,1.0,1.0,1.0,55.00
2021-04-12 22:46:15.651,0.7635559,0.5514573,1.0576447,0.6640043,0.10066315,0.053526063,0.50907236,-0.0037508514,0.10597634,0.12347525,0.2874489,0.18114832,0.16996586,0.07111685,-0.015739879,0.12926379,-0.28540233,-0.4042848,-0.43811727,-0.05545425,782.49084,788.1319,797.3993,806.26373,736.1539,-0.24810791015625,0.085205078125,0.96044921875,5.749664306640625,-2.392578125,-1.383209228515625,1,1.0,1.0,1.0,1.0,55.00
2021-04-12 22:46:16.170,0.736099,0.715624,1.1174767,0.58481556,-0.04770605,0.11098441,0.60249,-0.24088806,-0.09661672,0.27901912,0.43127534,-0.029725477,0.15738831,0.16331108,0.05664784,0.13994706,-0.28027716,-0.45105198,-0.595273,0.0019143136,859.85345,799.41394,815.5311,812.71063,847.3626,-0.28643798828125,0.08673095703125,0.95318603515625,4.358978271484375,-5.869293212890625,2.332763671875,1,1.0,1.0,1.0,1.0,55.00
2021-04-12 22:46:16.673,0.38190335,0.7859923,1.142461,0.13562433,0.33490095,0.26899308,0.61827374,0.013868748,0.4201474,0.26689565,0.50062954,0.1628951,0.001214882,0.21852237,0.16228591,0.13707425,-0.20626518,-0.5174245,-0.4785257,-0.069767125,823.5897,803.0403,799.41394,790.54944,715.6044,-0.25775146484375,0.0618896484375,0.97003173828125,-2.220611572265625,-7.274932861328125,6.69921875,1,1.0,1.0,1.0,1.0,55.00
2021-04-12 22:46:17.188,0.69923943,0.7959943,1.0123082,0.2889586,0.3804089,0.49293947,0.50291705,0.051609024,0.6638626,0.38259494,0.5035835,0.7226623,0.09237311,0.18078734,0.1898011,0.2528298,-0.18754232,-0.51858735,-0.34891763,-0.09571863,770.40295,790.9524,802.6374,788.1319,670.4762,-0.24774169921875,-0.001953125,0.9625244140625,2.340240478515625,-3.357086181640625,4.329071044921875,1,1.0,1.0,1.0,1.0,55.00
2021-04-12 22:46:17.702,0.83857954,0.73376626,1.0436722,0.7010467,0.33708644,0.45865014,0.43101883,0.17646813,0.7799533,0.46717346,0.42657256,0.9285482,0.25479674,0.11160913,0.18311192,0.3501017,-0.18361029,-0.55829024,-0.33699524,-0.024810238,778.46155,794.9817,793.36993,767.5824,713.1868,-0.25396728515625,0.00390625,0.97027587890625,4.2767333984375,-3.820648193359375,1.31591796875,1,1.0,1.0,1.0,1.0,55.00
2021-04-12 22:46:18.209,0.856454,0.56182927,1.0200315,0.788347,0.40049922,0.41249162,0.38173392,0.34772345,0.804361,0.49927,0.47937062,0.948077,0.37692887,0.014296814,0.11638613,0.41306707,-0.19256009,-0.6255361,-0.3994835,-0.013891831,861.8681,791.3553,808.68134,850.989,754.2857,-0.25286865234375,0.001708984375,0.97174072265625,4.658050537109375,-3.596343994140625,2.930908203125,1,1.0,1.0,1.0,1.0,55.00
2021-04-12 22:46:18.328,,,,,,,,,,,,,,,,,,,,,,,,,,,,,,,,,,,,,,/muse/elements/blink
2021-04-12 22:46:18.711,0.82404184,0.31264308,0.7727853,0.9078753,0.38357982,-0.058781035,0.3955677,0.44343534,0.7031605,0.49270228,0.30378374,0.91239464,0.4566479,-0.015415921,0.12509483,0.4398295,-0.20799357,-0.65917057,-0.35505807,0.038958225,849.3773,796.99634,812.71063,848.1685,857.03296,-0.275390625,0.00347900390625,0.96636962890625,4.18701171875,-3.551483154296875,0.874786376953125,1,1.0,1.0,1.0,1.0,55.00
2021-04-12 22:46:19.221,0.35831717,0.2801094,0.62025774,0.6224755,0.4335178,0.044102106,0.4876218,0.5292216,0.5708655,0.31150517,0.36512652,0.40709978,0.4471025,0.011642522,0.10396721,0.3924384,-0.23152693,-0.6082306,-0.34862253,-0.029993493,764.35895,796.1905,809.89014,782.8938,712.7839,-0.2796630859375,9.765625E-4,0.967041015625,4.306640625,-3.491668701171875,1.09161376953125,1,1.0,1.0,1.0,1.0,55.00
2021-04-12 22:46:19.725,0.35831717,0.34423932,0.61319095,0.6224755,0.4335178,0.19988386,0.46449214,0.5292216,0.5708655,0.36099744,0.30838916,0.40709978,0.4471025,-0.018240446,0.08602895,0.3924384,-0.23152693,-0.55083674,-0.34295887,-0.029993493,780.4762,799.41394,801.8315,767.98535,770.80585,-0.28839111328125,0.0032958984375,0.9588623046875,5.046844482421875,-3.8580322265625,2.474822998046875,1,1.0,1.0,1.0,1.0,55.00
2021-04-12 22:46:20.155,,,,,,,,,,,,,,,,,,,,,,,,,,,,,,,,,,,,,,/muse/elements/blink
2021-04-12 22:46:20.253,0.61454606,0.31866843,0.48657915,0.46414104,0.5389307,0.21323356,0.32720527,0.81439614,0.60409373,0.30877852,0.38717994,0.49408635,0.34693542,-0.07756773,0.03483389,0.32529208,-0.15825997,-0.46787265,-0.3950126,-0.04092911,804.65204,797.3993,801.4286,814.3223,807.8755,-0.29742431640625,0.00128173828125,0.9588623046875,4.68048095703125,-4.14215087890625,1.2860107421875,1,1.0,1.0,1.0,1.0,55.00
2021-04-12 22:46:20.766,0.9727843,0.31130052,0.53125715,0.86818534,0.8326957,0.120642565,0.2022362,0.9824221,1.1005328,0.2934794,0.38862062,1.0639845,0.38899478,-0.20301458,-0.027273638,0.40424404,-0.14965536,-0.5011858,-0.32858133,-0.070832364,841.7216,792.5641,800.6227,831.6484,822.381,-0.2852783203125,0.0025634765625,0.96051025390625,4.8748779296875,-4.702911376953125,1.06170654296875,1,1.0,1.0,1.0,1.0,55.00
2021-04-12 22:46:21.280,0.9276948,0.294398,0.48208672,0.81487155,0.88666517,-0.060758807,0.26017162,0.9481617,1.0988659,0.22003897,0.38563308,1.0639845,0.37118816,-0.060924787,-0.009054823,0.39118004,-0.18148513,-0.48908514,-0.28168473,-0.1076814,782.49084,805.4579,806.6667,782.8938,691.8315,-0.2801513671875,0.00421142578125,0.96490478515625,4.448699951171875,-4.194488525390625,0.321502685546875,1,1.0,1.0,1.0,1.0,55.00
2021-04-12 22:46:21.795,0.8336667,0.7493794,0.6573789,0.72578174,0.9551918,0.24729781,0.202202,0.8241219,1.0988659,0.21607481,0.33075255,1.0753115,0.40254,0.068037525,0.020728443,0.41060933,-0.19387046,-0.49924293,-0.20964342,-0.1701737,771.2088,799.81683,802.23444,770.0,694.2491,-0.283447265625,0.00579833984375,0.96038818359375,4.246826171875,-4.314117431640625,0.94207763671875,1,1.0,1.0,1.0,1.0,55.00
2021-04-12 22:46:22.305,0.44045934,0.81242645,0.72581,0.2657857,0.8161473,0.27245817,0.3816557,0.537709,0.6205726,0.11494164,0.29473588,0.7699146,0.3760378,0.09902764,0.10780374,0.3692365,-0.19009796,-0.4102952,-0.2823027,-0.1453393,818.3516,796.5934,791.3553,823.5897,780.4762,-0.27734375,0.00457763671875,0.962646484375,4.015045166015625,-7.200164794921875,0.590667724609375,1,1.0,1.0,1.0,1.0,55.00
2021-04-12 22:46:22.830,0.75002706,0.78492886,0.9149164,0.80265594,0.68290824,0.21353321,0.4684338,0.43310943,0.9479733,0.104229495,0.23901679,0.829806,0.3730917,0.009065726,0.038335774,0.4253869,-0.20268798,-0.45339915,-0.30473855,-0.15586044,769.59705,789.7436,797.8022,790.14655,665.64105,-0.2520751953125,-0.0064697265625,0.968505859375,4.74029541015625,-6.916046142578125,1.734619140625,1,1.0,1.0,1.0,1.0,55.00
2021-04-12 22:46:23.302,,,,,,,,,,,,,,,,,,,,,,,,,,,,,,,,,,,,,,/muse/elements/blink
2021-04-12 22:46:23.333,0.8752975,0.3806897,0.81805706,0.9538394,0.37983865,-0.095654115,0.4154189,0.43146265,0.9454562,0.14419837,0.24334212,0.8346771,0.30053133,-0.10097211,-0.0019046819,0.4132664,-0.1701726,-0.5275149,-0.33106622,-0.12893088,812.3077,792.96704,794.17584,831.2454,681.3553,-0.242431640625,0.00408935546875,0.97430419921875,4.478607177734375,-5.076751708984375,0.95703125,1,1.0,1.0,1.0,1.0,55.00
2021-04-12 22:46:23.841,1.0007807,0.31725058,0.774633,1.1293545,0.28858218,0.04786016,0.5231614,0.49038506,0.92527765,0.2404028,0.17473036,0.8084547,0.2620144,-0.040852692,0.011293759,0.42345202,-0.15829347,-0.50414866,-0.26326934,-0.19838773,827.619,796.99634,801.02563,826.4103,757.50916,-0.2315673828125,0.00555419921875,0.981689453125,4.463653564453125,-5.24871826171875,1.5850830078125,1,1.0,1.0,1.0,1.0,55.00
2021-04-12 22:46:24.348,0.937646,0.42562005,0.47830594,1.0470833,0.21816438,0.10043137,0.45777446,0.47571483,0.7361335,0.2404028,0.08372878,0.672679,0.27121943,-0.009962137,0.069756106,0.38166836,-0.122119434,-0.464837,-0.35628274,-0.17477368,843.73627,801.02563,787.72894,836.08057,788.1319,-0.225830078125,0.006103515625,0.97467041015625,4.5458984375,-4.029998779296875,1.18133544921875,1,1.0,1.0,1.0,1.0,55.00
2021-04-12 22:46:24.855,0.8618226,0.6129255,0.51951593,0.42329615,0.41378498,0.15621014,0.44246173,-0.24679232,0.3003615,0.24723609,0.30998564,0.1753127,0.22248188,0.021124583,0.14172806,0.50372034,-0.44894528,-0.44661346,-0.4253752,0.025025014,776.8498,792.5641,792.5641,799.81683,699.89014,-0.2301025390625,0.0023193359375,0.97454833984375,4.5159912109375,-5.405731201171875,3.745880126953125,1,1.0,1.0,1.0,1.0,55.00
2021-04-12 22:46:25.369,0.7314696,0.76401097,0.5802388,0.31098726,0.35811797,0.14619315,0.26674244,-0.19142583,0.33787462,0.17778312,0.43447113,0.46500206,0.35688245,0.04787081,0.19255866,0.5603282,-0.29051948,-0.47973225,-0.51274014,-0.092890866,762.74725,797.8022,784.5055,760.32965,732.52747,-0.19866943359375,0.0054931640625,0.98443603515625,4.059906005859375,-8.276824951171875,2.400054931640625,1,1.0,1.0,1.0,1.0,55.00
2021-04-12 22:46:25.878,0.7132504,0.99678695,0.7981011,0.35848886,0.32449576,0.35775128,0.40130958,-0.1058199,0.36989415,0.44408137,0.46766284,0.505127,0.3445641,0.02528315,0.1753435,0.5404822,-0.25487903,-0.41383097,-0.41504747,-0.14631796,860.65936,797.3993,803.8461,865.89746,870.32965,-0.185791015625,-0.0013427734375,0.984375,4.448699951171875,-3.648681640625,0.336456298828125,1,1.0,1.0,1.0,1.0,50.00
2021-04-12 22:46:25.966,,,,,,,,,,,,,,,,,,,,,,,,,,,,,,,,,,,,,,/muse/elements/blink
2021-04-12 22:46:26.389,0.6016479,1.1459078,1.0190756,0.31244978,0.26560482,0.5220962,0.69644386,-0.036432974,0.24926628,0.4806553,0.64338005,0.48538247,0.3999957,-0.010507869,0.07443475,0.5619723,-0.17562486,-0.31599095,-0.2278202,-0.30265287,836.08057,802.23444,802.23444,842.9304,845.34796,-0.18194580078125,-5.4931640625E-4,0.98834228515625,4.777679443359375,-4.3365478515625,-0.231781005859375,1,1.0,1.0,1.0,1.0,50.00
2021-04-12 22:46:26.900,0.6640488,1.1626357,1.0942196,0.43307322,0.22691539,0.55807847,0.7230348,0.09088489,-0.074670985,0.47947988,0.61348945,0.41490605,0.31214705,-0.13293226,-0.07645062,0.53096277,-0.17679574,-0.32427955,-0.18715535,-0.3838018,789.7436,821.5751,798.20514,795.78754,624.1392,-0.18475341796875,0.00146484375,0.98468017578125,4.35150146484375,-4.673004150390625,0.64300537109375,1,1.0,1.0,1.0,1.0,50.00
2021-04-12 22:46:27.417,0.36966178,1.0121325,1.003085,0.13001908,0.17880444,0.5204484,0.69330895,-0.09477791,-0.42029047,0.56692183,0.5906787,0.21140058,0.25996158,-6.719536E-4,-0.05720161,0.35782802,-0.14476827,-0.37334606,-0.2488472,-0.035411607,837.6923,796.1905,794.57874,823.9927,797.3993,-0.18182373046875,-0.0029296875,0.983642578125,4.164581298828125,-4.62066650390625,0.9869384765625,1,1.0,1.0,1.0,1.0,50.00
2021-04-12 22:46:27.919,0.46277767,0.7484617,0.6614462,-0.043875128,0.059606392,0.38094294,0.43604952,-0.043349255,0.053743657,0.5527314,0.43488687,0.24385914,0.2643596,0.13619338,0.057286296,0.31685302,-0.13574572,-0.47920358,-0.24254487,-0.059676148,831.6484,795.78754,794.57874,831.2454,750.65936,-0.18212890625,-0.0045166015625,0.984619140625,4.35150146484375,-4.3963623046875,0.43365478515625,1,1.0,1.0,1.0,1.0,50.00
2021-04-12 22:46:28.430,0.36387634,0.40045625,-0.0022991644,-0.104913004,0.1989228,0.26525474,0.21182545,-0.06997033,0.49541923,0.5170661,0.37504157,0.25850725,0.24853122,0.17856991,0.11122551,0.2714085,-0.17769557,-0.46682993,-0.2414341,-0.049093354,788.93774,795.78754,800.2198,783.2967,712.381,-0.18853759765625,-9.1552734375E-4,0.98736572265625,4.8150634765625,-5.24871826171875,1.51031494140625,1,1.0,1.0,1.0,1.0,50.00
2021-04-12 22:46:28.583,,,,,,,,,,,,,,,,,,,,,,,,,,,,,,,,,,,,,,/muse/elements/blink
2021-04-12 22:46:28.941,0.38056368,0.52321416,0.20633775,-0.2213244,0.2808319,0.20062985,0.17178059,-0.039688602,0.49541923,0.46564698,0.3406433,0.19081342,0.2315806,0.109960735,0.155105,0.22987674,-0.19965497,-0.49993885,-0.110131785,-0.048012897,784.5055,806.26373,794.57874,776.8498,745.42126,-0.18328857421875,-6.7138671875E-4,0.9859619140625,4.68048095703125,-4.583282470703125,1.158905029296875,1,1.0,1.0,1.0,1.0,50.00
2021-04-12 22:46:29.449,0.1623416,0.47846577,0.5889421,-0.18466762,0.47143024,0.19104742,0.18347466,-0.07599399,0.49541923,-0.051564917,0.095616914,-0.04111405,0.19200839,-0.08202006,0.09960544,0.17187102,-0.28456745,-0.45535618,-0.13883491,-0.018122356,819.9634,797.8022,806.6667,806.26373,726.8865,-0.18438720703125,-0.00103759765625,0.98553466796875,4.059906005859375,-4.344024658203125,0.500946044921875,1,1.0,1.0,1.0,1.0,50.00
2021-04-12 22:46:29.969,0.20589785,0.48671314,0.6205873,-0.12898251,0.54374605,0.16892716,0.23615949,-0.031132163,0.49541923,-0.02329149,0.062657736,-0.15383364,0.20041128,-0.14601849,0.06487402,0.16985156,-0.322612,-0.46546587,-0.11063938,-0.019356154,832.0513,794.9817,795.78754,835.2747,842.52747,-0.18280029296875,-0.0042724609375,0.986083984375,4.486083984375,-4.463653564453125,0.897216796875,1,1.0,1.0,1.0,1.0,50.00
2021-04-12 22:46:30.482,0.28645924,0.37561703,0.5345394,0.040037047,0.14401153,0.101795964,0.21864597,0.055870827,0.3636451,0.20339368,-0.017599039,0.58556306,0.16311383,0.01655816,0.04545441,0.19277082,-0.2326233,-0.41567498,-0.20550358,-0.034568775,770.80585,798.60803,792.96704,788.5348,713.1868,-0.18231201171875,-4.8828125E-4,0.9876708984375,4.194488525390625,-4.2169189453125,0.58319091796875,1,1.0,1.0,1.0,1.0,50.00
2021-04-12 22:46:30.996,0.29836753,0.33582404,0.23053135,0.015609037,0.13441196,-0.0020557384,0.10031089,0.05564176,0.38364282,0.1642678,-0.055885643,0.5958581,0.19862582,0.08495952,0.14641246,0.25481012,-0.29056546,-0.46622133,-0.27234903,-0.088246845,766.77655,805.4579,801.8315,754.2857,665.64105,-0.1796875,-1.8310546875E-4,0.9884033203125,4.08233642578125,-4.134674072265625,0.755157470703125,1,1.0,1.0,1.0,1.0,50.00
2021-04-12 22:46:31.503,0.29816905,0.30185053,0.2109859,0.118244916,0.10802077,-0.021599459,0.024868289,0.23358448,0.3262907,0.17849456,-0.04594473,0.7185501,0.2521508,0.121272825,0.15647161,0.31477895,-0.31672147,-0.45691723,-0.273648,-0.10643898,826.4103,800.6227,807.47253,813.5165,858.24176,-0.1822509765625,-0.00238037109375,0.9853515625,4.119720458984375,-4.269256591796875,0.16448974609375,1,1.0,1.0,1.0,1.0,50.00
2021-04-12 22:46:31.542,,,,,,,,,,,,,,,,,,,,,,,,,,,,,,,,,,,,,,/muse/elements/blink
2021-04-12 22:46:32.024,0.448057,0.25043002,0.23853399,0.498345,0.22560291,-0.1190947,-0.16630411,0.34268513,0.52057874,0.13319023,-0.17459671,0.76812255,0.24180163,0.017863553,0.08881204,0.39294007,-0.33602396,-0.43302688,-0.30329996,-0.18031044,848.97437,800.2198,802.23444,838.0952,835.6777,-0.1839599609375,-0.0054931640625,0.984619140625,4.568328857421875,-4.029998779296875,0.3887939453125,1,1.0,1.0,1.0,1.0,50.00
2021-04-12 22:46:32.535,0.4422728,0.1679507,0.06419093,0.5332918,0.16828011,-0.09422788,-0.30018705,0.4101705,0.55051875,0.19510008,0.12384587,0.767665,0.23372969,-0.05330359,-0.09481815,0.37690228,-0.26953825,-0.3942405,-0.3160795,-0.117700055,796.99634,804.2491,807.47253,813.5165,678.1319,-0.18426513671875,-0.0025634765625,0.98052978515625,4.66552734375,-4.0673828125,0.73272705078125,1,1.0,1.0,1.0,1.0,50.00
2021-04-12 22:46:33.042,0.39489257,0.22706445,-0.052014302,0.43205154,0.28280318,-0.099061884,-0.22823057,0.3024411,0.7515885,0.2246119,0.09668482,0.78315324,0.24980573,-0.0702616,-0.15218517,0.30958214,-0.26033866,-0.36735985,-0.36034212,0.0023013072,772.01465,805.8608,796.99634,765.16486,655.16486,-0.19415283203125,-0.0115966796875,0.98150634765625,4.583282470703125,-4.179534912109375,0.40374755859375,1,1.0,1.0,1.0,1.0,50.00
2021-04-12 22:46:33.569,0.3910549,0.37411422,-0.09043068,0.10901836,0.24306975,0.08903876,-0.10835665,0.26221955,0.74614286,0.1788493,0.1351028,0.73542446,0.27880317,0.006042623,-0.06659307,0.2396446,-0.24593495,-0.32645378,-0.32268146,0.014446272,848.5714,795.78754,800.6227,848.1685,780.87915,-0.19244384765625,-0.0106201171875,0.98175048828125,4.35150146484375,-4.3365478515625,0.321502685546875,1,1.0,1.0,1.0,1.0,50.00
2021-04-12 22:46:34.079,0.5010479,0.37604204,0.07023396,0.21969385,0.49859512,0.112306595,-0.030902628,0.3446783,0.72778094,0.08036272,0.33269212,0.6665657,0.32908687,0.027791834,0.037934497,0.20296909,-0.25218004,-0.30958986,-0.2811656,0.006517664,853.4066,797.8022,806.6667,843.73627,783.69965,-0.21832275390625,0.0418701171875,0.9859619140625,5.899200439453125,-2.788848876953125,-6.10107421875,1,1.0,1.0,1.0,1.0,50.00
2021-04-12 22:46:34.587,0.5613,0.5545829,0.3092468,0.31813055,0.56763554,0.31158894,0.1075292,0.34854385,0.7135459,0.23769367,0.4042359,0.66902524,0.25055715,0.029969709,0.085369945,0.22882956,-0.19687614,-0.32334834,-0.3130722,-0.002872252,801.02563,793.7729,782.8938,820.3663,787.326,-0.26190185546875,-0.10528564453125,0.94342041015625,3.521575927734375,-1.024322509765625,0.246734619140625,1,1.0,1.0,1.0,1.0,50.00
2021-04-12 22:46:35.094,0.44385445,0.63732123,0.4751578,0.34071678,0.51637846,0.34394407,0.106111445,0.2782868,0.4700238,0.28483626,0.408714,0.33282378,0.18177962,-0.069164984,0.06751694,0.30482057,-0.15379792,-0.35950935,-0.31558087,0.030346734,808.68134,788.5348,820.7692,801.02563,720.0366,-0.2552490234375,-0.00213623046875,0.97198486328125,8.433837890625,-11.955413818359375,10.60211181640625,1,1.0,1.0,1.0,1.0,50.00
2021-04-12 22:46:35.621,0.4252256,0.666889,0.6769118,0.2356579,0.42837748,0.32891604,0.14873053,0.1622903,0.53429174,0.31219205,0.3635646,0.36033505,0.113007665,0.015840478,0.08991574,0.32492536,-0.15563923,-0.452577,-0.36929563,0.061686393,855.0183,805.4579,806.26373,848.1685,808.2784,-0.23309326171875,-0.00738525390625,0.9713134765625,1.966400146484375,-7.13287353515625,2.684173583984375,1,1.0,1.0,1.0,1.0,50.00
2021-04-12 22:46:36.128,0.3874006,0.6524577,0.7920176,0.24332523,0.02104229,0.09709955,0.31389058,0.106299534,0.50209016,0.31218156,0.4300345,0.37305877,0.16516572,-0.004999976,0.11735634,0.3038589,-0.09067875,-0.5904331,-0.30554655,0.0343059,724.4689,798.20514,805.4579,750.2564,682.96704,-0.2269287109375,-0.02423095703125,0.974609375,5.203857421875,-5.555267333984375,-0.560760498046875,1,1.0,1.0,1.0,1.0,50.00
2021-04-12 22:46:36.315,,,,,,,,,,,,,,,,,,,,,,,,,,,,,,,,,,,,,,/muse/elements/blink
2021-04-12 22:46:36.642,0.46489656,0.57793194,0.6900739,0.25480333,0.019168265,-0.11032118,0.4250001,0.2274901,0.42778736,0.24595924,0.45962042,0.35983384,0.24383695,0.028352603,0.18790717,0.23840731,-0.04251613,-0.49159285,-0.30048287,0.057537947,772.4176,805.05493,801.8315,766.77655,699.0842,-0.22216796875,-0.03558349609375,0.97796630859375,3.27484130859375,-4.403839111328125,1.2261962890625,1,1.0,1.0,1.0,1.0,50.00
2021-04-12 22:46:37.144,0.29548293,0.5999212,0.5691298,0.30990273,-0.046705313,-0.079050206,0.32130697,0.18829238,0.3095442,0.26103842,0.46041253,0.18892232,0.15613247,-0.003063193,0.12422668,0.25550795,0.078651555,-0.43412688,-0.24944161,0.04529569,816.337,799.41394,798.20514,792.1612,904.57874,-0.21136474609375,-0.03814697265625,0.97589111328125,3.7384033203125,-4.867401123046875,0.28411865234375,1,1.0,1.0,1.0,1.0,50.00
2021-04-12 22:46:37.664,0.29548293,0.4832431,0.4105761,0.30990273,-0.046705313,0.004352191,0.092532136,0.18829238,0.3095442,0.2789189,0.2998013,0.18892232,0.15613247,0.0671801,0.11971885,0.25550795,0.078651555,-0.42477536,-0.24995445,0.04529569,847.3626,798.60803,813.1135,840.9158,818.7546,-0.2158203125,-0.03936767578125,0.9827880859375,3.21502685546875,-4.299163818359375,-0.949554443359375,1,1.0,1.0,1.0,1.0,50.00
2021-04-12 22:46:38.171,0.47400528,0.3051719,0.16238411,0.18296225,-0.027594397,0.024343802,-0.11251337,-0.050325263,0.49061236,0.27381477,0.0358799,0.22392468,0.22522672,0.06294347,0.06550998,0.24085322,-0.12404865,-0.54610676,-0.32813296,-0.0256343,781.685,794.9817,801.02563,811.50183,645.89746,-0.21502685546875,-0.052001953125,0.97509765625,4.66552734375,-4.209442138671875,1.487884521484375,1,1.0,1.0,1.0,1.0,50.00
2021-04-12 22:46:38.695,0.40661067,0.22859134,0.14331949,0.14016172,-0.017207269,-0.03989507,-0.17524123,-0.0068147327,0.63414603,0.2548804,0.046175748,0.26058853,0.1902119,0.113739096,0.06968464,0.26591104,-0.1028703,-0.53757787,-0.2773104,0.0016709846,829.2308,802.23444,799.011,831.6484,745.0183,-0.21441650390625,-0.0404052734375,0.980712890625,5.38330078125,-4.47113037109375,1.054229736328125,1,1.0,1.0,1.0,1.0,50.00
2021-04-12 22:46:39.051,,,,,,,,,,,,,,,,,,,,,,,,,,,,,,,,,,,,,,/muse/elements/blink
2021-04-12 22:46:39.204,0.43477714,0.47050348,0.5233995,0.078255795,-0.006369474,0.040296663,0.2143985,-0.039504677,0.6248197,0.42250022,0.29711345,0.2890744,0.20260242,0.17240448,0.062448785,0.29873282,-0.06009762,-0.51976985,-0.20093325,0.06686678,791.75824,799.41394,813.1135,813.91943,693.44324,-0.21417236328125,-0.038818359375,0.98077392578125,4.493560791015625,-4.29168701171875,1.248626708984375,1,1.0,1.0,1.0,1.0,50.00
2021-04-12 22:46:39.707,0.27077007,0.78203857,0.65102017,0.049392488,-0.0010879162,0.45186502,0.32063848,0.0118797,0.48149052,0.3957243,0.28773862,0.19791715,0.12755816,0.22171353,0.08319715,0.34126443,-0.070996664,-0.5123587,-0.07165356,0.10167121,779.67035,797.8022,805.8608,767.1795,658.3883,-0.207763671875,-0.03955078125,0.98297119140625,4.463653564453125,-4.643096923828125,0.246734619140625,1,1.0,1.0,1.0,1.0,50.00
2021-04-12 22:46:40.224,0.27485326,0.83218056,0.71400595,0.121032394,2.2970678E-5,0.47555074,0.38413396,-0.02112188,0.48124394,0.5118669,0.3109318,0.0018335007,0.13832706,0.12429185,0.0925993,0.40344825,-0.086388886,-0.6290827,-0.23066755,0.09430995,819.15753,806.26373,805.05493,829.6337,684.57874,-0.20477294921875,-0.0418701171875,0.98333740234375,4.269256591796875,-4.777679443359375,0.635528564453125,1,1.0,1.0,1.0,1.0,50.00
2021-04-12 22:46:40.751,-0.005055099,0.62172395,-0.1111355,0.18992132,0.6219117,0.3521313,-0.21947686,0.6354825,0.6606972,0.486604,2.9387837E-4,0.78102875,0.48290333,-0.06438431,-0.024930976,0.42818743,-0.5770938,-0.63728863,-0.57102954,-0.36415344,770.40295,797.8022,796.5934,776.8498,697.8755,-0.210205078125,-0.0467529296875,0.98046875,4.366455078125,-4.852447509765625,0.8673095703125,1,1.0,1.0,1.0,1.0,50.00
2021-04-12 22:46:41.278,-0.048437595,0.18385307,-0.120997794,0.14748114,0.61452967,-0.102287084,-0.040534865,0.49215457,0.6625661,0.37080932,0.08471765,0.78102875,0.4336228,-0.08210896,0.008416159,0.3573702,-0.38251495,-0.5812278,-0.47200757,-0.17087983,787.72894,794.9817,795.38464,767.1795,749.85345,-0.2073974609375,-0.0452880859375,0.97943115234375,4.8150634765625,-4.179534912109375,0.7177734375,1,1.0,1.0,1.0,1.0,50.00
2021-04-12 22:46:41.781,-0.03322628,0.13878745,0.019144662,0.034360822,0.6510374,0.0105324425,0.0072003757,0.49509463,0.650223,0.3826385,0.12357678,0.7537504,0.34877393,-0.05883009,0.019846417,0.34849527,-0.30759254,-0.47625357,-0.33210793,-0.11551164,630.58606,798.20514,815.5311,629.7802,708.3516,-0.20416259765625,-0.04229736328125,0.979736328125,4.6954345703125,-4.822540283203125,1.12152099609375,1,1.0,1.0,1.0,1.0,50.00
2021-04-12 22:46:42.006,,,,,,,,,,,,,,,,,,,,,,,,,,,,,,,,,,,,,,/muse/elements/blink
2021-04-12 22:46:42.291,0.019159291,0.4490668,0.37251836,0.023874713,0.6665461,0.18743902,0.20805989,0.41873208,0.51468456,0.37044665,0.30490425,0.5062809,0.2651696,0.0392109,0.061746493,0.3136507,-0.21851818,-0.39467564,-0.2504942,-0.026092237,825.6044,807.8755,810.696,814.7253,830.0366,-0.198486328125,-0.0455322265625,0.98577880859375,4.80010986328125,-4.14215087890625,0.6878662109375,1,1.0,1.0,1.0,1.0,50.00
2021-04-12 22:46:42.805,0.14184515,0.5092055,0.4859886,-0.05852258,0.70179874,0.41950837,0.17668587,0.55760795,0.04399164,0.348386,0.30226877,0.36980546,0.12715223,0.01522118,0.07088709,0.39193162,-0.21471044,-0.39856547,-0.26487398,-0.029770583,842.52747,820.3663,785.7143,836.8865,816.7399,-0.20648193359375,-0.0484619140625,0.98297119140625,4.658050537109375,-4.50103759765625,0.95703125,1,1.0,1.0,1.0,1.0,50.00
2021-04-12 22:46:43.318,0.14184515,0.59254706,0.50612015,-0.05852258,0.70179874,0.37510487,0.19535676,0.55760795,0.04399164,0.5934702,0.28449824,0.36980546,0.12715223,-0.011837179,0.017423213,0.39193162,-0.21471044,-0.39961705,-0.32102683,-0.029770583,787.326,806.26373,801.8315,802.23444,738.1685,-0.21343994140625,-0.04669189453125,0.9862060546875,4.29168701171875,-4.50103759765625,2.28790283203125,1,1.0,1.0,1.0,1.0,50.00
2021-04-12 22:46:43.821,0.09237698,0.66785526,0.51170963,0.043168556,0.1332836,0.4023491,0.1067522,0.12264471,0.20690449,0.6327236,0.24159509,0.2150494,0.17709361,-0.059412915,-0.005286143,0.32699412,-0.21204326,-0.40446454,-0.4059285,-0.06736979,839.304,799.41394,795.78754,829.2308,1022.23444,-0.183837890625,-0.04498291015625,0.9857177734375,5.824432373046875,-2.16827392578125,-7.783355712890625,1,1.0,1.0,1.0,1.0,50.00
2021-04-12 22:46:44.335,0.014885031,0.7169439,0.41212273,-0.018402826,0.24201824,0.23607242,0.04835714,0.17791896,0.52709764,0.6327236,0.16738613,0.34849718,0.15948667,-0.07460952,-0.0018114425,0.30421993,-0.32139638,-0.4393279,-0.38781056,-0.12240592,842.52747,805.05493,807.0696,838.9011,808.2784,-0.20269775390625,-0.0166015625,0.97528076171875,11.790924072265625,-4.88983154296875,-6.519775390625,1,1.0,1.0,1.0,1.0,50.00
2021-04-12 22:46:44.863,0.3238684,0.66866535,0.3085045,4.0915245E-4,0.252774,0.20184974,-0.011351734,0.20831555,0.532642,0.6276069,0.16738613,0.42636237,0.10904875,-0.089928515,-0.006909628,0.24844302,-0.41383123,-0.5416332,-0.44097957,-0.15789315,759.92676,803.0403,792.96704,799.41394,732.9304,-0.21392822265625,-0.015380859375,0.978759765625,4.329071044921875,-7.663726806640625,1.68975830078125,1,1.0,1.0,1.0,1.0,50.00
2021-04-12 22:46:45.392,0.4216747,0.30137798,0.18810181,0.15228005,0.22727838,-0.02792894,-0.11489493,0.21404386,0.5186845,0.019832022,0.09655788,0.40538114,0.11488492,-0.18201715,-0.051889244,0.18775019,-0.4989281,-0.69375825,-0.48413652,-0.23166601,758.315,801.02563,799.81683,767.98535,664.0293,-0.18927001953125,-0.0250244140625,0.9813232421875,0.55328369140625,-9.6002197265625,-0.1495361328125,1,1.0,1.0,1.0,1.0,50.00
2021-04-12 22:46:45.757,,,,,,,,,,,,,,,,,,,,,,,,,,,,,,,,,,,,,,/muse/elements/blink
2021-04-12 22:46:45.918,0.59691244,0.18496285,0.35521615,0.29308397,0.01637784,-0.088168696,-0.12762697,0.12795219,0.20867237,0.27212405,0.051268566,0.33065596,0.08967685,-0.19690153,-0.11227828,0.11811306,-0.46121806,-0.67534447,-0.6162746,-0.23108754,799.011,810.696,797.3993,801.8315,674.10254,-0.21246337890625,-0.0321044921875,0.97674560546875,5.682373046875,-1.7047119140625,-3.4991455078125,1,1.0,1.0,1.0,1.0,50.00
2021-04-12 22:46:46.427,0.5125085,0.65507334,0.3539514,0.32965812,-0.14420743,0.3650642,-0.0823302,-0.090867944,-0.1635395,0.51512796,0.13500988,0.16562586,0.12507643,-0.15590069,0.017328253,0.14584023,-0.42769024,-0.56238157,-0.5986365,-0.16495387,797.8022,795.38464,799.41394,780.4762,821.978,-0.18756103515625,-0.0279541015625,0.983642578125,3.60382080078125,-5.495452880859375,-0.605621337890625,1,1.0,1.0,1.0,1.0,50.00
2021-04-12 22:46:46.929,0.5209759,0.69551027,0.24006328,0.2925214,-0.29661036,0.41637528,-0.042989686,-0.52399576,-0.23282541,0.5432395,0.17000182,0.15544721,0.036844205,0.03881863,0.07567323,0.081976205,-0.42532066,-0.5386152,-0.49268696,-0.14972249,885.64105,813.5165,796.99634,856.2271,727.6923,-0.169677734375,-0.03057861328125,0.99072265625,4.5758056640625,-6.153411865234375,3.730926513671875,1,1.0,1.0,1.0,1.0,50.00
2021-04-12 22:46:47.440,0.5209759,0.9793886,0.63827986,1.3377707,-0.29661036,0.57537115,0.19256179,1.0005163,-0.23282541,0.58628005,0.10942421,1.1383103,0.036844205,0.16423103,0.04543947,0.74083525,-0.42532066,-0.49468452,-0.48943543,-0.1815929,766.3736,810.696,800.2198,764.7619,655.9707,-0.16253662109375,-0.00677490234375,0.99041748046875,6.572113037109375,-9.31610107421875,6.11602783203125,1,1.0,1.0,1.0,1.0,50.00
2021-04-12 22:46:47.959,1.1241059,0.85705435,0.68887514,1.1569575,1.044242,0.42200112,0.19304618,0.8085859,1.2138519,0.43881097,0.25141406,1.1383103,0.31077242,0.15460412,0.0054120226,0.67035824,-0.15924467,-0.517489,-0.49820575,-0.13580625,830.84247,821.1722,792.96704,797.8022,757.50916,-0.17572021484375,0.05047607421875,0.9814453125,15.44708251953125,-1.742095947265625,-15.2227783203125,1,1.0,1.0,1.0,1.0,50.00
2021-04-12 22:46:48.463,0.9283049,1.0888609,1.058071,1.1204507,0.87525946,0.79502386,0.5790705,0.7866814,1.2354681,0.50334364,0.501004,1.1383103,0.41074884,0.0392596,-0.03541026,0.59961885,-0.19736893,-0.45665997,-0.5480154,-0.08525329,862.27106,794.17584,802.23444,809.0842,767.1795,-0.1888427734375,0.09381103515625,0.981201171875,5.600128173828125,-3.760833740234375,0.22430419921875,1,1.0,1.0,1.0,1.0,50.00
2021-04-12 22:46:48.968,0.5713913,0.95616764,0.9921008,0.81107366,0.67894584,0.72925764,0.5346633,0.71407366,1.2130066,0.49755755,0.501004,0.9519863,0.4539966,-0.027610447,-0.03997664,0.38583475,-0.24716358,-0.47390464,-0.4783494,-0.0717861,763.95605,790.54944,818.3516,803.8461,831.6484,-0.17718505859375,0.08343505859375,0.98291015625,4.673004150390625,-2.041168212890625,0.897216796875,1,1.0,1.0,1.0,1.0,50.00
2021-04-12 22:46:49.471,0.32864413,0.94925964,0.9693755,0.6977856,0.47058043,0.71482784,0.51805955,0.6686456,0.8576669,0.43021756,0.49720797,0.93246233,0.4224882,-0.06613992,-0.03922873,0.2906827,-0.2119603,-0.52636766,-0.48958865,-0.071679324,750.2564,803.0403,800.2198,786.52014,765.56775,-0.2196044921875,0.10101318359375,0.970947265625,4.85992431640625,0.777587890625,8.71795654296875,1,1.0,1.0,1.0,1.0,50.00
2021-04-12 22:46:49.973,0.36123323,0.5828035,0.37403426,0.20444386,0.56615514,0.13916212,-0.066307984,0.5476057,0.67520386,0.3327209,0.30998597,0.87090456,0.2919571,-0.13339943,0.03229401,0.20417081,-0.2034301,-0.5215843,-0.4412253,-0.10335565,815.12823,795.78754,793.36993,796.99634,720.84247,-0.252685546875,0.10528564453125,0.96026611328125,5.5926513671875,3.641204833984375,-0.657958984375,1,1.0,1.0,1.0,1.0,50.00
2021-04-12 22:46:50.481,0.20452474,0.36320192,0.037664395,0.010959864,0.5197258,-0.047999207,-0.27148068,0.17687613,0.3530673,0.080048636,0.09900037,0.34241608,0.10971057,-0.29670817,0.053485263,0.3886579,-0.287967,-0.5410318,-0.3772331,-0.062089633,858.6447,814.3223,801.8315,823.1868,765.16486,-0.2783203125,0.09515380859375,0.97174072265625,0.95703125,-11.746063232421875,-3.282318115234375,1,1.0,1.0,1.0,1.0,50.00
2021-04-12 22:46:50.982,0.17672136,0.4773256,-0.012707432,0.05266786,0.43144688,-0.12728104,-0.29088113,0.19886643,0.44259,0.26272327,0.10482123,0.40081364,0.19495293,-0.24584354,0.0020196901,0.41399828,-0.28943732,-0.5065119,-0.3433509,0.038198017,775.64105,800.2198,795.78754,792.5641,1052.0513,-0.13641357421875,0.04296875,0.97796630859375,8.321685791015625,-19.955596923828125,-7.050628662109375,1,1.0,1.0,1.0,1.0,50.00
2021-04-12 22:46:51.491,0.06648189,0.51404375,-0.17213297,0.0970927,0.2225906,-0.101315446,-0.25120762,0.0923999,0.51923037,0.27641517,0.029889269,0.35879007,0.18074249,-0.15876155,-0.1014106,0.3891567,-0.2777627,-0.58064234,-0.2505134,0.10455504,842.9304,808.68134,799.41394,807.0696,765.16486,-0.1654052734375,0.05218505859375,0.9739990234375,3.177642822265625,1.039276123046875,6.0113525390625,1,1.0,1.0,1.0,1.0,50.00
2021-04-12 22:46:51.996,0.57719094,0.5308894,-0.32570523,0.5127314,0.28767705,0.03593559,-0.17433603,0.29847628,0.5484527,0.25196314,0.09403269,0.5758962,0.21631928,-0.10470872,-0.10050909,0.23571298,-0.077399045,-0.63305765,-0.21492979,0.15576583,840.10986,802.23444,800.6227,826.8132,746.63007,-0.2486572265625,0.11419677734375,0.962890625,1.1962890625,-4.239349365234375,0.9869384765625,1,1.0,1.0,1.0,1.0,50.00
2021-04-12 22:46:52.513,0.70887953,0.29175413,-0.17135069,0.6527704,0.4781599,0.0018407722,-0.15317622,0.39659247,0.5648604,0.1274522,-0.018881379,0.6673709,0.23078042,-0.14655119,-0.1308841,0.22473846,0.17142649,-0.4729608,-0.18707731,0.25486866,790.54944,802.23444,811.0989,784.90845,805.4579,-0.25787353515625,0.09375,0.9639892578125,-0.55328369140625,-11.70867919921875,3.00567626953125,1,1.0,1.0,1.0,1.0,50.00
2021-04-12 22:46:52.861,,,,,,,,,,,,,,,,,,,,,,,,,,,,,,,,,,,,,,/muse/elements/blink
2021-04-12 22:46:53.019,0.8136055,0.3262794,0.316118,0.7371762,0.56767434,0.17302114,0.1374744,0.48698226,0.6208189,0.22578384,0.24277985,0.6516726,0.2997318,-0.17767456,-0.1019027,0.2429732,0.2524392,-0.48033702,-0.27643925,0.28551233,792.96704,804.65204,800.6227,796.99634,543.1502,-0.23822021484375,0.0491943359375,0.95849609375,0.1495361328125,-7.25250244140625,0.179443359375,1,1.0,1.0,1.0,1.0,50.00
2021-04-12 22:46:53.523,0.6328131,0.86662066,0.46414346,0.6327056,0.62442756,0.62702626,0.2309513,0.49966466,0.6143869,0.39377654,0.20139064,0.64473766,0.3403995,-0.20814565,-0.14002319,0.2856148,0.35804036,-0.49527016,-0.36135054,0.36391568,824.3956,797.3993,808.68134,834.4689,783.2967,-0.22161865234375,0.0692138671875,1.00518798828125,2.639312744140625,-2.8411865234375,1.734619140625,1,1.0,1.0,1.0,1.0,50.00
2021-04-12 22:46:54.039,0.42378914,0.9226769,0.5951111,0.4744112,0.6535506,0.6415661,0.32190847,0.56878453,0.59804183,0.39377654,0.2636217,0.62704504,0.3593986,-0.15177286,-0.047210306,0.30868012,0.19924243,-0.7008931,-0.46684662,0.21628316,757.50916,803.44324,791.75824,796.99634,894.10254,-0.2452392578125,0.11114501953125,0.9793701171875,8.074951171875,-0.85235595703125,-3.760833740234375,1,1.0,1.0,1.0,1.0,50.00
2021-04-12 22:46:54.387,,,,,,,,,,,,,,,,,,,,,,,,,,,,,,,,,,,,,,/muse/elements/blink
2021-04-12 22:46:54.550,0.42378914,1.0646459,0.85497284,0.4744112,0.6535506,0.71692073,0.34359762,0.56878453,0.59804183,0.4375891,0.27264556,0.62704504,0.3593986,-0.11753175,-0.0019482473,0.30868012,0.19924243,-0.63085145,-0.50482005,0.21628316,796.5934,798.20514,797.8022,794.57874,689.41394,-0.22210693359375,-0.0081787109375,0.972900390625,-2.400054931640625,-5.09918212890625,-5.659942626953125,1,1.0,1.0,1.0,1.0,50.00
2021-04-12 22:46:55.077,0.42378914,0.81133026,0.8336638,0.4744112,0.6535506,0.5305225,0.41003257,0.56878453,0.59804183,0.43976778,0.3084207,0.62704504,0.3593986,-0.14446695,0.05640047,0.30868012,0.19924243,-0.45493695,-0.46812326,0.21628316,857.4359,802.23444,796.99634,827.619,805.8608,-0.25958251953125,-0.026611328125,0.978515625,2.07855224609375,-1.876678466796875,-1.472930908203125,1,1.0,1.0,1.0,1.0,50.00
2021-04-12 22:46:55.584,0.42378914,0.68018407,0.6916815,0.4744112,0.6535506,0.5262639,0.33376887,0.56878453,0.59804183,0.47473502,0.31123182,0.62704504,0.3593986,-0.18092705,0.06933676,0.30868012,0.19924243,-0.45197383,-0.33892548,0.21628316,828.8278,803.44324,799.41394,806.26373,711.978,-0.26318359375,-0.03717041015625,0.9654541015625,5.0543212890625,-3.51409912109375,2.22808837890625,1,2.0,1.0,1.0,2.0,50.00
2021-04-12 22:46:56.096,0.51943535,0.37674105,0.37862074,0.8154164,0.15432096,0.37722972,0.19002523,0.045485977,0.3469786,0.45259026,0.27634853,0.37353572,0.1359942,-0.14570291,0.056628857,0.4425489,-0.44081554,-0.47013125,-0.25593805,-0.030216787,754.2857,794.17584,803.44324,789.7436,695.8608,-0.26312255859375,-0.0440673828125,0.96282958984375,5.15899658203125,-3.24493408203125,0.19439697265625,1,1.0,1.0,1.0,1.0,50.00
2021-04-12 22:46:56.602,0.3862766,0.4436169,0.059075385,0.63455355,0.213006,0.1268711,-0.029590214,0.36195102,0.3872641,0.29766938,0.3433522,0.5399465,0.07527115,-0.119784914,0.0034260598,0.35471258,-0.43164542,-0.51786554,-0.26520777,-0.17825967,767.5824,803.44324,800.2198,769.59705,746.2271,-0.26202392578125,-0.0250244140625,0.97418212890625,4.403839111328125,-4.02252197265625,-1.054229736328125,1,1.0,1.0,1.0,1.0,50.00
2021-04-12 22:46:57.037,,,,,,,,,,,,,,,,,,,,,,,,,,,,,,,,,,,,,,/muse/elements/blink
2021-04-12 22:46:57.118,0.37411222,0.9510513,0.5504748,0.6355513,0.3204602,0.41083878,0.34912878,0.62305564,0.4750982,0.40316755,0.38376197,0.6569695,0.061025932,-0.09339079,-0.08075281,0.3450124,-0.3722855,-0.4610751,-0.33422604,-0.20258431,870.7326,803.44324,802.23444,848.5714,766.3736,-0.2694091796875,-0.03387451171875,0.9635009765625,4.20196533203125,-3.24493408203125,0.067291259765625,1,1.0,1.0,1.0,1.0,50.00
2021-04-12 22:46:57.642,0.25011066,0.9682952,0.77019143,0.5068056,0.39916167,0.4800335,0.41622987,0.75906193,0.4679151,0.49846262,0.3538621,0.5955012,0.0066128667,-0.116416186,-0.0666666,0.2865724,-0.33436713,-0.4867323,-0.32621804,-0.323831,837.6923,795.78754,813.91943,826.4103,778.46155,-0.25396728515625,-0.03131103515625,0.9678955078125,4.59075927734375,-4.912261962890625,3.162689208984375,1,1.0,1.0,1.0,1.0,50.00
2021-04-12 22:46:58.168,0.25219226,0.9211063,0.7664892,0.5647541,0.51819617,0.46911803,0.42253128,0.93959,0.39144188,0.49846262,0.27410823,0.55623835,0.01200991,-0.09538949,-0.07557226,0.27393267,-0.22810386,-0.5808253,-0.18726735,-0.330234,761.13556,803.0403,811.50183,795.38464,714.3956,-0.2548828125,-0.02911376953125,0.972412109375,5.09918212890625,-3.8580322265625,1.136474609375,1,1.0,1.0,1.0,1.0,50.00
2021-04-12 22:46:58.671,0.33878425,0.29863167,0.47137943,-0.16236529,0.0628559,0.21375312,0.07327872,-0.18174845,0.554586,0.45988956,0.23764938,0.0059371097,0.23126839,-0.1509767,-0.003846945,0.31839964,-0.24201958,-0.58356905,-0.14922467,-0.24262357,790.54944,808.2784,806.6667,805.8608,703.91943,-0.2591552734375,-0.03350830078125,0.967529296875,4.897308349609375,-4.493560791015625,1.51031494140625,1,1.0,1.0,1.0,1.0,50.00
2021-04-12 22:46:59.188,0.26948544,0.38219166,0.064579256,-0.16697775,0.14929923,0.11796996,-0.12688436,-0.27423102,0.61130553,0.3249986,0.32768968,0.2724822,0.294651,-0.22878069,0.11139581,0.23947115,-0.23403487,-0.49500102,-0.261168,-0.26256424,832.4542,798.60803,802.6374,815.12823,765.16486,-0.2576904296875,-0.03021240234375,0.96954345703125,4.47113037109375,-4.90478515625,2.7215576171875,1,1.0,1.0,1.0,1.0,50.00
2021-04-12 22:46:59.704,0.21984448,0.7703277,0.31579483,0.2196055,0.27025312,0.46460137,9.831885E-4,0.09342499,0.6482425,0.5294591,0.5837227,0.6237548,0.25355938,-0.24513243,0.11007242,0.19555184,-0.23260568,-0.5013456,-0.3247255,-0.31094936,853.00366,789.7436,818.3516,836.08057,868.71796,-0.2479248046875,-0.0379638671875,0.9710693359375,4.553375244140625,-4.5458984375,-0.04486083984375,1,1.0,1.0,1.0,1.0,50.00
2021-04-12 22:47:00.206,0.19690707,1.0135196,0.67461246,0.5263241,0.3632353,0.66119653,0.25261283,0.3623064,0.49516568,0.55336785,0.63342744,0.65719974,0.24222839,-0.17498769,0.12812035,0.1516336,-0.18512653,-0.51631063,-0.324606,-0.31705764,777.25275,801.02563,808.2784,800.6227,733.3333,-0.2615966796875,-0.04132080078125,0.970458984375,3.940277099609375,-4.4561767578125,2.863616943359375,1,1.0,1.0,1.0,1.0,50.00
2021-04-12 22:47:00.707,0.09579105,1.0022895,0.6790397,0.5295936,0.40550017,0.64356166,0.31467092,0.42212918,0.53570485,0.55336785,0.6395099,0.65719974,0.19034922,-0.15026782,0.09332332,0.178379,-0.21861646,-0.5259669,-0.3463222,-0.23125078,758.71796,800.6227,813.5165,768.7912,766.3736,-0.23529052734375,-0.03936767578125,0.9755859375,4.209442138671875,-8.4039306640625,0.897216796875,1,1.0,1.0,1.0,1.0,50.00
2021-04-12 22:47:01.220,0.23336494,0.9284842,0.62948847,0.46124822,0.4407956,0.56923735,0.27688062,0.38368312,0.58687043,0.55336785,0.6395099,0.65719974,0.20319785,-0.123570725,0.06526767,0.15229173,-0.057741333,-0.34534153,-0.3576939,-0.062343176,832.8571,802.6374,809.89014,839.304,801.8315,-0.2354736328125,-0.0498046875,0.9727783203125,4.493560791015625,-4.598236083984375,1.973876953125,1,1.0,1.0,1.0,1.0,50.00
2021-04-12 22:47:01.510,,,,,,,,,,,,,,,,,,,,,,,,,,,,,,,,,,,,,,/muse/elements/blink
2021-04-12 22:47:01.733,0.24872908,0.6207298,0.32390085,-0.07159438,0.4358999,0.40972042,0.31871665,0.0682761,0.61198545,0.47086996,0.31235695,0.27255592,0.23851417,-0.17297289,0.06928714,0.1358395,0.068854004,-0.3404837,-0.39647487,-0.0030470928,792.96704,801.8315,806.26373,816.7399,653.1502,-0.232666015625,-0.04217529296875,0.97210693359375,4.9945068359375,-3.6785888671875,2.811279296875,1,1.0,1.0,1.0,1.0,50.00
2021-04-12 22:47:02.262,0.45326796,1.0806295,0.9453797,-0.027046185,0.4745755,0.8840397,0.71676666,0.038034026,0.5973654,0.6273421,0.4657322,0.077217825,0.24471956,-0.10166169,0.13430697,0.08313098,0.24862409,-0.34180942,-0.43659228,0.065524384,785.31134,800.6227,800.2198,773.22345,676.1172,-0.246337890625,-0.0362548828125,0.974609375,3.745880126953125,-4.015045166015625,-0.19439697265625,1,1.0,1.0,1.0,1.0,50.00
2021-04-12 22:47:02.764,0.4988889,1.0601604,0.96439904,-0.02400637,0.40147436,0.87824297,0.7045737,-0.012840048,0.48395124,0.6273421,0.4657322,-0.121946566,0.28934458,-0.09895073,0.16255985,0.08412223,0.3205278,-0.5476634,-0.54945815,0.047848206,743.4066,798.60803,802.23444,767.98535,637.8388,-0.2431640625,-0.03662109375,0.976318359375,4.987030029296875,-3.5589599609375,0.844879150390625,1,1.0,1.0,1.0,1.0,50.00
2021-04-12 22:47:03.236,,,,,,,,,,,,,,,,,,,,,,,,,,,,,,,,,,,,,,/muse/elements/blink
2021-04-12 22:47:03.297,0.002077095,0.9857911,0.9440131,-0.02400637,-0.15181398,0.77388746,0.5915712,-0.012840048,0.60409844,0.6230661,0.4646903,-0.121946566,0.25509304,-0.049758848,0.10246904,0.08412223,-0.4376057,-0.46002752,-0.5720834,0.047848206,879.59705,821.1722,785.31134,857.8388,785.7143,-0.2596435546875,-0.04034423828125,0.9649658203125,4.299163818359375,-1.95892333984375,-0.157012939453125,1,1.0,1.0,1.0,1.0,50.00
2021-04-12 22:47:03.825,0.002077095,0.3713283,0.38770235,-0.02400637,-0.15181398,0.16751695,-0.26078838,-0.012840048,0.60409844,-0.0012124083,0.030684512,-0.121946566,0.25509304,-0.06090093,-0.07964932,0.08412223,-0.4376057,-0.44123566,-0.56085026,0.047848206,871.9414,808.68134,802.23444,842.1245,751.4652,-0.2623291015625,-0.0413818359375,0.96478271484375,4.90478515625,-3.820648193359375,1.5252685546875,1,1.0,1.0,1.0,1.0,50.00
2021-04-12 22:47:04.349,0.002077095,0.72119576,0.7747996,-0.02400637,-0.15181398,0.49551678,0.22442129,-0.012840048,0.60409844,0.41662592,0.41616935,-0.121946566,0.25509304,-0.08746388,-0.12822078,0.08412223,-0.4376057,-0.40487254,-0.48030403,0.047848206,794.9817,803.8461,799.81683,815.12823,726.8865,-0.26910400390625,-0.03387451171875,0.96917724609375,3.768310546875,-5.14404296875,-0.777587890625,1,1.0,1.0,1.0,1.0,50.00
2021-04-12 22:47:04.860,0.002077095,0.8120374,0.73981345,-0.02400637,-0.15181398,0.5650536,0.27205637,-0.012840048,0.60409844,0.41662592,0.41616935,-0.121946566,0.25509304,-0.11683451,-0.12269707,0.08412223,-0.4376057,-0.47444218,-0.55308294,0.047848206,762.3443,807.0696,796.99634,771.6117,661.2088,-0.2657470703125,-0.034423828125,0.96337890625,4.78515625,-4.463653564453125,0.157012939453125,1,1.0,1.0,1.0,1.0,50.00
2021-04-12 22:47:05.386,0.08181239,0.52184176,0.5637207,-0.09261989,1.7638817E-5,0.32096633,0.10461845,0.035675377,0.50817204,0.42686078,0.42203972,0.33969042,0.09375976,-0.124199584,-0.07399759,0.17869738,-0.28480217,-0.449147,-0.35513943,-0.1566669,805.8608,807.8755,799.011,787.326,733.3333,-0.263671875,-0.0308837890625,0.9656982421875,4.673004150390625,-5.046844482421875,1.31591796875,1,1.0,1.0,1.0,1.0,50.00
2021-04-12 22:47:05.693,,,,,,,,,,,,,,,,,,,,,,,,,,,,,,,,,,,,,,/muse/elements/blink
2021-04-12 22:47:05.887,0.06076926,0.3749938,0.6247722,-0.10146111,0.012619781,0.103632204,0.12836725,0.033984195,0.5093412,0.1998128,0.13075134,0.47633708,0.095671296,-0.10322195,-0.005056858,0.1825215,-0.307904,-0.39767948,-0.2378521,-0.1673187,803.8461,805.4579,805.4579,796.1905,694.2491,-0.25286865234375,-0.0311279296875,0.97314453125,4.194488525390625,-3.760833740234375,0.70281982421875,1,1.0,1.0,1.0,1.0,50.00
2021-04-12 22:47:06.394,-0.22836904,0.832987,0.8021085,-0.33473843,0.076302625,0.5510728,0.21298009,-0.050200686,0.3580047,0.2789625,0.13890724,0.47553164,0.063403144,-0.06534441,0.022562789,0.1269932,-0.3948054,-0.33098695,-0.167503,-0.19866064,808.2784,806.6667,803.44324,828.022,799.011,-0.2572021484375,-0.03277587890625,0.96844482421875,4.6356201171875,-4.7552490234375,0.904693603515625,1,1.0,1.0,1.0,1.0,50.00
2021-04-12 22:47:06.885,,,,,,,,,,,,,,,,,,,,,,,,,,,,,,,,,,,,,,/muse/elements/blink
2021-04-12 22:47:06.905,-0.27251935,0.88763833,0.9327367,-0.37367696,0.11848622,0.58306354,0.22529271,-0.11811103,0.3438405,0.26032642,0.18921837,0.46180677,0.07499073,-0.07090156,-0.018849533,0.13734008,-0.4565075,-0.28698447,-0.31825343,-0.2402899,753.8828,807.47253,803.0403,779.2674,692.23444,-0.26513671875,-0.033935546875,0.95867919921875,4.448699951171875,-4.912261962890625,0.112152099609375,1,1.0,1.0,1.0,1.0,50.00
2021-04-12 22:47:07.424,0.4192274,1.005386,1.0917923,0.92123765,0.38648194,0.6669159,0.37991813,0.61133707,0.60860956,0.48876357,0.3530351,0.65021086,0.18614738,0.023740463,-0.07489333,0.29412344,-0.2985017,-0.3253968,-0.33144215,-0.13393909,806.26373,802.23444,811.0989,799.011,817.9487,-0.26153564453125,-0.0316162109375,0.9659423828125,5.15899658203125,-5.106658935546875,-0.530853271484375,1,1.0,1.0,1.0,1.0,50.00
2021-04-12 22:47:07.940,0.39916676,0.77243316,0.955497,0.71870524,0.31109792,0.3431201,0.2889316,0.3987941,0.63121,0.48997688,0.3325469,0.68203354,0.2932073,-0.01517504,0.0055486932,0.42935255,-0.120788135,-0.46237716,-0.24412224,-0.04912957,878.3883,799.41394,808.2784,842.9304,856.2271,-0.26007080078125,-0.0284423828125,0.96929931640625,4.972076416015625,-3.72344970703125,0.91217041015625,1,1.0,1.0,1.0,1.0,50.00
2021-04-12 22:47:08.462,0.44452235,0.71331286,0.87150425,0.7027862,0.20689246,0.26644528,0.30434605,0.38126498,0.61072034,0.48997688,0.33276954,0.6862159,0.30002245,0.02251326,0.026264202,0.43212974,0.10576703,-0.60284317,-0.123528495,-0.02219591,792.5641,828.8278,787.72894,794.57874,671.685,-0.25408935546875,-0.026611328125,0.96551513671875,2.6019287109375,-2.235565185546875,-3.0804443359375,1,1.0,1.0,1.0,1.0,50.00
2021-04-12 22:47:08.966,0.4093709,0.34768215,0.43262824,0.5780877,0.0013227355,-0.13206524,0.26426935,0.25212842,0.7447784,0.28197205,0.6738565,0.6458424,0.46477628,-0.02825447,0.26499942,0.5968622,0.33291465,-0.6231382,-0.14729023,0.17176916,754.68866,807.47253,810.293,774.83514,825.2015,-0.2523193359375,-0.03167724609375,0.970703125,4.964599609375,-6.676788330078125,2.011260986328125,1,1.0,1.0,1.0,1.0,50.00
2021-04-12 22:47:09.494,0.47383747,0.18624179,0.6163041,0.6894451,-0.054249585,-0.13578922,0.4494463,0.4853183,0.7634009,0.08272648,0.6798741,0.5955412,0.5175363,0.051826492,0.32970312,0.62132925,0.31062868,-0.5091605,-0.13978723,0.16582817,784.5055,802.23444,791.75824,778.46155,749.0476,-0.24822998046875,-0.0328369140625,0.9744873046875,4.732818603515625,-3.5888671875,0.829925537109375,1,1.0,1.0,1.0,1.0,50.00
2021-04-12 22:47:10.023,0.32518014,0.52746737,0.65667516,0.5784275,0.18314591,0.21305867,0.43951654,0.37767434,0.7924009,0.0670539,0.6798741,0.6030602,0.50599563,0.092695296,0.34667382,0.54854,0.17331521,-0.39644963,-0.14991546,0.048847973,750.2564,803.44324,794.9817,760.7326,652.3443,-0.23541259765625,-0.0142822265625,0.98126220703125,4.0972900390625,-5.345916748046875,1.734619140625,1,1.0,1.0,1.0,1.0,50.00
2021-04-12 22:47:10.487,,,,,,,,,,,,,,,,,,,,,,,,,,,,,,,,,,,,,,/muse/elements/blink
2021-04-12 22:47:10.525,0.27982536,0.4667661,0.6551411,0.42517984,0.26523536,0.15296754,0.3345819,0.25643268,0.7315002,0.10916487,0.6450672,0.54543537,0.41950753,0.07768324,0.20510688,0.47744355,0.019800996,-0.5510669,-0.21893728,-0.031905193,867.9121,801.8315,802.23444,814.7253,732.1245,-0.26141357421875,-0.00701904296875,0.96807861328125,4.41131591796875,-2.175750732421875,2.998199462890625,1,1.0,1.0,1.0,1.0,50.00
2021-04-12 22:47:11.060,-0.14702144,0.97862965,1.0758518,0.31555387,0.3694773,0.391402,0.6187856,0.011662372,0.56078416,0.13478239,0.47004837,0.21587476,0.27057952,0.08597538,0.17607501,0.36476743,0.089841485,-0.53811055,-0.35481822,-0.073076904,849.3773,808.68134,796.99634,832.8571,823.9927,-0.2589111328125,-0.01458740234375,0.96246337890625,4.9945068359375,-3.596343994140625,-0.0299072265625,1,1.0,1.0,1.0,1.0,50.00
2021-04-12 22:47:11.586,-0.030391423,1.1280719,1.1415625,0.49711636,0.4136345,0.58916646,0.7039867,0.12198559,0.54779005,0.25600982,0.70025873,0.08564415,0.3336324,0.10407355,0.19673797,0.40028036,0.23399378,-0.57266814,-0.5965653,0.04669864,764.7619,796.99634,797.8022,804.65204,685.78754,-0.25933837890625,-0.0137939453125,0.96588134765625,4.0972900390625,-3.536529541015625,1.7047119140625,1,1.0,1.0,1.0,1.0,50.00
2021-04-12 22:47:12.111,0.2889136,1.0898514,1.0602915,-0.1737391,-0.12490198,0.5574448,0.61307025,0.43750662,0.06529879,0.2891185,0.69685835,0.17680979,0.11698286,0.11086251,0.10663127,0.07707301,-0.36113036,-0.49572435,-0.6389532,-0.11738647,754.2857,799.41394,797.8022,774.43225,724.0659,-0.2685546875,-0.013916015625,0.96893310546875,1.981353759765625,-2.938385009765625,0.5682373046875,1,1.0,1.0,1.0,1.0,50.00
2021-04-12 22:47:12.637,0.20669977,0.75395423,0.41594458,0.06476091,0.069580644,0.40779346,0.09303877,0.4514293,0.123111695,0.31835806,0.6915124,0.3608759,0.14937949,0.109670766,-0.028666096,0.06987923,-0.35022375,-0.5386339,-0.5795295,-0.053387016,772.01465,803.8461,800.6227,772.8205,610.4396,-0.298583984375,-0.03839111328125,0.93353271484375,8.112335205078125,-2.280426025390625,3.22998046875,1,1.0,1.0,1.0,1.0,50.00
2021-04-12 22:47:13.143,0.8160452,0.1343147,0.30536175,0.3607396,0.24867976,-0.030798715,0.095059715,0.51242167,0.6342453,0.43426406,0.118942164,0.40667257,0.16364394,0.099196814,0.03503024,0.1708561,-0.25019524,-0.52252877,-0.5314966,-0.0035313577,796.1905,806.6667,792.96704,788.93774,706.337,-0.2581787109375,-0.0439453125,0.9501953125,0.665435791015625,-9.413299560546875,-1.07666015625,1,1.0,1.0,1.0,1.0,50.00
2021-04-12 22:47:13.649,1.0819287,0.34613603,0.37421447,0.449127,0.3859225,-0.0047345124,0.16251169,0.53699875,0.6976524,0.42517376,0.1002472,0.3709078,0.25879943,0.059133135,0.089997575,0.32255784,-0.18573678,-0.60452366,-0.47867665,0.052508075,764.35895,809.0842,786.1172,777.6557,647.1062,-0.2581787109375,-0.00439453125,0.96337890625,-3.117828369140625,-17.30133056640625,5.510406494140625,1,1.0,1.0,1.0,1.0,50.00
2021-04-12 22:47:14.168,1.1827452,0.47866565,0.45778254,0.5388175,0.34918866,0.086118504,0.21790245,0.5724123,0.698244,0.44955927,0.22343805,0.36398017,0.30363247,0.05182881,0.16698156,0.4195549,-0.1903089,-0.5933832,-0.44141704,0.078043625,752.674,807.47253,794.17584,741.79486,511.3187,-0.23187255859375,0.0150146484375,0.9581298828125,6.886138916015625,-2.295379638671875,-3.289794921875,1,1.0,1.0,1.0,1.0,50.00
2021-04-12 22:47:14.672,1.0590932,0.6806038,0.6817531,0.4741911,0.30240104,0.44340143,0.11515961,0.56166387,0.61566114,0.5829076,0.2913417,0.23497087,0.33863303,0.08245734,0.08181668,0.4609194,-0.26447713,-0.56086755,-0.36900973,0.04405962,756.30035,803.0403,801.02563,771.6117,699.89014,-0.2728271484375,0.00653076171875,0.961669921875,7.0281982421875,-1.98883056640625,1.009368896484375,1,1.0,1.0,1.0,1.0,50.00
2021-04-12 22:47:15.003,,,,,,,,,,,,,,,,,,,,,,,,,,,,,,,,,,,,,,/muse/elements/blink
2021-04-12 22:47:15.180,0.87380177,0.7748428,0.8149971,0.55524117,0.25361905,0.63325423,0.23214588,0.55481374,0.45157117,0.60558695,0.2819738,0.17866273,0.30012637,0.11834668,0.07098362,0.38401556,-0.3441514,-0.5017038,-0.3288594,0.053788666,898.5348,803.8461,795.38464,881.6117,841.7216,-0.3017578125,0.047119140625,0.94720458984375,5.21881103515625,-2.930908203125,-0.067291259765625,1,1.0,1.0,1.0,1.0,50.00
2021-04-12 22:47:15.688,0.67759395,0.91246945,0.92874664,0.55524117,0.38904354,0.7930786,0.30995613,0.55481374,0.39808512,0.60558695,0.2634794,0.17866273,0.2800684,0.104674004,-0.049055297,0.38401556,-0.33178,-0.41240364,-0.32654393,0.053788666,786.1172,804.2491,800.2198,799.81683,611.6484,-0.283935546875,0.0557861328125,0.96649169921875,2.97576904296875,-5.091705322265625,6.482391357421875,1,1.0,1.0,1.0,1.0,50.00
2021-04-12 22:47:16.202,0.5607,0.9838479,0.7271468,0.55524117,0.43904516,0.9049039,0.32042995,0.55481374,0.34635177,0.5961505,0.18255241,0.17866273,0.22541502,0.05546882,-0.043846685,0.38401556,-0.38592127,-0.4028594,-0.31422493,0.053788666,757.1062,799.011,812.71063,769.19415,659.19415,-0.2706298828125,0.06378173828125,0.96038818359375,6.3104248046875,-5.659942626953125,-1.009368896484375,1,1.0,1.0,1.0,1.0,50.00
2021-04-12 22:47:16.716,0.5402286,0.30438757,0.104835846,0.32883763,0.3597057,0.1674323,-0.031286083,0.38281295,0.3693001,0.055787824,-0.12437203,0.10303223,0.3279078,-0.005350736,-0.036066353,0.18766706,-0.71498847,-0.7131625,-0.26368737,-0.2727097,824.7985,815.12823,804.65204,810.696,732.1245,-0.29193115234375,0.0638427734375,0.954833984375,1.128997802734375,-3.058013916015625,-6.47491455078125,1,1.0,1.0,1.0,1.0,50.00
2021-04-12 22:47:17.219,0.5137185,0.40189815,0.261734,0.17247212,0.24322273,0.27199522,0.055607833,0.34222823,0.42742586,0.11557342,0.2909044,0.5564745,0.11891093,-0.009907404,0.04590551,0.2710642,-0.64446557,-0.54270107,-0.2730835,-0.36221176,754.2857,762.3443,833.2601,766.3736,791.75824,-0.30767822265625,0.02685546875,0.96734619140625,0.665435791015625,-5.5926513671875,-1.996307373046875,1,1.0,1.0,1.0,1.0,50.00
2021-04-12 22:47:17.353,,,,,,,,,,,,,,,,,,,,,,,,,,,,,,,,,,,,,,/muse/elements/blink
2021-04-12 22:47:17.735,0.5137185,0.45177022,0.4036515,0.17247212,0.24322273,0.31292978,0.09139826,0.34222823,0.42742586,0.11557342,0.2909044,0.5564745,0.11891093,-0.004198788,0.05178961,0.2710642,-0.64446557,-0.5232342,-0.27674937,-0.36221176,803.0403,809.0842,801.4286,827.2161,720.0366,-0.3184814453125,-0.0291748046875,0.94781494140625,4.74029541015625,-1.861724853515625,2.968292236328125,1,1.0,1.0,1.0,1.0,50.00
2021-04-12 22:47:18.237,0.48548433,0.50963295,0.54398715,-0.074246526,0.0835646,0.3857926,0.17753379,0.29745618,0.23372608,0.05105742,0.24490377,0.53400725,-0.29910344,-0.016368141,0.108156316,0.3409975,-0.58381075,-0.3799906,-0.28854907,-0.47507802,763.95605,797.3993,798.60803,763.1502,619.304,-0.31121826171875,-0.01507568359375,0.9517822265625,4.5159912109375,-5.802001953125,0.889739990234375,1,1.0,1.0,1.0,1.0,50.00
2021-04-12 22:47:18.754,0.48548433,0.47925183,0.38116473,-0.074246526,0.0835646,0.37998223,-0.22576655,0.29745618,0.23372608,0.014405076,0.1372314,0.53400725,-0.29910344,-0.019265192,0.040249314,0.3409975,-0.58381075,-0.3439305,-0.56146294,-0.47507802,843.3333,806.6667,800.2198,838.49817,697.47253,-0.30267333984375,-0.0111083984375,0.9556884765625,4.42626953125,-5.749664306640625,-0.0,1,1.0,1.0,1.0,1.0,50.00
2021-04-12 22:47:19.261,0.2797023,0.4261473,-0.18472226,0.21018028,0.3843295,0.056172617,-0.64919233,0.30874777,0.30822435,0.009436253,-0.034714308,0.23908015,-0.024137752,0.0061149723,0.086591326,0.014418243,-0.3648875,-0.37116334,-0.5789868,-0.13285975,777.25275,818.3516,807.47253,801.4286,835.6777,-0.3048095703125,-0.009521484375,0.9534912109375,3.9178466796875,-3.775787353515625,1.435546875,1,1.0,1.0,1.0,1.0,50.00
2021-04-12 22:47:19.773,0.2867989,0.3300382,-0.18132259,0.34024233,0.35726807,0.060170833,-0.5290118,0.20519206,0.32491085,0.17031784,0.15662429,0.33877367,0.076889284,0.044577472,0.021679806,0.040587936,-0.38565528,-0.4379579,-0.5359666,-0.1584995,766.77655,808.68134,806.6667,772.4176,681.3553,-0.2965087890625,-0.00634765625,0.95819091796875,4.56085205078125,-4.628143310546875,1.996307373046875,1,1.0,1.0,1.0,1.0,50.00
2021-04-12 22:47:20.299,0.18082641,0.30026472,0.023035137,0.23134099,0.24335966,0.09579078,-0.37402728,0.10578781,0.33617026,0.18700212,0.1700971,0.34061247,0.09334712,0.07134322,-0.036768094,0.082654014,-0.27171284,-0.526696,-0.251368,-0.08315571,748.6447,792.1612,816.337,733.73627,743.00366,-0.2890625,-0.0059814453125,0.9534912109375,5.66741943359375,-5.03936767578125,1.18133544921875,1,1.0,1.0,1.0,1.0,50.00
2021-04-12 22:47:20.403,,,,,,,,,,,,,,,,,,,,,,,,,,,,,,,,,,,,,,/muse/elements/blink
2021-04-12 22:47:20.827,0.07850115,0.27436364,0.37118524,0.24154685,0.1377844,0.25497022,0.022376588,-0.047792196,0.33617026,0.076702945,0.2801913,0.30533695,0.13636032,0.039564483,-0.08915795,0.11313177,-0.22924274,-0.5935023,-0.14683744,-0.06028595,847.76556,804.2491,802.6374,857.03296,979.5238,-0.2879638671875,0.00775146484375,0.96173095703125,3.431854248046875,-3.7384033203125,1.757049560546875,1,1.0,1.0,1.0,1.0,50.00
2021-04-12 22:47:21.351,-0.37358305,0.38613996,0.61292017,-0.13517994,-0.18986481,0.34073073,0.2236001,-0.20793284,0.13778232,0.07171834,0.30239698,0.05761386,0.09577879,-0.05621813,0.027358748,0.15623865,-0.10102705,-0.63721067,-0.109268665,0.036938034,765.9707,796.99634,807.0696,793.7729,654.35895,-0.2972412109375,0.011962890625,0.957763671875,5.016937255859375,-4.807586669921875,1.74957275390625,1,1.0,1.0,1.0,1.0,50.00
2021-04-12 22:47:21.855,0.18454643,0.33183452,0.57078975,-0.105529524,-0.6360889,0.2638001,0.30449805,0.33424082,-0.062185455,-0.034643304,0.30519363,0.4137651,0.35782328,-0.11394172,0.07785983,0.39675766,-0.3783495,-0.69987494,-0.24452539,-0.23670144,821.5751,845.34796,781.28204,811.0989,794.9817,-0.29339599609375,0.01519775390625,0.96051025390625,4.837493896484375,-4.65057373046875,0.37384033203125,1,1.0,1.0,1.0,1.0,50.00
2021-04-12 22:47:22.361,0.6141842,0.76392084,0.57996833,0.32585138,0.06679781,0.3888089,0.26806083,0.13805673,0.11824371,0.4428232,0.45654035,0.65302044,0.18122646,-0.06677162,0.072603025,0.34498516,-0.32141924,-0.599354,-0.36165124,-0.13044026,760.7326,805.8608,807.8755,763.95605,618.9011,-0.2923583984375,0.005615234375,0.9581298828125,4.29168701171875,-4.605712890625,0.97198486328125,1,1.0,1.0,1.0,1.0,50.00
2021-04-12 22:47:22.879,0.6981062,1.0002694,0.64069605,0.41357717,0.0124995615,0.53257513,0.3108708,0.089893505,0.1583008,0.46847865,0.4581091,0.6564279,0.15971735,0.014414867,0.056646943,0.25664306,-0.25370508,-0.5014516,-0.28722635,-0.10530478,843.73627,789.34064,802.6374,854.21246,730.9158,-0.29034423828125,0.01214599609375,0.95819091796875,4.78515625,-4.65057373046875,0.37384033203125,1,1.0,1.0,1.0,1.0,50.00
2021-04-12 22:47:23.384,0.6870366,0.9873043,0.64827955,0.40473172,0.10997706,0.5211449,0.255191,-0.061347637,0.47930717,0.46847865,0.44983587,0.5692946,0.096595205,0.02722635,0.0565228,0.16241153,-0.24642615,-0.4492065,-0.29928622,-0.096736565,779.67035,762.74725,836.8865,786.9231,931.5751,-0.29718017578125,0.00347900390625,0.96343994140625,4.224395751953125,-3.431854248046875,-0.216827392578125,1,1.0,1.0,1.0,1.0,50.00
2021-04-12 22:47:23.556,,,,,,,,,,,,,,,,,,,,,,,,,,,,,,,,,,,,,,/muse/elements/blink
2021-04-12 22:47:23.899,0.6163183,0.9183617,0.52376914,0.3386786,-0.026729517,0.6865676,0.13194239,-0.028750738,0.47122645,0.55150145,0.33163193,0.51489717,0.15783949,0.116129845,0.0710393,0.06297777,-0.22849075,-0.44654998,-0.22610615,-0.117997505,761.13556,807.8755,794.9817,756.7033,640.65936,-0.29327392578125,0.00848388671875,0.9615478515625,4.867401123046875,-4.702911376953125,1.15142822265625,1,1.0,1.0,1.0,1.0,50.00
2021-04-12 22:47:24.406,0.037405267,0.887898,0.40592214,-0.22083715,0.05598813,0.82927036,-0.0024085592,-0.049156163,0.3488758,0.43231067,-0.113608696,0.25183102,0.20289586,0.05190193,-0.01521774,0.100542605,-0.34540024,-0.45609364,-0.3110675,-0.19753486,809.0842,795.38464,805.4579,795.38464,756.7033,-0.28887939453125,0.0057373046875,0.95751953125,4.463653564453125,-4.613189697265625,0.740203857421875,1,1.0,1.0,1.0,1.0,50.00
2021-04-12 22:47:24.923,0.037405267,0.931596,0.4955419,-0.22083715,0.05598813,0.84539324,0.0028778194,-0.049156163,0.3488758,0.43655783,-0.0075442865,0.25183102,0.20289586,0.11417012,-0.1290063,0.100542605,-0.34540024,-0.41642526,-0.34349254,-0.19753486,859.0476,804.65204,808.68134,853.8095,919.4872,-0.29205322265625,0.00927734375,0.959228515625,4.613189697265625,-4.179534912109375,0.485992431640625,1,1.0,1.0,1.0,1.0,50.00
2021-04-12 22:47:25.450,0.49172452,1.0329423,0.82284546,0.24779558,0.4784367,0.70808536,0.37745404,0.55193585,0.6062564,0.43679053,0.53743017,0.6156742,0.0970798,0.081492975,-0.15133011,0.30418128,-0.44139495,-0.43271032,-0.415152,-0.12688686,763.5531,795.78754,806.6667,767.1795,684.9817,-0.28814697265625,0.00640869140625,0.95550537109375,4.792633056640625,-4.4561767578125,0.28411865234375,1,1.0,1.0,1.0,1.0,50.00
2021-04-12 22:47:25.961,0.44221246,0.8708774,0.7085938,0.25588003,0.36774415,0.29907086,0.28330335,0.46128562,0.6088687,0.28248742,0.53743017,0.6156742,0.07973111,0.06917618,-0.10920356,0.2732767,-0.45935106,-0.4510516,-0.39080307,-0.19827268,760.32965,805.8608,800.2198,762.74725,643.8828,-0.29345703125,0.00872802734375,0.96038818359375,4.2767333984375,-4.089813232421875,1.18133544921875,1,1.0,1.0,1.0,1.0,50.00
2021-04-12 22:47:26.473,0.35527566,0.8295922,0.68493307,0.30042636,0.29774797,0.28455928,0.23073815,0.42018035,0.19629674,0.28248742,0.5598364,0.6562335,0.14337076,-0.076278195,0.006863787,0.21025099,-0.4218559,-0.43410486,-0.28407055,-0.20086053,793.7729,808.2784,813.1135,787.72894,852.1978,-0.287353515625,0.001708984375,0.958740234375,4.9346923828125,-4.246826171875,1.413116455078125,1,1.0,1.0,1.0,1.0,50.00
2021-04-12 22:47:26.925,,,,,,,,,,,,,,,,,,,,,,,,,,,,,,,,,,,,,,/muse/elements/blink
2021-04-12 22:47:26.991,0.20281269,0.1845212,0.22059903,0.2861971,0.060242273,-0.11879808,-0.3423896,0.19445293,0.14497794,0.045178615,0.23782632,0.5007141,0.1800476,-0.17843667,0.018811647,0.1306648,-0.3731422,-0.4837767,-0.27621987,-0.2841145,873.95605,804.65204,799.011,861.06226,805.4579,-0.29412841796875,0.00787353515625,0.96087646484375,4.42626953125,-4.418792724609375,1.248626708984375,1,1.0,1.0,1.0,1.0,50.00
2021-04-12 22:47:27.506,0.042063605,0.2983194,0.4576169,0.2988414,0.0273408,-0.03935424,0.20268565,0.13228469,0.13286732,0.163893,0.25660744,0.44074625,0.26960862,-0.062290452,0.043983907,0.009478541,-0.3065466,-0.5668174,-0.25404012,-0.25583106,849.7802,801.02563,795.38464,831.6484,897.72894,-0.28253173828125,-0.0133056640625,0.955810546875,2.6019287109375,-4.224395751953125,-0.299072265625,1,1.0,1.0,1.0,1.0,50.00
2021-04-12 22:47:28.010,0.080254845,0.31667012,0.42008397,0.30666217,-0.0415436,-0.1341538,0.23771185,0.0864556,0.07010023,0.1651896,0.1554175,0.3920634,0.2880437,-0.020236844,0.02757314,-0.085343815,-0.30306572,-0.64466,-0.3806317,-0.29276425,750.65936,800.2198,802.23444,767.1795,691.4286,-0.27996826171875,0.009765625,0.9620361328125,4.987030029296875,-3.775787353515625,0.55328369140625,1,1.0,1.0,1.0,1.0,50.00
2021-04-12 22:47:28.541,0.40385452,0.34905055,0.4147524,0.33548373,0.23140043,-0.0733824,0.23006387,-0.13691215,0.26558605,0.36580113,0.26444495,0.24207859,0.29583055,0.00401702,0.07754876,0.30006033,-0.25275669,-0.68370366,-0.38613522,-0.33585405,790.54944,807.47253,807.47253,765.56775,681.3553,-0.2767333984375,0.0029296875,0.964599609375,5.203857421875,-4.538421630859375,1.457977294921875,1,1.0,1.0,1.0,1.0,50.00
2021-04-12 22:47:29.065,0.3420097,0.8198724,0.76254225,0.6806101,0.121356875,0.53775865,0.3493236,0.52723044,0.3135824,0.7079897,0.4349439,0.45646766,0.3336071,0.094564974,0.1486938,0.40953398,-0.2605868,-0.553088,-0.38176897,-0.3373296,852.6007,794.57874,803.44324,824.7985,909.011,-0.27178955078125,0.0084228515625,0.96844482421875,4.987030029296875,-5.33843994140625,2.489776611328125,1,1.0,1.0,1.0,1.0,50.00
2021-04-12 22:47:29.323,,,,,,,,,,,,,,,,,,,,,,,,,,,,,,,,,,,,,,/muse/elements/blink
2021-04-12 22:47:29.573,0.33784714,0.90820366,0.9108741,0.70705056,0.12857744,0.6632458,0.60914916,0.5648794,0.24918032,0.7079897,0.54599386,0.45646766,0.34892437,0.1899629,0.13762158,0.42476806,-0.25769636,-0.45040727,-0.24431975,-0.32852143,845.7509,799.011,804.2491,853.00366,753.0769,-0.2745361328125,0.00775146484375,0.96722412109375,4.725341796875,-4.844970703125,2.220611572265625,1,1.0,1.0,1.0,1.0,50.00
2021-04-12 22:47:30.097,0.2538864,1.0730617,1.1373434,0.90017647,-0.06310155,0.80754113,0.8956926,0.8150234,0.1647373,0.7079897,0.54646856,0.45646766,0.3749878,0.18216145,0.1867916,0.5124387,-0.2701732,-0.32624814,-0.19324932,-0.33910692,745.82416,794.9817,793.7729,770.80585,629.3773,-0.2752685546875,0.0120849609375,0.96630859375,4.209442138671875,-5.016937255859375,0.478515625,1,1.0,1.0,1.0,1.0,50.00
2021-04-12 22:47:30.601,0.3037389,0.8222493,0.9986419,0.9082125,-0.15136501,0.5785786,0.8132683,0.8441947,0.07677952,0.30743662,0.45413563,0.43702462,0.3836797,0.0773144,0.18681172,0.50771755,-0.2697763,-0.38463378,-0.25556338,-0.32696846,776.8498,805.4579,802.23444,767.1795,690.2198,-0.2701416015625,0.00665283203125,0.9652099609375,4.605712890625,-4.14215087890625,1.069183349609375,1,1.0,1.0,1.0,1.0,50.00
2021-04-12 22:47:31.120,0.28562522,0.70473963,0.8818313,-0.041741643,0.19027215,0.46469665,0.6691933,0.14826111,0.5106328,0.30178845,0.44175255,0.74989593,0.18550543,-0.090652354,0.16873008,0.21873568,-0.42106962,-0.47552586,-0.40154558,-0.2603264,829.6337,796.5934,804.65204,820.7692,696.6667,-0.2742919921875,0.01019287109375,0.9610595703125,4.486083984375,-5.615081787109375,0.73272705078125,1,1.0,1.0,1.0,1.0,50.00
2021-04-12 22:47:31.630,0.5124328,-0.03568237,0.06775026,0.1310401,0.12874947,-0.069084,-0.16596733,0.09520095,0.58238626,-0.3034371,0.23679982,0.74989593,0.10901906,-0.105942085,0.08958853,0.1351515,-0.32742706,-0.58324766,-0.49221414,-0.32518563,802.6374,836.08057,783.69965,778.0586,744.61536,-0.27313232421875,0.0126953125,0.9666748046875,4.56085205078125,-4.47113037109375,1.712188720703125,1,1.0,1.0,1.0,1.0,50.00
2021-04-12 22:47:32.149,0.44864058,0.444566,0.4200743,0.20702851,-0.025068652,0.13552074,0.079281084,0.19888334,0.63010937,0.4396366,0.4354771,0.7726468,0.1998162,-0.10871408,-0.025503969,0.23343113,-0.29421568,-0.45972407,-0.4748045,-0.27124646,782.0879,809.0842,801.8315,801.02563,732.9304,-0.26458740234375,0.01617431640625,0.966552734375,4.164581298828125,-4.179534912109375,0.112152099609375,1,1.0,1.0,1.0,1.0,50.00
2021-04-12 22:47:32.659,0.44677836,0.86384124,0.7509683,0.374138,-0.17765611,0.3332697,0.4074263,0.40852493,0.58542806,0.49824458,0.4600063,0.70460075,0.23771928,-0.06456952,0.06242819,0.3322539,-0.2445316,-0.42999724,-0.36696163,-0.23359194,747.03296,787.326,803.8461,747.8388,637.03296,-0.26812744140625,0.01190185546875,0.9638671875,4.777679443359375,-4.463653564453125,0.396270751953125,1,1.0,1.0,1.0,1.0,50.00
2021-04-12 22:47:33.178,0.17041954,0.87640977,0.7759851,0.36688334,-0.008891096,0.3677087,0.41388842,0.43190083,0.35780022,0.49824458,0.4524597,0.5844675,0.2798128,-0.058113944,0.10105764,0.35893133,-0.22600216,-0.38248888,-0.37435278,-0.11934864,813.1135,799.41394,803.8461,809.89014,842.1245,-0.27001953125,0.0074462890625,0.96551513671875,4.358978271484375,-4.059906005859375,0.127105712890625,1,1.0,1.0,1.0,1.0,50.00
2021-04-12 22:47:33.684,0.021362321,0.81644624,0.6151152,0.43060344,0.05009984,0.31161228,0.2984515,0.34124216,0.33295977,0.481729,0.44110093,0.5777252,0.22780034,-0.052863404,0.1900822,0.28537965,-0.24770674,-0.44874907,-0.32403392,-0.13486136,845.34796,797.3993,804.2491,844.1392,895.31134,-0.27728271484375,0.00543212890625,0.968017578125,4.478607177734375,-4.044952392578125,0.246734619140625,1,1.0,1.0,1.0,1.0,50.00
2021-04-12 22:47:34.195,-0.15917607,0.3689092,0.11327471,0.33867973,0.12808232,0.08911855,-0.1993978,-0.019710409,0.479108,0.14553031,0.104682334,0.41247082,0.24885614,-0.103944324,0.15272112,0.16561906,-0.23823746,-0.5392267,-0.27324927,-0.17137869,789.7436,798.60803,805.8608,804.65204,620.9158,-0.27154541015625,-0.00799560546875,0.96441650390625,2.6617431640625,-2.833709716796875,-1.547698974609375,1,1.0,1.0,1.0,1.0,50.00
2021-04-12 22:47:34.720,-0.3684934,0.48854423,0.23326632,0.3207917,0.039993044,0.03424813,-0.03876425,-0.045270808,0.479108,0.113385215,0.030527813,0.33114097,0.2919336,-0.033312563,0.15222499,0.23437731,-0.24228548,-0.65429544,-0.19223638,-0.22670558,895.31134,829.2308,784.10254,867.50916,817.9487,-0.28497314453125,0.009765625,0.95928955078125,4.732818603515625,1.443023681640625,0.22430419921875,1,1.0,1.0,1.0,1.0,50.00
2021-04-12 22:47:35.246,-0.42188242,0.40586796,0.25503382,0.043087628,0.10313676,-0.16381492,0.036857873,0.05231554,0.41721666,0.037321758,0.010132533,0.014215841,0.35253987,0.008539727,0.08512904,0.26807886,-0.14683016,-0.75172913,-0.14972228,-0.20591842,805.8608,805.05493,803.0403,780.4762,723.2601,-0.28515625,-1.8310546875E-4,0.96588134765625,5.301055908203125,-1.9140625,1.21124267578125,1,1.0,1.0,1.0,1.0,50.00
2021-04-12 22:47:35.764,-0.4738282,0.46554193,0.46289143,-0.04776542,0.15242761,-0.12796623,0.16442466,0.14720647,0.39281884,0.12572807,-0.020152815,-0.0012639837,0.38107517,0.08895924,0.12239951,0.35124665,-0.114395864,-0.5641305,-0.23207666,-0.17311083,856.63007,801.8315,807.0696,847.76556,863.47986,-0.3057861328125,0.04638671875,0.95654296875,8.97216796875,-4.32159423828125,5.323486328125,1,1.0,1.0,1.0,1.0,50.00
2021-04-12 22:47:36.265,-0.4738282,0.27589488,0.07985768,-0.04776542,0.15242761,0.0436998,0.023835775,0.14720647,0.39281884,0.22739774,0.23526779,-0.0012639837,0.38107517,0.022292202,-0.07228163,0.35124665,-0.114395864,-0.59108716,-0.3435066,-0.17311083,805.4579,801.8315,809.4872,826.8132,653.95605,-0.27947998046875,0.07318115234375,0.9691162109375,6.392669677734375,-5.211334228515625,3.491668701171875,1,1.0,1.0,1.0,1.0,50.00
2021-04-12 22:47:36.546,,,,,,,,,,,,,,,,,,,,,,,,,,,,,,,,,,,,,,/muse/elements/blink
2021-04-12 22:47:36.782,0.26389587,0.46052784,0.14669429,-0.0348191,0.19897546,0.16657864,0.014352501,0.31376138,0.19377784,0.29949015,0.2947242,0.4712306,0.1323248,0.021867044,-0.07749147,0.25661084,-0.20850033,-0.5294653,-0.3538863,-0.08687807,782.49084,815.9341,803.44324,790.54944,654.35895,-0.28839111328125,0.076416015625,0.9521484375,2.908477783203125,-4.104766845703125,0.082244873046875,1,1.0,1.0,1.0,1.0,50.00
2021-04-12 22:47:37.298,0.26389587,0.5348879,-0.011539069,-0.0348191,0.19897546,0.17636842,-0.0010538251,0.31376138,0.19377784,0.2702785,0.2947242,0.4712306,0.1323248,-0.003139401,-0.1384067,0.25661084,-0.20850033,-0.5468832,-0.34344798,-0.08687807,791.75824,811.0989,799.011,784.5055,753.8828,-0.2830810546875,0.08331298828125,0.95703125,5.480499267578125,-5.734710693359375,1.00189208984375,1,1.0,1.0,1.0,1.0,50.00
2021-04-12 22:47:37.812,0.26389587,0.68482447,0.15716563,-0.0348191,0.19897546,0.27331448,-0.0981498,0.31376138,0.19377784,0.14608976,0.27570686,0.4712306,0.1323248,-0.013750353,-0.10337016,0.25661084,-0.20850033,-0.48203227,-0.3483236,-0.08687807,792.5641,805.05493,798.20514,801.8315,779.2674,-0.278076171875,0.07861328125,0.96136474609375,4.254302978515625,-4.0374755859375,1.532745361328125,1,1.0,1.0,1.0,1.0,50.00
2021-04-12 22:47:38.323,0.072600834,0.3093519,0.10522631,-0.14571829,0.6059012,0.12963526,-0.37074602,0.30398503,0.6857869,0.32288417,-0.31591904,0.19083925,-0.043507338,-0.14376181,-0.12623915,0.10540078,-0.25583303,-0.5691497,-0.31149918,-0.22647254,836.4835,814.3223,789.7436,839.304,805.8608,-0.27496337890625,0.07525634765625,0.96478271484375,4.478607177734375,-4.18701171875,0.725250244140625,1,1.0,1.0,1.0,1.0,50.00
2021-04-12 22:47:38.831,0.2883226,0.73971117,0.6164038,0.41537154,0.48105243,0.3335429,0.071876265,0.2797079,0.68773067,0.5037902,0.55467206,0.4053176,0.079915196,-0.073185995,-0.034802746,0.34205624,-0.112609714,-0.5535855,-0.35089397,-0.06625845,763.5531,803.44324,803.0403,783.69965,796.5934,-0.27801513671875,0.09027099609375,0.95489501953125,9.637603759765625,-2.6318359375,-1.36077880859375,1,1.0,1.0,1.0,1.0,50.00
2021-04-12 22:47:39.358,0.2988168,0.8110782,0.6593226,0.33677062,0.5538865,0.3573364,0.13052502,0.32343462,0.72305954,0.5037902,0.55519986,0.4728336,0.14469106,-0.026797779,-0.0340509,0.26264918,-0.119977966,-0.46477306,-0.32755238,-0.08096718,805.4579,809.4872,810.293,794.17584,773.6264,-0.28472900390625,0.08673095703125,0.95263671875,0.97198486328125,-2.370147705078125,3.416900634765625,1,1.0,1.0,1.0,1.0,50.00
2021-04-12 22:47:39.526,,,,,,,,,,,,,,,,,,,,,,,,,,,,,,,,,,,,,,/muse/elements/blink
2021-04-12 22:47:39.867,0.37908304,0.9446374,0.79357284,0.43999413,0.52533966,0.56670696,0.3735831,0.33097696,0.588296,0.4605158,0.5707665,0.4674455,0.21503593,-0.014409694,-0.016030358,0.31245184,-0.0652468,-0.3875547,-0.23895177,-0.03413042,845.34796,797.3993,803.44324,836.4835,826.0073,-0.2840576171875,0.09075927734375,0.9566650390625,4.26177978515625,-4.508514404296875,1.278533935546875,1,1.0,1.0,1.0,1.0,50.00
2021-04-12 22:47:40.380,0.31907386,1.028804,0.8326879,0.14490344,0.67075855,0.77529705,0.48615593,0.39251307,0.588296,0.36326954,0.5154061,0.36472386,0.25092396,0.04676797,-0.004853094,0.0680661,-0.13510045,-0.36916697,-0.19352289,-0.108767435,836.4835,799.011,802.6374,838.0952,855.42126,-0.28143310546875,0.08758544921875,0.95849609375,4.583282470703125,-4.0972900390625,0.680389404296875,1,1.0,1.0,1.0,1.0,50.00
2021-04-12 22:47:40.710,,,,,,,,,,,,,,,,,,,,,,,,,,,,,,,,,,,,,,/muse/elements/blink
2021-04-12 22:47:40.902,0.26233655,1.1074924,0.88258034,-0.10164925,0.6835489,0.84205204,0.50731003,0.35910565,0.588296,0.38863024,0.38167062,0.28559867,0.25755063,0.048573174,-9.769518E-4,-0.004217703,-0.199747,-0.43805775,-0.20869887,-0.16326164,784.5055,804.2491,794.9817,805.4579,608.022,-0.277587890625,0.08978271484375,0.953369140625,3.955230712890625,-4.23187255859375,2.25799560546875,1,1.0,1.0,1.0,1.0,50.00
2021-04-12 22:47:41.429,0.26233655,1.2862862,0.9176127,-0.10164925,0.6835489,0.92108583,0.4852257,0.35910565,0.588296,0.38508457,0.35783446,0.28559867,0.25755063,0.09699682,0.03897683,-0.004217703,-0.199747,-0.49482816,-0.29763496,-0.16326164,763.1502,824.3956,788.93774,742.1978,677.72894,-0.2850341796875,0.09490966796875,0.95501708984375,4.7552490234375,-4.463653564453125,0.351409912109375,1,1.0,1.0,1.0,1.0,50.00
2021-04-12 22:47:41.938,0.26233655,1.2827641,0.98206496,-0.10164925,0.6835489,0.8006824,0.38466462,0.35910565,0.588296,0.55452055,0.28604785,0.28559867,0.25755063,0.04753051,0.018581228,-0.004217703,-0.199747,-0.5924293,-0.31957006,-0.16326164,817.5458,799.81683,800.2198,799.011,792.96704,-0.27520751953125,0.084228515625,0.95965576171875,3.39447021484375,-4.127197265625,1.973876953125,1,1.0,1.0,1.0,1.0,50.00
2021-04-12 22:47:42.450,-0.14776202,0.9747909,0.86237293,0.25335565,0.12521137,0.5687856,0.34738013,0.5694384,0.12198693,0.45973086,0.20938809,-0.21412121,0.26723117,0.03810652,0.055855464,0.1579166,-0.43410417,-0.69418687,-0.43284753,-0.20159192,848.1685,799.81683,807.47253,846.55676,792.1612,-0.2900390625,0.083251953125,0.95233154296875,3.910369873046875,-5.241241455078125,0.64300537109375,1,1.0,1.0,1.0,1.0,50.00
2021-04-12 22:47:42.973,-0.03195907,0.8113065,0.68991816,0.047726825,0.15404718,0.41543904,0.26309106,0.4136613,0.2438798,0.4650806,0.23571202,0.061596733,0.27059016,0.03358423,0.07359004,0.1265336,-0.31285968,-0.6515258,-0.40237436,-0.22276717,783.2967,796.5934,806.26373,803.8461,798.20514,-0.2808837890625,0.0859375,0.95458984375,4.007568359375,-5.211334228515625,1.099090576171875,1,1.0,1.0,1.0,1.0,50.00
2021-04-12 22:47:43.487,0.16652073,0.41459608,0.29816297,-0.025369136,0.05725776,0.04964319,0.06853987,0.35079327,0.2903799,0.28505552,0.15755479,0.3650759,0.2539277,-0.0077043553,0.08649542,0.10679382,-0.26842064,-0.59444565,-0.49956328,-0.16258849,757.50916,804.65204,805.8608,754.68866,610.4396,-0.284423828125,0.07928466796875,0.95672607421875,4.5159912109375,-4.658050537109375,-0.067291259765625,1,1.0,1.0,1.0,1.0,50.00
2021-04-12 22:47:44.006,0.2166602,-0.06097796,-0.07225663,0.041256305,0.06130285,-0.26039955,-0.057354566,0.17883219,0.2889686,0.011283335,0.2794063,0.40429538,0.2584979,-0.046520364,0.06503388,0.18178353,-0.23909478,-0.56399524,-0.5071417,-0.0996094,801.4286,797.8022,799.41394,788.93774,783.2967,-0.2799072265625,0.08154296875,0.955810546875,4.717864990234375,-5.18890380859375,-0.037384033203125,1,1.0,1.0,1.0,1.0,50.00
2021-04-12 22:47:44.535,0.24019907,0.0447572,-0.01901321,0.28581122,0.11179453,-0.14631166,-0.16516848,0.17066197,0.34702685,0.13788292,0.3043422,0.42125407,0.30804357,-0.015488553,-0.008955271,0.28790435,-0.27842203,-0.51985663,-0.56223154,-0.04179266,872.3443,814.7253,800.6227,871.13556,862.674,-0.2823486328125,0.0816650390625,0.962158203125,4.26177978515625,-4.388885498046875,1.07666015625,1,1.0,1.0,1.0,1.0,50.00
2021-04-12 22:47:45.063,0.48281777,0.84008723,0.70448786,0.73954016,0.29270178,0.25687593,0.25621128,0.37991923,0.5575492,0.4669116,0.4077349,0.36316147,0.3234077,0.011994757,-0.012981956,0.4205003,-0.3319307,-0.5353024,-0.531963,-0.03426994,794.9817,807.8755,792.96704,816.337,670.87915,-0.2845458984375,0.084716796875,0.95556640625,4.538421630859375,-4.598236083984375,0.79254150390625,1,1.0,1.0,1.0,1.0,50.00
2021-04-12 22:47:45.463,,,,,,,,,,,,,,,,,,,,,,,,,,,,,,,,,,,,,,/muse/elements/blink
2021-04-12 22:47:45.576,0.6694547,1.0146643,0.84512687,0.86962086,0.36764535,0.42804512,0.32512602,0.473733,0.56771356,0.46672893,0.3755507,0.24894775,0.27868694,0.043793947,-0.01616227,0.43443292,-0.35555735,-0.46526486,-0.41096553,-0.05481778,874.35895,811.9048,806.26373,873.95605,819.9634,-0.28387451171875,0.09185791015625,0.9613037109375,5.562744140625,-4.792633056640625,2.1234130859375,1,1.0,1.0,1.0,1.0,50.00
2021-04-12 22:47:46.097,0.86267436,1.2629855,1.0110519,1.042007,0.42755368,0.91183215,0.4751126,0.63283706,0.5227799,0.46809894,0.34153035,0.18263566,0.18461366,-0.0121442545,0.037002668,0.43869877,-0.38787583,-0.432553,-0.40104222,-0.029344305,761.9414,803.44324,800.6227,776.04395,702.71063,-0.28515625,0.0870361328125,0.959716796875,4.882354736328125,-5.00946044921875,0.889739990234375,1,1.0,1.0,1.0,1.0,50.00
2021-04-12 22:47:46.599,0.9147659,1.1083548,0.5335229,1.055995,0.47073957,0.8625813,-0.037637774,0.6531954,0.51181644,0.28001797,0.15344158,0.06281265,0.08811259,-0.07388211,0.12536885,0.36905286,-0.39369053,-0.35832813,-0.23701008,-0.019867264,770.80585,786.1172,804.2491,762.3443,624.1392,-0.279541015625,0.0823974609375,0.96026611328125,4.478607177734375,-4.448699951171875,1.158905029296875,1,1.0,1.0,1.0,1.0,50.00
2021-04-12 22:47:47.099,0.5769471,1.1994425,0.8660489,0.83587265,0.2610612,0.89141244,0.35839158,0.8354148,0.37905994,0.36357063,0.5438632,0.35479245,0.49324298,0.031819705,0.09631011,0.19921866,-0.43804827,-0.34788343,-0.30453604,-0.08602937,821.978,809.4872,801.02563,807.47253,848.1685,-0.27655029296875,0.0811767578125,0.9580078125,4.658050537109375,-4.14215087890625,0.291595458984375,1,1.0,1.0,1.0,1.0,50.00
2021-04-12 22:47:47.603,0.54380983,0.98274004,0.7768396,0.73121756,0.15238208,0.42414913,0.27136022,0.69594663,0.3795215,0.3241849,0.5438632,0.35479245,0.38759524,0.112463266,0.07699271,0.2801311,-0.41637248,-0.40119484,-0.2908816,-0.14591746,759.5238,804.65204,797.3993,776.4469,763.5531,-0.2789306640625,0.08428955078125,0.9576416015625,4.6356201171875,-4.015045166015625,0.6878662109375,1,1.0,1.0,1.0,1.0,50.00
2021-04-12 22:47:48.122,0.4742899,0.9891113,0.7420315,0.6452671,0.16435057,0.32670632,0.2315989,0.62821347,0.4091925,0.32715258,0.5438632,0.3664694,0.34606382,0.1934457,0.05644643,0.35535648,-0.40320575,-0.48510593,-0.28097177,-0.16647653,851.79486,810.696,803.44324,849.3773,754.68866,-0.27447509765625,0.083251953125,0.9512939453125,3.42437744140625,-4.852447509765625,1.39068603515625,1,1.0,1.0,1.0,1.0,55.00
2021-04-12 22:47:48.640,0.3399288,0.80510145,0.49498066,0.3522883,0.13352333,0.004722751,0.020441107,0.3332108,0.39196882,0.14438306,0.12660848,0.24493533,0.17152156,0.093501754,0.030649215,0.4063869,-0.37795728,-0.56589925,-0.14807288,-0.28567466,851.39197,804.65204,796.99634,848.1685,1067.7656,-0.27557373046875,0.0843505859375,0.961669921875,4.0972900390625,-4.418792724609375,0.785064697265625,1,1.0,1.0,1.0,1.0,55.00
2021-04-12 22:47:48.743,,,,,,,,,,,,,,,,,,,,,,,,,,,,,,,,,,,,,,/muse/elements/blink
2021-04-12 22:47:49.148,0.25128114,0.8462108,0.6795401,0.24708685,0.22441746,0.363358,0.26602224,0.31118003,0.20972396,0.18292955,0.14332801,0.22936234,0.17479815,-0.029533375,-0.022220723,0.39473417,-0.3796268,-0.53037715,-0.10902994,-0.31212613,861.06226,811.0989,809.4872,864.68866,730.9158,-0.2735595703125,0.08209228515625,0.9556884765625,4.373931884765625,-4.074859619140625,0.381317138671875,1,1.0,1.0,1.0,1.0,55.00
2021-04-12 22:47:49.666,0.20277637,0.96253043,0.85017073,0.010515916,0.22559334,0.49350333,0.4936112,0.12624586,0.17426358,0.35983923,0.30396515,0.08731824,0.06992731,-0.09811056,-0.060955085,0.33410218,-0.3702231,-0.43618497,-0.13767977,-0.44616196,786.1172,804.2491,798.60803,801.02563,655.9707,-0.27703857421875,0.0828857421875,0.96051025390625,4.418792724609375,-4.897308349609375,0.6878662109375,1,1.0,1.0,1.0,1.0,55.00
2021-04-12 22:47:50.080,,,,,,,,,,,,,,,,,,,,,,,,,,,,,,,,,,,,,,/muse/elements/blink
2021-04-12 22:47:50.179,0.20277637,1.1163429,0.9952008,0.010515916,0.22559334,0.67229706,0.6573027,0.12624586,0.17426358,0.43640277,0.36285946,0.08731824,0.06992731,-0.08385813,-0.0027130835,0.33410218,-0.3702231,-0.39012492,-0.23725194,-0.44616196,798.20514,808.68134,794.17584,789.34064,560.07324,-0.27496337890625,0.08154296875,0.95819091796875,4.3365478515625,-4.209442138671875,1.428070068359375,1,1.0,1.0,1.0,1.0,55.00
2021-04-12 22:47:50.701,0.20277637,1.2161077,0.9420016,0.010515916,0.22559334,0.66674113,0.6144082,0.12624586,0.17426358,0.43640277,0.34782106,0.08731824,0.06992731,-0.037338458,0.030743916,0.33410218,-0.3702231,-0.30461586,-0.26551986,-0.44616196,815.12823,800.6227,803.0403,801.02563,767.1795,-0.27508544921875,0.082275390625,0.96173095703125,4.792633056640625,-4.62066650390625,0.590667724609375,1,1.0,1.0,1.0,1.0,55.00
2021-04-12 22:47:51.216,0.20277637,1.0453817,0.9055104,0.010515916,0.22559334,0.54296565,0.6686363,0.12624586,0.17426358,0.42866752,0.34557384,0.08731824,0.06992731,-0.08487739,0.11852404,0.33410218,-0.3702231,-0.44365442,-0.27317062,-0.44616196,861.4652,801.8315,803.44324,857.8388,887.6557,-0.280517578125,0.078369140625,0.96380615234375,4.598236083984375,-4.56085205078125,1.95892333984375,1,2.0,1.0,1.0,2.0,55.00
2021-04-12 22:47:51.723,0.42548728,0.3556094,-0.24965246,0.023693899,0.2847129,0.062155843,-0.4354045,-0.024211532,0.42264864,0.24513085,-0.14850461,0.11038895,0.39295992,-0.0089857215,-0.023685915,0.32864565,-0.22911434,-0.6097371,-0.31714663,-0.34440354,806.6667,811.9048,791.75824,814.7253,745.42126,-0.27880859375,0.07757568359375,0.95855712890625,4.463653564453125,-4.628143310546875,1.637420654296875,1,1.0,1.0,1.0,1.0,55.00
2021-04-12 22:47:52.231,0.29165775,0.89773875,0.69969547,0.64391804,0.13521522,0.477801,0.1931979,0.2626631,0.44307026,0.42586192,0.3073769,0.50656885,0.2724991,0.058841188,-0.04433877,0.22240455,-0.23447922,-0.54264164,-0.35022572,-0.24039961,764.35895,803.8461,799.41394,759.5238,669.67035,-0.27911376953125,0.0855712890625,0.95941162109375,4.508514404296875,-4.852447509765625,2.4822998046875,1,1.0,1.0,1.0,1.0,55.00
2021-04-12 22:47:52.738,0.39587745,0.9429594,0.7276598,0.6027393,0.27096665,0.51161313,0.19856656,0.33259436,0.4565047,0.4153173,0.31861436,0.53117555,0.21610582,0.06623055,-0.0028711092,0.18027993,-0.24634032,-0.43952647,-0.3133386,-0.24560913,848.1685,792.1612,821.978,854.21246,870.7326,-0.2750244140625,0.0791015625,0.96002197265625,4.5159912109375,-4.269256591796875,-0.34393310546875,1,1.0,1.0,1.0,1.0,55.00
2021-04-12 22:47:53.248,0.31360155,0.94728094,0.7460459,0.5780339,0.19597168,0.5169464,0.2578178,0.42736912,0.3816823,0.39296675,0.32173598,0.5823668,0.10548863,0.024854282,-0.03267018,0.07688616,-0.32955825,-0.43528065,-0.2981738,-0.23510182,797.3993,803.0403,809.4872,813.5165,658.7912,-0.27740478515625,0.08013916015625,0.96484375,4.478607177734375,-4.373931884765625,0.575714111328125,1,1.0,1.0,1.0,1.0,55.00
2021-04-12 22:47:53.777,0.37415966,0.5925272,0.39954877,0.13715422,0.24006717,0.20384562,0.066011384,0.2987096,0.49709073,0.20077537,0.27520713,0.47943178,0.09558866,-0.082011364,0.0051013804,0.07375687,-0.32770777,-0.40692404,-0.31807095,-0.30899996,828.022,800.6227,803.8461,842.52747,819.15753,-0.27703857421875,0.0860595703125,0.959228515625,4.613189697265625,-4.643096923828125,1.143951416015625,1,1.0,1.0,1.0,1.0,55.00
2021-04-12 22:47:54.302,0.17997505,0.21609011,0.021937726,-0.3130288,0.12546507,0.034182392,-0.054377757,0.12112344,0.5538978,0.117005736,0.09850998,0.4654976,0.15232922,-0.075908184,0.12926087,0.14284278,-0.25131622,-0.42555195,-0.42613217,-0.22772312,800.6227,803.44324,800.2198,778.46155,751.4652,-0.27264404296875,0.08074951171875,0.95684814453125,4.867401123046875,-4.388885498046875,0.411224365234375,1,1.0,1.0,1.0,1.0,55.00
2021-04-12 22:47:54.829,0.20687972,0.18559545,0.14054453,-0.31317046,0.14336522,0.0047636568,-0.14203556,0.079077326,0.58424586,0.28527614,0.31293666,0.45957598,0.15129063,0.110387534,0.17452809,0.20587808,-0.19957031,-0.39247465,-0.51102036,-0.22709829,843.73627,797.8022,800.6227,832.8571,869.92676,-0.27178955078125,0.08111572265625,0.95709228515625,4.6954345703125,-4.269256591796875,0.7476806640625,1,1.0,1.0,1.0,1.0,55.00
2021-04-12 22:47:55.347,0.37051103,0.88861495,0.89117783,0.13241966,0.063867226,0.48075303,0.321969,0.26054162,0.54599404,0.58227617,0.6037864,0.6342881,0.22283708,0.25851262,0.1868206,0.3152864,-0.23043393,-0.40017328,-0.39638144,-0.19089657,827.2161,802.6374,797.8022,816.337,832.8571,-0.2802734375,0.08245849609375,0.961669921875,4.523468017578125,-4.62066650390625,0.859832763671875,1,1.0,1.0,1.0,1.0,55.00
2021-04-12 22:47:55.855,0.39470562,0.9042341,0.9146459,0.22264573,-0.022469582,0.47747797,0.3569217,0.2791671,0.40371764,0.58227617,0.59611547,0.643004,0.19443493,0.2490306,0.1516871,0.34017992,-0.26864806,-0.50189555,-0.30352452,-0.29601482,855.42126,799.011,796.99634,855.82416,1039.9634,-0.27667236328125,0.08758544921875,0.96295166015625,4.299163818359375,-5.450592041015625,1.1663818359375,1,1.0,1.0,1.0,1.0,55.00
2021-04-12 22:47:56.364,0.3045333,0.83008844,0.826808,0.23068905,0.04617747,0.39911518,0.31273636,0.15346648,0.38932326,0.58227617,0.60243136,0.6498811,0.22829701,0.12734438,0.18199617,0.3588861,-0.21434669,-0.5109434,-0.29949632,-0.23220608,659.19415,789.34064,817.9487,685.78754,624.5421,-0.273681640625,0.0792236328125,0.9605712890625,4.194488525390625,-4.80010986328125,0.725250244140625,1,1.0,1.0,1.0,1.0,55.00
2021-04-12 22:47:56.577,,,,,,,,,,,,,,,,,,,,,,,,,,,,,,,,,,,,,,/muse/elements/blink
2021-04-12 22:47:56.870,-0.019605728,0.1430401,0.5139743,0.004491434,0.11152724,0.11603971,0.05722856,-0.027523072,0.33482093,0.0063843173,0.31319866,0.3404138,0.17239255,0.01870742,0.16595708,0.33855593,-0.1845664,-0.4603129,-0.2875252,-0.25906396,763.5531,798.20514,800.6227,771.2088,1029.8901,-0.2723388671875,0.08038330078125,0.958984375,4.3963623046875,-5.12908935546875,0.7476806640625,1,1.0,1.0,1.0,1.0,55.00
2021-04-12 22:47:57.381,-0.70283073,0.36973453,0.73206264,-0.24810308,0.204234,0.17143749,0.248346,-0.17068037,0.0755029,0.0060780225,0.107266404,0.25947216,0.19076924,0.10804532,0.12168196,0.28946412,-0.15687744,-0.31811386,-0.25009242,-0.1492126,809.0842,808.2784,801.4286,792.1612,749.0476,-0.26226806640625,0.08563232421875,0.96331787109375,4.538421630859375,-4.3963623046875,-0.441131591796875,1,1.0,1.0,1.0,1.0,55.00
2021-04-12 22:47:57.896,-0.70283073,0.5359521,0.83026737,-0.24810308,0.204234,0.20400314,0.38883296,-0.17068037,0.0755029,0.08199226,0.2574359,0.25947216,0.19076924,0.088558204,0.121836014,0.28946412,-0.15687744,-0.2842823,-0.24305294,-0.1492126,772.8205,809.0842,799.41394,791.3553,639.0476,-0.2625732421875,0.082275390625,0.95501708984375,4.486083984375,-5.00946044921875,-0.22430419921875,1,1.0,1.0,1.0,1.0,55.00
2021-04-12 22:47:58.406,0.3667082,0.6935532,0.734721,0.035475697,-0.34290367,0.18214877,0.38468716,0.26748767,0.22993286,0.22537059,0.26764014,0.20955093,0.067855716,0.11853393,0.17665768,0.29751563,-0.37665385,-0.38326284,-0.27380964,-0.25998116,757.50916,794.17584,809.89014,781.28204,784.5055,-0.2611083984375,0.0858154296875,0.96392822265625,4.44122314453125,-4.9346923828125,1.009368896484375,1,1.0,1.0,1.0,1.0,50.00
2021-04-12 22:47:58.670,,,,,,,,,,,,,,,,,,,,,,,,,,,,,,,,,,,,,,/muse/elements/blink
2021-04-12 22:47:58.914,0.3667082,0.6265549,0.5993521,0.035475697,-0.34290367,0.2684531,0.37398368,0.26748767,0.22993286,0.31911755,0.28859714,0.20955093,0.067855716,0.08556435,0.15575261,0.29751563,-0.37665385,-0.4823461,-0.39141822,-0.25998116,817.5458,805.8608,811.0989,812.3077,800.6227,-0.2586669921875,0.07769775390625,0.9591064453125,4.44122314453125,-5.046844482421875,-1.428070068359375,1,1.0,1.0,1.0,1.0,50.00
2021-04-12 22:47:59.421,0.47782645,0.5728043,0.6992633,0.06908467,-0.5539686,0.29117435,0.43673694,0.3059786,0.15765536,0.30006686,0.28247,0.20213549,0.051297,0.061782826,0.113179885,0.2872648,-0.38098052,-0.42322874,-0.31722453,-0.24926206,866.30035,813.5165,792.96704,858.6447,973.47986,-0.26055908203125,0.0816650390625,0.9656982421875,4.68048095703125,-4.628143310546875,0.216827392578125,1,1.0,1.0,1.0,1.0,50.00
2021-04-12 22:47:59.933,0.52721953,0.27551195,0.64114106,0.0520944,-0.544173,0.20740387,0.38135982,0.29491037,0.1372769,0.3057582,0.12591355,0.18720192,0.01809652,-0.009099181,0.13690478,0.24449374,-0.37943062,-0.37983698,-0.31763572,-0.22370869,796.99634,802.23444,807.8755,822.381,782.8938,-0.267822265625,0.080322265625,0.9622802734375,4.0374755859375,-5.09918212890625,0.635528564453125,1,1.0,1.0,1.0,1.0,50.00
2021-04-12 22:48:00.439,-0.16772604,0.21830505,0.58010423,0.012569385,0.10706908,0.10472496,0.29991725,0.1854163,0.5384558,0.23410253,0.12502363,0.24131984,0.19290295,-0.10728195,0.1821636,0.3580496,-0.30231032,-0.34673032,-0.20714997,-0.22875781,770.80585,804.2491,803.44324,759.5238,592.71063,-0.2640380859375,0.08221435546875,0.96270751953125,4.3365478515625,-4.089813232421875,0.994415283203125,1,1.0,1.0,1.0,1.0,50.00
2021-04-12 22:48:00.946,0.049841437,0.690202,0.81276065,0.3420715,0.09901036,0.48058003,0.3913027,0.07227618,0.620976,0.4351536,0.5280611,0.5222676,0.09173129,-0.104807585,0.24019945,0.35152903,-0.20206237,-0.3708929,-0.26287243,-0.14354724,786.9231,797.3993,801.02563,779.67035,751.06226,-0.26007080078125,0.08184814453125,0.96881103515625,4.306640625,-4.643096923828125,0.934600830078125,1,1.0,1.0,1.0,1.0,50.00
2021-04-12 22:48:01.468,0.26090485,0.8420618,0.8561796,0.26632434,0.10653988,0.5190554,0.40396926,-0.11324101,0.5724768,0.40395585,0.5310225,0.5130652,0.12089164,-0.04873809,0.17495106,0.33461794,-0.12528574,-0.3947011,-0.29269662,-0.15213649,793.7729,797.8022,801.02563,816.337,971.06226,-0.2633056640625,0.0792236328125,0.96630859375,4.254302978515625,-4.344024658203125,1.009368896484375,1,1.0,1.0,1.0,1.0,50.00
2021-04-12 22:48:01.974,0.48570338,0.8895229,0.82413864,0.29446766,0.19115143,0.50698036,0.34703925,-0.2754413,0.5724768,0.41546497,0.5318322,0.5256908,0.13629438,-0.03264612,0.123300806,0.37880567,-0.12354496,-0.43194285,-0.32950214,-0.07318961,820.3663,807.0696,800.6227,832.8571,703.5165,-0.2633056640625,0.0780029296875,0.96319580078125,4.5458984375,-3.84307861328125,1.712188720703125,1,1.0,1.0,1.0,1.0,50.00
2021-04-12 22:48:02.482,0.45169643,0.5587855,0.1740042,0.09761662,0.19448061,0.046625234,-0.22983393,-0.16526039,0.37876192,0.29548657,0.22496136,0.3225119,0.20984906,-0.00381924,0.03853249,0.32520896,-0.18821801,-0.50371504,-0.24043208,-0.1089866,762.74725,797.8022,802.6374,782.8938,655.9707,-0.2694091796875,0.078125,0.96368408203125,4.852447509765625,-3.6187744140625,1.2860107421875,1,1.0,1.0,1.0,1.0,50.00
2021-04-12 22:48:02.983,0.3652099,0.36409727,-0.19055189,0.27016732,0.024575971,-0.09752849,-0.47308946,-0.06687014,0.13937087,0.29548657,0.10366927,0.31822008,0.14645985,0.04049224,0.053618524,0.27080244,-0.23065688,-0.44767907,-0.21599022,-0.08260393,845.7509,808.68134,806.26373,836.8865,809.0842,-0.2706298828125,0.07073974609375,0.9661865234375,4.628143310546875,-5.480499267578125,0.179443359375,1,1.0,1.0,1.0,1.0,50.00
2021-04-12 22:48:03.379,,,,,,,,,,,,,,,,,,,,,,,,,,,,,,,,,,,,,,/muse/elements/blink
2021-04-12 22:48:03.508,0.058005482,0.4911076,-0.049255565,0.3240072,-0.12125254,-0.022143856,-0.3730657,-0.018844033,-0.027060967,-0.038529836,0.08442957,0.30199578,0.12705228,0.079653606,0.09884636,0.18928689,-0.23301706,-0.46837455,-0.2240646,-0.09858509,835.6777,804.2491,794.57874,856.63007,697.0696,-0.253173828125,0.07257080078125,0.95770263671875,1.2860107421875,-4.089813232421875,-1.637420654296875,1,1.0,1.0,1.0,1.0,50.00
2021-04-12 22:48:04.010,0.086764775,0.94495624,0.090122186,0.39186844,-0.47163066,0.5225182,-0.29013327,-0.09776107,-0.04427315,0.19122416,0.07611966,0.30199578,0.069519885,0.12274516,0.14041527,0.22959343,-0.18176904,-0.44025135,-0.264085,-0.055512417,755.89746,818.7546,794.17584,759.5238,730.10986,-0.249267578125,0.068603515625,0.9698486328125,4.66552734375,-5.659942626953125,-0.2093505859375,1,1.0,1.0,1.0,1.0,50.00
2021-04-12 22:48:04.531,-0.04015102,1.1211716,0.16200681,0.3076661,-0.4540249,0.64456314,-0.0034268822,-0.06209728,-0.10494717,0.33775976,0.072524704,0.26502538,0.09655686,0.03999272,0.10671365,0.22924024,-0.2037574,-0.54433924,-0.2134324,-0.08378036,828.4249,798.20514,792.96704,811.9048,844.1392,-0.27392578125,0.071533203125,0.96026611328125,8.889923095703125,4.164581298828125,-3.596343994140625,1,1.0,1.0,1.0,1.0,50.00
2021-04-12 22:48:04.598,,,,,,,,,,,,,,,,,,,,,,,,,,,,,,,,,,,,,,/muse/elements/blink
2021-04-12 22:48:05.038,-0.04015102,1.2029026,0.8648932,0.3076661,-0.4540249,0.78524524,0.6083476,-0.06209728,-0.10494717,0.49788034,0.19557375,0.26502538,0.09655686,-0.21647504,-0.008704603,0.22924024,-0.2037574,-0.5469143,-0.16743012,-0.08378036,855.0183,814.7253,805.05493,840.9158,866.7033,-0.272216796875,0.08099365234375,0.96142578125,5.24871826171875,-6.243133544921875,1.9439697265625,1,1.0,1.0,1.0,1.0,50.00
2021-04-12 22:48:05.549,-0.04015102,0.9531518,0.78205425,0.3076661,-0.4540249,0.45492598,0.48366696,-0.06209728,-0.10494717,0.4916104,0.1971048,0.26502538,0.09655686,-0.19871882,0.02378452,0.22924024,-0.2037574,-0.41051078,-0.14463626,-0.08378036,842.1245,802.23444,803.8461,844.94507,885.2381,-0.2860107421875,0.10137939453125,0.9517822265625,4.6356201171875,-5.630035400390625,2.519683837890625,1,1.0,1.0,1.0,1.0,50.00
2021-04-12 22:48:06.050,0.17024781,0.8058476,0.70104605,0.2332376,0.15789899,0.35467523,0.3925424,0.07459594,0.06418426,0.48708382,0.1950783,0.15951262,0.12744418,-0.100368656,4.6168274E-4,0.20771031,-0.2946177,-0.39182866,-0.19868967,-0.25383526,757.9121,799.81683,797.3993,778.86444,618.49817,-0.26336669921875,0.09246826171875,0.96136474609375,3.24493408203125,-5.973968505859375,0.40374755859375,1,2.0,1.0,1.0,2.0,50.00
2021-04-12 22:48:06.570,0.19166121,0.53394526,0.34461844,0.21874386,0.08677254,-0.08888214,-0.085201025,-0.009189614,0.20295818,0.22077991,0.063038215,0.2055741,0.13598727,0.044289615,0.0021861482,0.21339372,-0.25300148,-0.4104421,-0.26215884,-0.33958045,896.1172,798.60803,790.9524,864.68866,810.696,-0.2554931640625,0.08734130859375,0.9605712890625,4.7552490234375,-4.85992431640625,-0.067291259765625,1,1.0,1.0,1.0,1.0,50.00
2021-04-12 22:48:06.603,,,,,,,,,,,,,,,,,,,,,,,,,,,,,,,,,,,,,,/muse/elements/blink
2021-04-12 22:48:07.082,0.19166121,0.42249644,0.49895543,0.21874386,0.08677254,0.16954456,0.082354166,-0.009189614,0.20295818,0.32571852,0.07597906,0.2055741,0.13598727,0.112204336,0.019680131,0.21339372,-0.25300148,-0.4413562,-0.3223688,-0.33958045,823.5897,808.2784,795.78754,807.47253,774.43225,-0.26495361328125,0.08251953125,0.9696044921875,3.1402587890625,-4.56085205078125,0.657958984375,1,1.0,1.0,1.0,1.0,50.00
2021-04-12 22:48:07.603,0.23828505,0.5290578,0.5868967,0.21525723,0.036111817,0.20582284,0.14408818,-0.15081051,0.036715817,0.3120877,0.07782679,0.10532496,0.13719253,0.09144808,0.10982648,0.22144769,-0.21637821,-0.5052852,-0.2718388,-0.45489466,759.12085,808.2784,803.44324,778.46155,650.32965,-0.28033447265625,0.09210205078125,0.9627685546875,4.35150146484375,-3.715972900390625,1.637420654296875,1,1.0,1.0,1.0,1.0,50.00
2021-04-12 22:48:08.113,-0.32354277,0.42949873,0.5787464,-0.15374069,-0.6205732,0.2126649,0.18592896,0.094991,-0.110415645,0.26810157,0.06001174,0.38770765,0.37567887,0.016432824,0.17239965,0.29447263,-0.34763435,-0.42643893,-0.22903453,-0.2813179,681.3553,795.38464,817.1429,678.93774,769.19415,-0.26324462890625,0.10430908203125,0.960205078125,5.62255859375,-6.781463623046875,2.639312744140625,1,1.0,1.0,1.0,1.0,50.00
2021-04-12 22:48:08.339,,,,,,,,,,,,,,,,,,,,,,,,,,,,,,,,,,,,,,/muse/elements/blink
2021-04-12 22:48:08.625,-0.32354277,0.6486128,0.56592566,-0.15374069,-0.6205732,0.19552769,0.32228363,0.094991,-0.110415645,0.16535825,-0.0038891868,0.38770765,0.37567887,-0.07108957,0.23539355,0.29447263,-0.34763435,-0.42986178,-0.27961117,-0.2813179,811.9048,801.02563,801.4286,803.8461,750.65936,-0.264892578125,0.0946044921875,0.96148681640625,4.149627685546875,-3.386993408203125,1.966400146484375,1,1.0,1.0,1.0,1.0,45.00
2021-04-12 22:48:09.132,-0.32354277,0.9253203,0.9119779,-0.15374069,-0.6205732,0.5045495,0.6599539,0.094991,-0.110415645,0.2881015,-0.059637666,0.38770765,0.37567887,-0.105528414,0.26729986,0.29447263,-0.34763435,-0.3822689,-0.3444265,-0.2813179,854.21246,807.0696,806.6667,837.6923,951.31866,-0.26031494140625,0.0936279296875,0.961181640625,4.613189697265625,-3.6785888671875,-0.55328369140625,1,1.0,1.0,1.0,1.0,45.00
2021-04-12 22:48:09.635,-0.32354277,0.9732169,0.9578653,-0.15374069,-0.6205732,0.5628192,0.70936584,0.094991,-0.110415645,0.41803077,0.17895563,0.38770765,0.37567887,-0.15168032,0.24191768,0.29447263,-0.34763435,-0.4370556,-0.37257126,-0.2813179,790.14655,795.78754,801.4286,820.7692,769.59705,-0.2567138671875,0.10260009765625,0.96368408203125,5.869293212890625,-5.061798095703125,2.370147705078125,1,1.0,1.0,1.0,1.0,45.00
2021-04-12 22:48:10.157,0.5232397,1.0664985,0.95900387,0.25760728,0.29839063,0.61702675,0.6273013,0.82040024,0.70424944,0.4191237,0.47350878,0.81691206,0.2763703,-0.13470171,0.2249801,0.35824057,-0.1261476,-0.4092213,-0.3412181,-0.21855566,829.6337,807.0696,791.3553,806.6667,828.022,-0.25543212890625,0.102783203125,0.96832275390625,4.964599609375,-4.628143310546875,2.73651123046875,1,1.0,1.0,1.0,1.0,45.00
2021-04-12 22:48:10.678,0.48493856,0.9525816,0.66030467,0.29624456,0.22209243,0.41908768,0.24026005,0.65724003,0.725916,0.39269984,0.47350878,0.81691206,0.2765863,-0.07444433,0.18482655,0.33765778,-0.081544645,-0.37856424,-0.27721426,-0.094169706,792.1612,798.20514,800.2198,787.326,782.0879,-0.25640869140625,0.107666015625,0.96826171875,4.463653564453125,-5.12908935546875,-0.097198486328125,1,1.0,1.0,1.0,1.0,45.00
2021-04-12 22:48:11.180,0.4070508,0.99337554,0.5446304,0.2681814,0.3500021,0.32281592,0.17788713,0.5044533,0.6569965,0.33832285,0.48185858,0.76846665,0.31068763,0.023571283,0.14904745,0.3732697,-0.118831754,-0.36943457,-0.3917079,-0.09327437,856.63007,800.2198,797.8022,838.9011,1071.392,-0.24822998046875,0.1065673828125,0.96343994140625,4.478607177734375,-4.134674072265625,1.00189208984375,1,1.0,1.0,1.0,1.0,45.00
2021-04-12 22:48:11.706,0.16438323,0.78670275,0.16050522,0.33421937,0.37574187,-0.14002132,0.054375306,0.36867648,0.44643834,0.103857204,0.2856375,0.5859056,0.20820989,9.65996E-4,0.052038986,0.27841467,-0.22240418,-0.44161057,-0.47216833,-0.08636862,764.7619,800.2198,815.5311,772.4176,662.8205,-0.25146484375,0.09747314453125,0.96661376953125,4.0374755859375,-3.835601806640625,1.921539306640625,1,1.0,1.0,1.0,1.0,45.00
2021-04-12 22:48:11.930,,,,,,,,,,,,,,,,,,,,,,,,,,,,,,,,,,,,,,/muse/elements/blink
2021-04-12 22:48:12.211,-0.008694778,0.94958526,0.13838051,0.32789925,0.44500005,0.3995668,0.0794742,0.4480951,0.3974538,0.23964855,0.23792018,0.5506826,0.18521813,0.037342727,0.0513495,0.2943587,-0.29376313,-0.45159602,-0.67328715,-0.14429688,767.98535,805.8608,804.65204,783.2967,683.36993,-0.25341796875,0.10272216796875,0.9666748046875,4.912261962890625,-4.583282470703125,0.485992431640625,1,1.0,1.0,1.0,1.0,45.00
2021-04-12 22:48:12.734,-0.093023255,1.0794907,0.13463138,0.37455675,0.30850983,0.6498302,-0.097707175,0.5272578,0.36918136,0.26671138,-0.009163531,0.5383116,-0.031118903,0.03331009,0.049341198,0.12565345,-0.35863864,-0.4438636,-0.6487171,-0.12021374,765.56775,808.2784,795.78754,765.16486,676.52014,-0.24688720703125,0.1029052734375,0.9642333984375,4.403839111328125,-4.68048095703125,-0.336456298828125,1,1.0,1.0,1.0,1.0,45.00
2021-04-12 22:48:13.257,-0.11715379,1.1130955,0.6329653,0.37653401,0.3321942,0.7085228,0.14888158,0.55204165,0.35110632,0.2767724,-0.020123925,0.53405195,-0.044178635,0.046074633,0.2293404,0.09352465,-0.39492536,-0.5184261,-0.3719045,-0.1152804,841.7216,798.20514,807.0696,830.4396,816.7399,-0.2530517578125,0.101806640625,0.957763671875,4.104766845703125,-3.9178466796875,1.248626708984375,1,1.0,1.0,1.0,1.0,45.00
2021-04-12 22:48:13.786,0.39461276,0.92239004,0.37850443,0.29256892,0.39721203,0.49405563,0.0624294,0.02312504,0.12704284,0.28044966,0.07318629,0.2842297,0.1593305,-0.084319934,0.18828999,0.30859274,-0.24695987,-0.55004096,-0.2761604,-0.16418019,847.76556,815.12823,790.54944,847.3626,877.1795,-0.25079345703125,0.1080322265625,0.96636962890625,4.807586669921875,-4.388885498046875,2.1533203125,1,1.0,1.0,1.0,1.0,45.00
2021-04-12 22:48:14.314,0.30075142,0.6009608,0.5249099,0.35269332,0.30950683,0.112322725,0.25855303,0.1964774,0.35401633,0.24098954,0.38392892,0.5976634,0.1525274,-0.034346938,0.16858801,0.33952814,-0.27091876,-0.5621719,-0.34851232,-0.16271816,769.19415,809.0842,795.38464,788.5348,628.97437,-0.24859619140625,0.09722900390625,0.9599609375,4.508514404296875,-5.540313720703125,-1.1962890625,1,1.0,1.0,1.0,1.0,45.00
2021-04-12 22:48:14.636,,,,,,,,,,,,,,,,,,,,,,,,,,,,,,,,,,,,,,/muse/elements/blink
2021-04-12 22:48:14.820,0.09712796,0.6490007,0.59013075,0.30784813,0.213857,0.10430156,0.34971595,0.24025169,0.51181924,0.30646995,0.4918752,0.66993535,0.20110962,0.046538245,0.09853383,0.33517614,-0.30036396,-0.39976332,-0.31034306,-0.21256745,813.91943,807.0696,801.02563,834.4689,767.1795,-0.24835205078125,0.1015625,0.9661865234375,4.837493896484375,-5.06927490234375,1.502838134765625,1,1.0,1.0,1.0,1.0,45.00
2021-04-12 22:48:15.323,0.075494416,0.8255206,0.9377049,0.41740158,0.08857684,0.35700175,0.60014164,0.3480527,0.5090727,0.3246108,0.64286333,0.66993535,0.16954283,0.0787,0.037088994,0.35219133,-0.35240525,-0.28810713,-0.17959592,-0.21159597,795.78754,803.8461,808.2784,790.54944,675.31134,-0.2510986328125,0.12481689453125,0.968017578125,4.493560791015625,-5.600128173828125,2.549591064453125,1,1.0,1.0,1.0,1.0,45.00
2021-04-12 22:48:15.829,-0.009447092,0.8291107,0.8777122,0.45930824,-0.057093803,0.32379663,0.50384086,0.39288628,0.43097576,0.25488764,0.6315112,0.66993535,0.16167054,-0.043755382,0.0338595,0.35668263,-0.46040943,-0.294262,-0.002883394,-0.2861218,770.40295,819.9634,786.9231,768.7912,996.4469,-0.24169921875,0.1177978515625,0.97210693359375,3.551483154296875,-5.166473388671875,1.5850830078125,1,1.0,1.0,1.0,1.0,45.00
2021-04-12 22:48:16.342,0.8967423,0.7973505,0.8729789,0.4794799,0.6491679,0.4908517,0.51149684,0.040808916,0.7424287,0.6150017,0.63585323,0.7131557,0.41067734,0.057434157,0.037718993,0.22542424,0.77669185,-0.32669154,0.014934346,0.5055749,846.1539,817.5458,799.81683,841.31866,775.64105,-0.30426025390625,-0.037841796875,0.93145751953125,-21.271514892578125,7.8955078125,-11.36474609375,1,1.0,1.0,1.0,1.0,45.00
2021-04-12 22:48:16.860,0.78647095,0.61166215,0.47002462,0.32754627,0.56227773,0.45046034,0.18186136,0.068704195,0.9708332,0.58323216,0.47512946,0.85036665,0.40555227,0.13424264,0.105019756,0.20054075,0.55626225,-0.5258815,-0.105500035,0.34671238,767.98535,798.20514,808.2784,800.2198,733.73627,-0.3746337890625,-0.1385498046875,0.91070556640625,9.323577880859375,-6.168365478515625,0.859832763671875,1,1.0,1.0,1.0,1.0,45.00
2021-04-12 22:48:17.361,0.84691113,0.67260545,0.7768714,0.23634154,0.5013595,0.5718695,0.29935053,0.22189458,0.9727631,0.59136164,0.47512946,0.95128024,0.46438426,0.15356106,0.12338073,0.2822662,0.41988012,-0.5840677,-0.3209987,0.25362056,784.10254,796.1905,803.0403,803.0403,679.34064,-0.30621337890625,-0.04180908203125,0.9674072265625,15.499420166015625,-8.1646728515625,1.1065673828125,1,1.0,1.0,1.0,1.0,45.00
2021-04-12 22:48:17.881,0.64081275,0.5353514,0.7908744,0.22883244,0.28691888,0.39253712,0.27409628,0.31088218,1.0624864,0.54932207,0.45595884,0.97285205,0.4265719,0.048377242,0.097785436,0.33791158,-0.2863749,-0.7290512,-0.47777224,-0.10915242,804.65204,790.14655,807.47253,801.8315,717.619,-0.28216552734375,-0.0184326171875,0.96331787109375,6.527252197265625,-6.945953369140625,2.22808837890625,1,1.0,1.0,1.0,1.0,45.00
2021-04-12 22:48:18.398,0.6248767,0.45637983,0.66754174,0.46352622,0.2271334,0.13311212,0.2009422,0.31847027,1.0038706,0.34914318,0.33211714,0.93258065,0.434287,-0.015054521,0.15878426,0.39400575,-0.3354715,-0.65601873,-0.39273047,-0.16748469,800.2198,807.8755,804.65204,788.1319,776.4469,-0.2498779296875,-0.00201416015625,0.968994140625,7.439422607421875,-4.074859619140625,0.037384033203125,1,1.0,1.0,1.0,1.0,45.00
2021-04-12 22:48:18.908,0.33931386,0.7201099,0.3783852,0.52196044,0.2530719,0.11300212,0.21662197,0.24266116,0.9693559,0.60236853,0.42256883,0.8270599,0.31893498,0.114259616,0.15762728,0.3442,-0.3025673,-0.5662805,-0.38137427,-0.17875962,870.7326,805.8608,813.91943,837.6923,825.6044,-0.27685546875,0.02703857421875,0.968994140625,3.790740966796875,-4.792633056640625,-0.59814453125,1,1.0,1.0,1.0,1.0,50.00
2021-04-12 22:48:19.424,0.3852989,0.75542337,0.35235894,0.43530247,0.3022188,0.20812358,0.14023016,0.12671044,0.6157926,0.60236853,0.39605942,0.61582714,0.3276752,0.13146524,0.17550825,0.2876133,-0.27510136,-0.48576415,-0.3109024,-0.17813133,802.23444,796.1905,808.2784,826.0073,782.0879,-0.2601318359375,0.01092529296875,0.9647216796875,4.0673828125,-5.689849853515625,0.157012939453125,1,1.0,1.0,1.0,1.0,50.00
2021-04-12 22:48:19.943,0.26733914,0.8093271,0.48411593,0.24032713,0.4414807,0.30039784,0.11896854,0.09109836,0.5260383,0.60236853,0.36001712,0.61582714,0.21976888,0.11570383,0.069211505,0.20274869,-0.35645902,-0.54657125,-0.3604691,-0.28990597,750.65936,811.0989,790.9524,764.7619,649.92676,-0.246337890625,0.01483154296875,0.97113037109375,4.015045166015625,-4.62066650390625,1.016845703125,1,1.0,1.0,1.0,1.0,50.00
2021-04-12 22:48:20.458,0.29717222,0.7174054,0.49520057,0.41565585,0.47132218,0.31427303,-0.030825963,0.068359256,0.3265892,0.42512092,0.32562506,0.46506697,0.26554698,0.021850893,0.037248712,0.21803309,-0.35810512,-0.5158382,-0.3460078,-0.22160949,771.2088,795.78754,800.6227,767.5824,649.92676,-0.2298583984375,0.0235595703125,0.9796142578125,4.5159912109375,-5.96649169921875,-0.710296630859375,1,1.0,1.0,1.0,1.0,50.00
2021-04-12 22:48:20.962,0.3052178,0.92685765,0.60025233,0.52134794,0.45878243,0.44033843,-0.08180763,0.31296864,0.32144046,0.20058934,0.21158491,0.5063408,0.20821142,0.0041720257,-0.018221786,0.22296083,-0.35190728,-0.39744645,-0.333325,-0.1873385,804.65204,796.5934,809.4872,819.9634,855.0183,-0.24139404296875,0.01300048828125,0.97430419921875,4.20196533203125,-3.289794921875,-0.11962890625,1,1.0,1.0,1.0,1.0,50.00
2021-04-12 22:48:21.477,0.2763066,0.8765827,0.60385245,0.5555654,0.46716532,0.47381726,-0.03727376,0.37447685,0.44885698,0.28707117,0.33946148,0.5975923,0.23952018,-0.035808686,0.1292775,0.274289,-0.34725338,-0.33434874,-0.29998326,-0.16003743,747.4359,799.011,805.05493,772.4176,735.7509,-0.23541259765625,0.003662109375,0.980224609375,4.463653564453125,-4.418792724609375,1.89910888671875,1,1.0,1.0,1.0,1.0,50.00
2021-04-12 22:48:21.979,0.2502109,0.77623403,0.4686805,0.35523763,0.47806743,0.4315508,-0.14307177,0.28094488,0.51317656,0.31532004,0.31999406,0.5781596,0.24211432,-0.012263482,0.09321976,0.23700453,-0.41701937,-0.3293128,-0.291282,-0.21576929,764.35895,803.44324,799.011,794.57874,674.90845,-0.24176025390625,0.0067138671875,0.97528076171875,4.538421630859375,-4.47113037109375,0.88226318359375,1,1.0,1.0,1.0,1.0,50.00
2021-04-12 22:48:22.493,0.25211707,0.83367884,0.7132696,0.29570857,0.48550093,0.5821783,0.28173685,0.34213227,0.66383344,0.43286523,0.52399,0.8782667,0.26220572,0.011311259,0.15745902,0.4077754,-0.47528318,-0.40983042,-0.2907792,-0.106719226,863.47986,800.2198,799.011,840.5128,984.7619,-0.24139404296875,0.00543212890625,0.97113037109375,4.673004150390625,-4.38140869140625,-0.366363525390625,1,1.0,1.0,1.0,1.0,50.00
2021-04-12 22:48:22.999,0.15810154,0.8665232,0.74257344,0.2883167,0.35131356,0.5754502,0.3671796,0.41854307,0.70753485,0.5160099,0.49982074,0.9663845,0.32317433,0.07639815,0.16953124,0.46042934,-0.40841067,-0.46328562,-0.30166936,-0.011967633,825.6044,799.011,809.4872,839.707,996.04395,-0.24566650390625,8.544921875E-4,0.96783447265625,4.448699951171875,-3.60382080078125,0.829925537109375,1,1.0,1.0,1.0,1.0,50.00
2021-04-12 22:48:23.510,0.19908708,0.82396907,0.76411736,0.4246822,0.38237298,0.56316984,0.46956474,0.6572753,0.72134066,0.5189012,0.53185606,0.98776245,0.35876483,0.06965839,0.18617798,0.53061396,-0.40459648,-0.5062627,-0.30377826,-0.033995014,728.49817,806.6667,798.60803,745.0183,635.82416,-0.2413330078125,0.01220703125,0.9759521484375,4.725341796875,-4.673004150390625,2.28790283203125,1,1.0,1.0,1.0,1.0,50.00
2021-04-12 22:48:23.792,,,,,,,,,,,,,,,,,,,,,,,,,,,,,,,,,,,,,,/muse/elements/blink
