TimeStamp,Delta_TP9,Delta_AF7,Delta_AF8,Delta_TP10,Theta_TP9,Theta_AF7,Theta_AF8,Theta_TP10,Alpha_TP9,Alpha_AF7,Alpha_AF8,Alpha_TP10,Beta_TP9,Beta_AF7,Beta_AF8,Beta_TP10,Gamma_TP9,Gamma_AF7,Gamma_AF8,Gamma_TP10,RAW_TP9,RAW_AF7,RAW_AF8,RAW_TP10,AUX_RIGHT,Accelerometer_X,Accelerometer_Y,Accelerometer_Z,Gyro_X,Gyro_Y,Gyro_Z,HeadBandOn,HSI_TP9,HSI_AF7,HSI_AF8,HSI_TP10,Battery,Elements
2021-04-14 22:13:37.913,0.95661277,0.09037259,0.35537586,1.0583096,0.96914655,0.03796787,-0.09156888,0.9318569,0.78777784,0.7790034,0.4350262,0.6655172,0.5522821,1.2619377,0.67746955,0.60949904,0.2848254,0.5290375,-0.014019798,0.14882472,914.65204,821.5751,802.6374,808.2784,827.2161,0.18927001953125,-0.1162109375,0.97686767578125,3.970184326171875,-4.306640625,0.299072265625,1,1.0,1.0,1.0,1.0,100.00
2021-04-14 22:13:38.420,,,,,,,,,,,,,,,,,,,,,,,,,,,,,,,,,,,,,,/muse/elements/blink
2021-04-14 22:13:38.423,1.14434,-0.11827452,0.26133236,1.2116098,0.9343778,-0.08655457,0.0070300666,0.79998624,1.0779426,0.32578242,0.36904442,0.8676082,0.6329105,1.248584,0.69740075,0.73076856,0.31871253,0.48695293,-0.06457785,0.18702343,736.1539,792.5641,798.20514,751.06226,711.1722,0.189208984375,-0.11669921875,0.9813232421875,4.306640625,-4.88983154296875,1.36077880859375,1,1.0,1.0,1.0,1.0,100.00
2021-04-14 22:13:38.929,1.1677655,-0.14519973,0.3804393,1.2116098,0.94233197,-0.14267015,-0.13781607,0.79998624,1.011072,0.054804146,0.28915372,0.8676082,0.58323455,1.2350851,0.672403,0.73076856,0.31949064,0.6231366,-0.014157029,0.18702343,739.3773,814.7253,809.4872,800.2198,820.3663,0.2039794921875,-0.12518310546875,0.9759521484375,3.6785888671875,-4.508514404296875,1.727142333984375,1,1.0,1.0,1.0,1.0,100.00
2021-04-14 22:13:39.432,1.1786243,-0.09788486,0.45555952,1.2449716,0.85358226,-0.08687503,-0.067649506,0.6057376,1.011072,0.04583869,0.18054426,0.8344174,0.6447796,1.2304358,0.64844036,0.7851684,0.31163234,0.6737246,-0.044409078,0.22565001,508.09525,823.5897,799.81683,593.91943,713.1868,0.17974853515625,-0.1400146484375,0.98016357421875,3.192596435546875,-2.99072265625,-1.016845703125,1,1.0,1.0,1.0,1.0,100.00
2021-04-14 22:13:39.734,,,,,,,,,,,,,,,,,,,,,,,,,,,,,,,,,,,,,,/muse/elements/blink
2021-04-14 22:13:39.949,1.3589878,-0.16332974,0.44188875,1.1609088,0.95201534,-0.008277101,0.0677777,0.71961987,1.1991532,0.015292992,0.49603847,0.7455431,0.6527052,1.228353,0.5883215,0.76415133,0.38795826,0.7385917,0.068694495,0.25957525,719.2308,770.40295,789.7436,740.18317,763.5531,0.15802001953125,-0.12835693359375,0.98431396484375,5.48797607421875,-2.639312744140625,2.49725341796875,1,1.0,1.0,1.0,1.0,100.00
2021-04-14 22:13:40.472,1.4038925,-0.16332974,0.3474814,1.1609088,0.93036324,-0.008277101,0.074422516,0.71961987,1.1991532,0.015292992,0.51321495,0.7455431,0.696002,1.228353,0.5806083,0.76415133,0.42070007,0.7385917,0.05253091,0.25957525,765.16486,823.5897,808.2784,816.7399,728.49817,0.16815185546875,-0.143798828125,0.99957275390625,4.822540283203125,-2.130889892578125,0.40374755859375,1,1.0,1.0,1.0,1.0,100.00
2021-04-14 22:13:40.962,,,,,,,,,,,,,,,,,,,,,,,,,,,,,,,,,,,,,,/muse/elements/blink
2021-04-14 22:13:40.978,1.4097568,-0.053406835,0.31773,1.1609088,0.9029502,-0.34692466,-0.056649297,0.71961987,1.2063624,0.2620803,0.5269568,0.7455431,0.70722413,1.1258245,0.6345824,0.76415133,0.49485722,0.92064774,0.17058353,0.25957525,927.1429,862.674,831.2454,879.19415,763.5531,0.11199951171875,-0.14337158203125,0.9786376953125,5.8917236328125,9.817047119140625,18.07891845703125,1,1.0,1.0,1.0,1.0,100.00
2021-04-14 22:13:41.495,0.9182243,-0.08922369,0.24519777,1.0723513,0.81900847,-0.3484992,-0.25967905,0.6954653,0.6668453,0.31642386,0.3700781,0.5278576,0.63655967,1.1409771,0.6221842,0.5371381,0.55892813,0.8917931,0.23401567,0.6897961,710.3663,805.05493,819.9634,764.35895,733.73627,-0.19403076171875,-0.04022216796875,0.9454345703125,14.25079345703125,4.18701171875,6.2506103515625,1,1.0,1.0,1.0,1.0,100.00
2021-04-14 22:13:42.004,0.8637638,-0.09144186,0.63520694,1.0723513,0.90022576,-0.31778753,-0.049518187,0.6954653,0.89165246,0.32241437,0.3700781,0.5278576,0.62094295,1.1718119,0.6465775,0.5371381,0.48290643,0.8004614,0.23892128,0.6897961,904.17584,796.1905,812.71063,778.46155,711.1722,-0.1656494140625,0.09307861328125,0.93133544921875,9.5404052734375,-11.67877197265625,21.593017578125,1,1.0,1.0,1.0,1.0,100.00
2021-04-14 22:13:42.283,,,,,,,,,,,,,,,,,,,,,,,,,,,,,,,,,,,,,,/muse/elements/blink
2021-04-14 22:13:42.506,1.0640087,-0.042895567,0.90402955,1.0723513,1.1134791,-0.26292908,0.29511622,0.6954653,0.9711615,0.28166136,0.26520765,0.5278576,0.6057575,1.1888779,0.6150685,0.5371381,0.42872006,0.70314974,0.21171972,0.6897961,840.10986,829.2308,818.7546,824.7985,724.4689,0.06109619140625,-0.03948974609375,1.0001220703125,3.192596435546875,-17.383575439453125,15.80596923828125,1,1.0,1.0,1.0,1.0,100.00
2021-04-14 22:13:43.024,1.2696601,-0.042895567,1.0243434,1.0723513,1.2010382,-0.26292908,0.403704,0.6954653,0.9655098,0.28166136,0.22545195,0.5278576,0.6497645,1.1888779,0.6521466,0.5371381,0.071195066,0.70314974,0.059934292,0.6897961,653.5531,786.52014,792.5641,784.10254,710.3663,0.33050537109375,-0.09454345703125,0.8990478515625,0.82244873046875,-12.60589599609375,4.613189697265625,1,1.0,1.0,1.0,1.0,100.00
2021-04-14 22:13:43.482,,,,,,,,,,,,,,,,,,,,,,,,,,,,,,,,,,,,,,/muse/elements/blink
2021-04-14 22:13:43.525,1.429057,-0.042895567,0.83676445,1.0723513,1.3241969,-0.26292908,0.35683715,0.6954653,0.9655098,0.28166136,0.21605551,0.5278576,0.71031964,1.1888779,0.61278623,0.5371381,-0.0022847212,0.70314974,-0.019773943,0.6897961,578.20514,803.0403,787.326,720.0366,714.7985,-0.001708984375,0.007080078125,0.994873046875,9.099273681640625,9.510498046875,-9.97406005859375,1,1.0,1.0,1.0,1.0,100.00
2021-04-14 22:13:43.710,,,,,,,,,,,,,,,,,,,,,,,,,,,,,,,,,,,,,,/muse/elements/blink
2021-04-14 22:13:43.908,,,,,,,,,,,,,,,,,,,,,,,,,,,,,,,,,,,,,,/muse/elements/blink
2021-04-14 22:13:44.039,1.429057,-0.042895567,0.4891348,1.0723513,1.3241969,-0.26292908,0.1476582,0.6954653,0.9655098,0.28166136,0.14885537,0.5278576,0.71031964,1.1888779,0.6169029,0.5371381,-0.0022847212,0.70314974,-0.10864798,0.6897961,743.00366,809.89014,812.71063,775.2381,790.9524,0.14013671875,0.05865478515625,1.0101318359375,3.461761474609375,-7.6263427734375,19.8284912109375,1,1.0,1.0,1.0,1.0,100.00
2021-04-14 22:13:44.547,1.429057,-0.042895567,0.3154695,1.0723513,1.3241969,-0.26292908,0.11737796,0.6954653,0.9655098,0.28166136,0.14568356,0.5278576,0.71031964,1.1888779,0.6273621,0.5371381,-0.0022847212,0.70314974,-0.10271459,0.6897961,1062.1245,801.02563,806.6667,873.95605,1002.8938,0.0531005859375,0.04937744140625,0.9486083984375,6.796417236328125,-0.73272705078125,1.5252685546875,1,1.0,1.0,1.0,1.0,100.00
2021-04-14 22:13:44.932,,,,,,,,,,,,,,,,,,,,,,,,,,,,,,,,,,,,,,/muse/elements/blink
2021-04-14 22:13:45.063,1.429057,-0.042895567,0.16758278,1.1781831,1.3241969,-0.26292908,0.05882918,1.102764,0.9655098,0.28166136,0.102261394,0.6371251,0.71031964,1.1888779,0.66107804,0.567794,-0.0022847212,0.70314974,-0.094333224,0.11061118,873.5531,853.00366,823.9927,887.25275,771.6117,-0.12371826171875,0.02069091796875,1.007568359375,0.097198486328125,6.74407958984375,9.22637939453125,1,1.0,1.0,1.0,1.0,100.00
2021-04-14 22:13:45.566,1.429057,-0.042895567,0.16758278,1.1781831,1.3241969,-0.26292908,0.05882918,1.102764,0.9655098,0.28166136,0.102261394,0.6371251,0.71031964,1.1888779,0.66107804,0.567794,-0.0022847212,0.70314974,-0.094333224,0.11061118,560.07324,807.47253,796.5934,670.87915,663.22345,-0.02960205078125,0.0015869140625,0.99981689453125,3.48419189453125,-5.3533935546875,-0.485992431640625,1,1.0,1.0,1.0,1.0,100.00
2021-04-14 22:13:45.839,,,,,,,,,,,,,,,,,,,,,,,,,,,,,,,,,,,,,,/muse/elements/blink
2021-04-14 22:13:46.068,1.429057,-0.042895567,0.16758278,1.1781831,1.3241969,-0.26292908,0.05882918,1.102764,0.9655098,0.28166136,0.102261394,0.6371251,0.71031964,1.1888779,0.66107804,0.567794,-0.0022847212,0.70314974,-0.094333224,0.11061118,664.0293,788.5348,804.2491,753.47986,763.1502,-0.2177734375,0.02850341796875,1.00927734375,0.88226318359375,-4.538421630859375,-0.2093505859375,1,1.0,1.0,1.0,1.0,100.00
2021-04-14 22:13:46.270,,,,,,,,,,,,,,,,,,,,,,,,,,,,,,,,,,,,,,/muse/elements/blink
2021-04-14 22:13:46.593,1.429057,-0.042895567,0.6563376,1.1781831,1.3241969,-0.26292908,0.8391645,1.102764,0.9655098,0.28166136,0.3615946,0.6371251,0.71031964,1.1888779,0.4505017,0.567794,-0.0022847212,0.70314974,-0.056950565,0.11061118,893.2967,834.87177,815.5311,845.7509,688.60803,-0.1302490234375,0.08917236328125,1.00653076171875,6.35528564453125,-4.732818603515625,4.65057373046875,1,1.0,1.0,1.0,1.0,100.00
2021-04-14 22:13:47.099,1.429057,-0.042895567,0.55862117,1.1781831,1.3241969,-0.26292908,0.65153354,1.102764,0.9655098,0.28166136,0.3621981,0.6371251,0.71031964,1.1888779,0.48083335,0.567794,-0.0022847212,0.70314974,0.05192645,0.11061118,937.2161,815.5311,827.2161,861.4652,796.99634,-0.19671630859375,0.02728271484375,0.983642578125,5.84686279296875,-4.418792724609375,11.0955810546875,1,1.0,1.0,1.0,1.0,100.00
2021-04-14 22:13:47.471,,,,,,,,,,,,,,,,,,,,,,,,,,,,,,,,,,,,,,/muse/elements/blink
2021-04-14 22:13:47.612,1.429057,-0.042895567,0.5785329,1.1781831,1.3241969,-0.26292908,0.6219853,1.102764,0.9655098,0.28166136,0.3621981,0.6371251,0.71031964,1.1888779,0.4833595,0.567794,-0.0022847212,0.70314974,0.065667614,0.11061118,650.32965,800.2198,803.8461,724.0659,786.52014,-0.21630859375,0.0206298828125,0.9788818359375,3.745880126953125,-0.64300537109375,1.024322509765625,1,2.0,1.0,1.0,2.0,100.00
2021-04-14 22:13:48.119,1.429057,-0.042895567,0.50473607,1.1781831,1.3241969,-0.26292908,0.20550102,1.102764,0.9655098,0.28166136,0.14067328,0.6371251,0.71031964,1.1888779,0.5475091,0.567794,-0.0022847212,0.70314974,0.18855599,0.11061118,844.1392,825.2015,827.619,807.0696,727.28937,-0.23736572265625,-0.0089111328125,0.97650146484375,4.94964599609375,-5.39825439453125,-1.77947998046875,1,2.0,1.0,1.0,2.0,100.00
2021-04-14 22:13:48.643,0.7692815,-0.042895567,0.7884624,1.0158998,0.44440407,-0.26292908,0.009502975,0.36509117,0.7078709,0.28166136,0.14143488,0.48552313,0.5039406,1.1888779,0.5291185,0.685454,0.16159819,0.70314974,0.05266937,0.11751196,994.43225,831.6484,794.57874,903.36993,804.65204,-0.18011474609375,-0.0035400390625,0.97576904296875,14.34051513671875,-12.239532470703125,-32.606353759765625,1,1.0,1.0,1.0,1.0,100.00
2021-04-14 22:13:48.804,,,,,,,,,,,,,,,,,,,,,,,,,,,,,,,,,,,,,,/muse/elements/blink
2021-04-14 22:13:49.161,0.7692815,-0.042895567,0.82380265,1.044105,0.44440407,-0.26292908,0.05213978,0.35755637,0.7078709,0.28166136,0.23555243,0.66952103,0.5039406,1.1888779,0.51369876,0.6869535,0.16159819,0.70314974,0.062447842,0.09929424,831.2454,822.381,821.1722,852.6007,794.17584,-0.1075439453125,-0.0103759765625,1.0032958984375,3.0804443359375,-3.790740966796875,1.577606201171875,1,1.0,1.0,1.0,1.0,100.00
2021-04-14 22:13:49.677,0.8716926,-0.042895567,0.99451613,1.1636696,0.54275346,-0.26292908,0.09768313,0.25682527,0.70252866,0.28166136,0.17624922,0.66674125,0.46675214,1.1888779,0.4170408,0.71098083,0.15199792,0.70314974,-0.07243735,0.040221654,997.25275,831.6484,800.2198,894.10254,722.4542,-0.13720703125,-0.010009765625,1.00213623046875,3.686065673828125,-4.448699951171875,11.46942138671875,1,1.0,1.0,1.0,1.0,100.00
2021-04-14 22:13:50.092,,,,,,,,,,,,,,,,,,,,,,,,,,,,,,,,,,,,,,/muse/elements/blink
2021-04-14 22:13:50.181,0.8716926,-0.042895567,1.0823398,1.1863648,0.54275346,-0.26292908,0.15281606,0.25861463,0.70252866,0.28166136,0.15099141,0.6516825,0.46675214,1.1888779,0.40049946,0.7005209,0.15199792,0.70314974,0.016070098,-0.0089300545,702.71063,794.9817,789.7436,774.0293,740.989,-0.132568359375,-0.02874755859375,0.99395751953125,5.345916748046875,-2.79632568359375,4.493560791015625,1,1.0,1.0,1.0,1.0,100.00
2021-04-14 22:13:50.708,0.8716926,-0.042895567,1.0823398,1.1863648,0.54275346,-0.26292908,0.15281606,0.25861463,0.70252866,0.28166136,0.15099141,0.6516825,0.46675214,1.1888779,0.40049946,0.7005209,0.15199792,0.70314974,0.016070098,-0.0089300545,929.9634,841.31866,817.1429,853.4066,863.47986,-0.17041015625,-0.0179443359375,0.9853515625,6.332855224609375,-2.332763671875,3.45428466796875,1,1.0,1.0,1.0,1.0,100.00
2021-04-14 22:13:51.231,0.88991624,-0.042895567,0.4928715,0.31815684,0.18101552,-0.26292908,-0.016587295,0.27627057,0.3024663,0.28166136,0.053560566,0.21086887,0.12494802,1.1888779,0.4315407,0.4156293,0.08639653,0.70314974,0.016896125,0.030974992,773.22345,781.28204,792.1612,783.69965,854.61536,-0.1566162109375,-0.0108642578125,0.9925537109375,4.94964599609375,-5.764617919921875,0.725250244140625,1,1.0,1.0,1.0,1.0,100.00
2021-04-14 22:13:51.419,,,,,,,,,,,,,,,,,,,,,,,,,,,,,,,,,,,,,,/muse/elements/blink
2021-04-14 22:13:51.744,0.76759195,-0.042895567,0.7291968,0.39729303,0.32743362,-0.26292908,0.091907986,0.2515095,0.39337298,0.28166136,0.29932585,0.32498807,0.2172955,1.1888779,0.4782053,0.5199115,0.043373097,0.70314974,0.024317577,0.022277994,992.4176,832.0513,816.337,877.5824,886.8498,-0.1348876953125,-0.0120849609375,0.98822021484375,4.53094482421875,-6.160888671875,0.43365478515625,1,1.0,1.0,1.0,1.0,100.00
2021-04-14 22:13:52.253,0.724915,0.23211403,0.7010842,0.67895156,0.50695366,-0.14803082,0.05748808,0.3043978,0.50182694,0.663793,0.34192827,0.7298227,0.29445753,1.0410091,0.5372453,0.53221506,0.08715313,0.6841211,-0.0069398056,-0.013039618,886.4469,815.12823,820.3663,859.85345,662.01465,-0.14111328125,-0.011962890625,0.98431396484375,5.14404296875,-1.652374267578125,0.299072265625,1,1.0,1.0,1.0,1.0,100.00
2021-04-14 22:13:52.554,,,,,,,,,,,,,,,,,,,,,,,,,,,,,,,,,,,,,,/muse/elements/blink
2021-04-14 22:13:52.783,0.73514503,0.30994183,0.85123587,0.8580868,0.57379395,-0.089721054,0.083150595,0.2679761,0.84112567,0.66040945,0.34469658,0.7279112,0.3962708,1.0223595,0.54706836,0.56179327,0.16458943,0.6412931,0.032033302,0.0109667275,645.09155,790.14655,804.65204,728.0952,726.08057,-0.21405029296875,-4.2724609375E-4,0.98883056640625,3.46923828125,-1.65985107421875,3.028106689453125,1,1.0,1.0,1.0,1.0,100.00
2021-04-14 22:13:53.287,0.7915436,0.23164274,0.8479654,0.9430576,0.56943125,-0.077319294,-0.0026416108,0.21904764,0.83293575,0.65084684,0.24346165,0.7259102,0.4039416,1.0750948,0.5402135,0.5187531,0.2846097,0.7584604,0.06978383,0.07063625,653.1502,820.7692,836.4835,730.9158,773.6264,-0.19134521484375,-0.0228271484375,0.97784423828125,4.224395751953125,-5.802001953125,-2.332763671875,1,1.0,1.0,1.0,1.0,100.00
2021-04-14 22:13:53.803,0.98037976,0.021294039,0.86581296,0.92781794,0.47986442,-0.11745788,0.053244915,0.3831044,0.8331879,0.27928174,0.20639393,0.7117076,0.3854671,1.1346459,0.46338588,0.5781614,0.25232124,0.8542824,0.071024366,0.1318437,892.49084,833.663,811.50183,832.8571,692.23444,-0.19476318359375,-0.00482177734375,0.9906005859375,8.35906982421875,-7.544097900390625,0.665435791015625,1,1.0,1.0,1.0,1.0,100.00
2021-04-14 22:13:53.839,,,,,,,,,,,,,,,,,,,,,,,,,,,,,,,,,,,,,,/muse/elements/blink
2021-04-14 22:13:54.311,1.034198,0.021294039,0.8138847,0.8814204,0.47608528,-0.11745788,0.10073481,0.45531416,0.7572355,0.27928174,0.24043716,0.58833146,0.3581121,1.1346459,0.4663022,0.5835621,0.21897912,0.8542824,0.036436614,0.09843615,664.83514,797.8022,803.44324,756.30035,731.7216,-0.1734619140625,0.00628662109375,0.99090576171875,3.162689208984375,-5.0244140625,2.82623291015625,1,1.0,1.0,1.0,1.0,100.00
2021-04-14 22:13:54.822,1.1661059,0.021294039,0.71821755,0.9337076,0.51884645,-0.11745788,0.44797546,0.53800476,0.5858688,0.27928174,0.33602095,0.8156748,0.38615808,1.1346459,0.47783056,0.6634767,0.020351972,0.8542824,0.118552014,0.10306646,816.337,827.2161,805.8608,812.71063,685.38464,-0.17254638671875,-0.00390625,0.985107421875,4.388885498046875,-4.538421630859375,-2.76641845703125,1,1.0,1.0,1.0,1.0,100.00
2021-04-14 22:13:55.149,,,,,,,,,,,,,,,,,,,,,,,,,,,,,,,,,,,,,,/muse/elements/blink
2021-04-14 22:13:55.327,1.2295359,0.021294039,0.69144464,1.0443653,0.5780552,-0.11745788,0.5436551,0.6361171,0.5858688,0.27928174,0.6454271,0.9260126,0.43535212,1.1346459,0.50545883,0.7926624,-0.020216594,0.8542824,0.23241414,0.15348758,878.3883,801.4286,790.14655,858.24176,728.0952,-0.19854736328125,-0.00360107421875,0.98468017578125,4.3963623046875,-6.078643798828125,1.92901611328125,1,1.0,1.0,1.0,1.0,100.00
2021-04-14 22:13:55.829,1.2295359,0.021294039,0.6465966,1.1156113,0.5780552,-0.11745788,0.55256534,0.7186975,0.5858688,0.27928174,0.6440312,0.9260126,0.43535212,1.1346459,0.5024227,0.8962101,-0.020216594,0.8542824,0.25853512,0.19833612,987.98535,831.6484,789.34064,851.79486,789.34064,-0.18231201171875,0.01239013671875,0.99102783203125,7.125396728515625,-5.8917236328125,-0.59814453125,1,1.0,1.0,1.0,1.0,100.00
2021-04-14 22:13:56.339,1.2295359,0.021294039,0.5609459,1.2363302,0.5780552,-0.11745788,0.42221385,0.8474773,0.5858688,0.27928174,0.6440312,0.9260126,0.43535212,1.1346459,0.46634132,1.052558,-0.020216594,0.8542824,0.24119526,0.2429661,858.24176,844.94507,818.7546,832.0513,706.337,-0.184326171875,0.02197265625,0.984375,5.323486328125,-3.386993408203125,-0.19439697265625,1,1.0,1.0,1.0,1.0,100.00
2021-04-14 22:13:56.375,,,,,,,,,,,,,,,,,,,,,,,,,,,,,,,,,,,,,,/muse/elements/blink
2021-04-14 22:13:56.841,1.0748335,0.021294039,0.5609459,1.2363302,0.87155354,-0.11745788,0.42221385,0.8474773,0.7928674,0.27928174,0.6440312,0.9260126,0.5441232,1.1346459,0.46634132,1.052558,-0.07958363,0.8542824,0.24119526,0.2429661,792.5641,823.5897,809.0842,786.52014,723.2601,-0.19451904296875,0.02783203125,0.98236083984375,4.9346923828125,-4.59075927734375,1.428070068359375,1,1.0,1.0,1.0,1.0,100.00
2021-04-14 22:13:57.364,1.0256149,-0.15866314,0.20143665,0.93901086,0.89537513,0.06020967,0.12559049,0.6554665,0.7928674,0.064518906,0.18762937,0.47166625,0.4565947,1.0418774,0.44689915,0.57932085,-0.074905366,0.5082306,-0.12152846,-0.048447832,977.9121,825.2015,809.4872,856.2271,836.08057,-0.19879150390625,0.03045654296875,0.985107421875,4.11224365234375,-5.211334228515625,0.9869384765625,1,1.0,1.0,1.0,1.0,100.00
2021-04-14 22:13:57.740,,,,,,,,,,,,,,,,,,,,,,,,,,,,,,,,,,,,,,/muse/elements/blink
2021-04-14 22:13:57.880,0.9110022,-0.017335089,0.1397985,0.77954745,0.8183542,0.12995596,0.03434085,0.5172101,0.80762464,0.09438664,0.18762937,0.5270583,0.40535387,1.0376065,0.37910017,0.51282716,-0.023720872,0.54344314,-0.061147373,0.010283483,857.4359,842.9304,816.7399,833.663,790.54944,-0.1832275390625,0.0284423828125,0.98443603515625,4.486083984375,-5.84686279296875,0.381317138671875,1,1.0,1.0,1.0,1.0,100.00
2021-04-14 22:13:58.417,0.7634917,0.12542847,0.16809034,0.5853718,0.74849385,0.12324646,-0.038016815,0.49635845,0.5955357,0.110053934,-0.06367829,0.60549015,0.320783,1.057724,0.31783852,0.49148786,-0.030538155,0.49546242,-0.08223433,0.0147647625,1023.44324,819.5604,807.47253,911.4286,822.7839,-0.19696044921875,0.017578125,0.9810791015625,4.20196533203125,-2.893524169921875,0.007476806640625,1,1.0,1.0,1.0,1.0,100.00
2021-04-14 22:13:58.939,0.55536586,0.329587,0.1845231,0.15427165,0.594644,0.19101702,-0.086366616,0.31362703,0.449442,0.010958585,0.20480663,0.45109123,0.30365553,1.0767523,0.29297918,0.4618893,-0.007429676,0.47895548,-0.08493385,0.043045565,794.9817,825.2015,817.5458,819.9634,745.42126,-0.20806884765625,0.017822265625,0.98126220703125,3.775787353515625,-5.63751220703125,2.400054931640625,1,1.0,1.0,1.0,1.0,100.00
2021-04-14 22:13:59.040,,,,,,,,,,,,,,,,,,,,,,,,,,,,,,,,,,,,,,/muse/elements/blink
2021-04-14 22:13:59.465,0.6149421,0.25014618,0.3747176,-0.010703962,0.57035303,0.33813277,-0.06937774,0.48919207,0.38929278,0.44454497,0.20901975,0.38119712,0.32505515,1.0877924,0.33165607,0.5537018,-0.14775446,0.32308263,-0.14105333,-0.045742508,628.5714,806.26373,807.47253,723.663,687.8022,-0.20208740234375,0.027587890625,0.98309326171875,5.944061279296875,-4.373931884765625,0.70281982421875,1,1.0,1.0,1.0,1.0,100.00
2021-04-14 22:13:59.994,0.8138232,0.23974946,0.47484034,0.39295682,0.31242165,0.22373205,-0.14491601,0.12963223,0.2813497,0.5206192,0.21891446,-0.06678653,0.42544192,1.0230649,0.32983407,0.35566726,0.16634642,0.3344556,-0.102505885,-0.0429691,701.9048,796.99634,799.011,761.13556,819.15753,-0.2276611328125,0.009033203125,0.97601318359375,3.42437744140625,-2.99072265625,2.1832275390625,1,1.0,1.0,1.0,1.0,100.00
2021-04-14 22:14:00.278,,,,,,,,,,,,,,,,,,,,,,,,,,,,,,,,,,,,,,/muse/elements/blink
2021-04-14 22:14:00.473,,,,,,,,,,,,,,,,,,,,,,,,,,,,,,,,,,,,,,/muse/elements/blink
2021-04-14 22:14:00.502,0.7413267,0.35177135,0.58280665,0.5988149,0.46517152,0.37700716,-0.107461944,0.31547195,0.39580926,0.58263326,0.55736667,0.5634202,0.37755248,1.0246457,0.38798177,0.4608252,0.1083002,0.3712045,-0.026495336,0.118972905,933.9927,848.97437,830.4396,849.3773,751.8681,-0.234375,0.00933837890625,0.982666015625,5.286102294921875,-3.70849609375,0.6878662109375,1,1.0,1.0,1.0,1.0,100.00
2021-04-14 22:14:01.008,0.79584634,0.6273166,0.5850215,0.76707375,0.5829004,0.6927478,0.26505375,0.48491794,0.4526017,0.8071604,0.63034964,0.6268692,0.38437808,0.9888432,0.47767025,0.5058526,0.06942272,0.3631252,-0.04914436,0.09235621,913.0403,794.9817,820.3663,834.87177,742.1978,-0.2349853515625,-0.0054931640625,0.96484375,5.12908935546875,-5.36834716796875,2.295379638671875,1,1.0,1.0,1.0,1.0,100.00
2021-04-14 22:14:01.523,0.7876114,0.7480615,0.6340793,0.86628544,0.6642573,0.8601304,0.44623348,0.5812439,0.44356483,0.73208785,0.74849653,0.6268692,0.36480215,1.0054467,0.53030443,0.5589065,0.01826165,0.36229143,0.06443549,0.14118184,601.1722,797.3993,817.9487,661.2088,949.304,-0.22100830078125,0.02056884765625,0.9779052734375,5.0244140625,-7.499237060546875,-1.016845703125,1,1.0,1.0,1.0,1.0,100.00
2021-04-14 22:14:01.691,,,,,,,,,,,,,,,,,,,,,,,,,,,,,,,,,,,,,,/muse/elements/blink
2021-04-14 22:14:02.049,0.8980901,0.9298688,0.83342755,1.003284,0.7687969,1.0627937,0.6493284,0.722178,0.43421495,0.71623766,0.8055902,0.558666,0.39935437,0.9757969,0.5357184,0.5927791,-0.033339318,0.24710642,0.11020289,0.025737448,612.4542,832.8571,804.2491,694.2491,697.0696,-0.20489501953125,0.02117919921875,0.98272705078125,3.760833740234375,-6.35528564453125,-0.441131591796875,1,1.0,1.0,1.0,1.0,100.00
2021-04-14 22:14:02.562,0.8980901,0.9298688,0.9211114,1.003284,0.7687969,1.0627937,0.67393583,0.722178,0.43421495,0.71623766,0.77478,0.558666,0.39935437,0.9757969,0.5065038,0.5927791,-0.033339318,0.24710642,0.21903001,0.025737448,679.34064,796.5934,799.81683,757.9121,729.304,-0.2056884765625,0.01904296875,0.98455810546875,6.407623291015625,-3.78326416015625,1.09161376953125,1,1.0,1.0,1.0,1.0,100.00
2021-04-14 22:14:02.827,,,,,,,,,,,,,,,,,,,,,,,,,,,,,,,,,,,,,,/muse/elements/blink
2021-04-14 22:14:03.088,0.8980901,0.9298688,1.0621648,1.003284,0.7687969,1.0627937,0.7550114,0.722178,0.43421495,0.71623766,0.7575291,0.558666,0.39935437,0.9757969,0.5450201,0.5927791,-0.033339318,0.24710642,0.09351129,0.025737448,948.9011,814.7253,805.8608,854.61536,821.1722,-0.21728515625,0.03155517578125,0.9798583984375,5.5926513671875,-4.6356201171875,1.801910400390625,1,1.0,1.0,1.0,1.0,100.00
2021-04-14 22:14:03.612,0.7263325,0.9298688,0.80149955,0.943455,0.21089575,1.0627937,0.51801276,0.6163066,0.6360407,0.71623766,0.10175213,0.31893268,0.3985276,0.9757969,0.47972584,0.33577034,0.10646718,0.24710642,-0.09054126,0.0015205038,793.7729,788.93774,802.23444,790.9524,722.4542,-0.1904296875,0.03131103515625,0.98651123046875,3.461761474609375,-7.095489501953125,2.88604736328125,1,1.0,1.0,1.0,1.0,100.00
2021-04-14 22:14:04.111,,,,,,,,,,,,,,,,,,,,,,,,,,,,,,,,,,,,,,/muse/elements/blink
2021-04-14 22:14:04.138,0.9576288,0.9298688,0.87000614,0.9251506,0.24880515,1.0627937,0.5187532,0.62815094,0.7979696,0.71623766,0.2490121,0.5916824,0.47268736,0.9757969,0.52371734,0.4430739,0.08768247,0.24710642,-0.11570051,-0.059612297,996.8498,812.3077,809.0842,871.9414,871.53845,-0.18365478515625,0.0291748046875,0.9853515625,4.029998779296875,-6.0113525390625,6.243133544921875,1,1.0,1.0,1.0,1.0,100.00
2021-04-14 22:14:04.643,0.9348699,0.9298688,0.72071487,0.729336,0.35655433,1.0627937,0.41852137,0.51871234,0.9380502,0.71623766,0.2517081,0.5700989,0.5399444,0.9757969,0.49400988,0.58961874,-0.017564112,0.24710642,-0.09687371,-0.09027739,864.2857,849.7802,835.2747,839.304,744.61536,-0.14764404296875,0.01800537109375,0.99395751953125,5.510406494140625,-6.721649169921875,-0.171966552734375,1,1.0,1.0,1.0,1.0,100.00
2021-04-14 22:14:05.158,1.1889079,0.9298688,0.74728006,0.75311047,0.6759476,1.0627937,0.37555483,0.4988736,1.0067676,0.71623766,0.2506795,0.56869316,0.6470591,0.9757969,0.5137128,0.66306776,0.09395384,0.24710642,-0.14153096,-0.14500232,645.89746,783.69965,786.9231,736.55676,799.41394,-0.09765625,0.023193359375,0.99664306640625,3.57391357421875,-8.650665283203125,-3.0804443359375,1,1.0,1.0,1.0,1.0,100.00
2021-04-14 22:14:05.230,,,,,,,,,,,,,,,,,,,,,,,,,,,,,,,,,,,,,,/muse/elements/blink
2021-04-14 22:14:05.664,1.368148,0.9298688,0.058257587,1.0247153,0.953189,1.0627937,0.08058675,0.71935964,0.9976499,0.71623766,-0.17173304,0.6233781,0.65900755,0.9757969,0.40229365,0.7125145,0.1754001,0.24710642,-0.12034461,0.08577866,651.9414,805.4579,775.2381,710.7692,749.85345,-0.06976318359375,0.01226806640625,1.00592041015625,4.5758056640625,-5.562744140625,-14.0264892578125,1,1.0,1.0,1.0,1.0,100.00
2021-04-14 22:14:06.170,1.5406041,0.9298688,0.058257587,1.1539292,1.0975136,1.0627937,0.08058675,0.8557648,0.93659204,0.71623766,-0.17173304,0.5866808,0.71213406,0.9757969,0.40229365,0.722357,0.26019156,0.24710642,-0.12034461,0.18602097,888.86444,834.4689,812.3077,836.08057,696.26373,-0.0706787109375,0.03363037109375,1.00494384765625,7.40203857421875,-4.568328857421875,-12.63580322265625,1,1.0,1.0,1.0,1.0,100.00
2021-04-14 22:14:06.555,,,,,,,,,,,,,,,,,,,,,,,,,,,,,,,,,,,,,,/muse/elements/blink
2021-04-14 22:14:06.685,1.3796599,0.9298688,0.058257587,1.203156,1.013007,1.0627937,0.08058675,0.74101096,0.58280545,0.71623766,-0.17173304,0.6241929,0.46342623,0.9757969,0.40229365,0.686668,0.15825868,0.24710642,-0.12034461,0.2397422,652.3443,763.95605,838.0952,753.0769,782.0879,-0.11322021484375,-3.0517578125E-4,0.98944091796875,0.785064697265625,-0.829925537109375,3.15521240234375,1,1.0,1.0,1.0,1.0,100.00
2021-04-14 22:14:07.203,0.6287225,0.9298688,0.058257587,1.3761722,0.6111469,1.0627937,0.08058675,1.0348377,0.47217074,0.71623766,-0.17173304,0.8919936,0.33090627,0.9757969,0.40229365,0.75866914,-0.045803078,0.24710642,-0.12034461,0.16715728,601.1722,809.4872,799.81683,686.5934,635.82416,-0.13580322265625,-0.0272216796875,0.9918212890625,-3.835601806640625,-3.0804443359375,6.826324462890625,1,1.0,1.0,1.0,1.0,100.00
2021-04-14 22:14:07.727,0.6287225,0.9298688,0.058257587,1.3761722,0.6111469,1.0627937,0.08058675,1.0348377,0.47217074,0.71623766,-0.17173304,0.8919936,0.33090627,0.9757969,0.40229365,0.75866914,-0.045803078,0.24710642,-0.12034461,0.16715728,826.4103,820.7692,810.696,794.9817,730.10986,-0.18280029296875,-0.05419921875,0.97088623046875,7.454376220703125,-4.71038818359375,1.846771240234375,1,1.0,1.0,1.0,1.0,100.00
2021-04-14 22:14:07.863,,,,,,,,,,,,,,,,,,,,,,,,,,,,,,,,,,,,,,/muse/elements/blink
2021-04-14 22:14:08.254,0.6287225,0.9298688,0.058257587,1.4753028,0.6111469,1.0627937,0.08058675,1.2577499,0.47217074,0.71623766,-0.17173304,1.1493214,0.33090627,0.9757969,0.40229365,0.7745331,-0.045803078,0.24710642,-0.12034461,0.043319974,636.2271,786.52014,819.9634,682.96704,759.12085,-0.15460205078125,-0.0181884765625,0.99658203125,5.682373046875,-7.9254150390625,7.67120361328125,1,1.0,1.0,1.0,1.0,100.00
2021-04-14 22:14:08.457,,,,,,,,,,,,,,,,,,,,,,,,,,,,,,,,,,,,,,/muse/elements/blink
2021-04-14 22:14:08.782,0.6287225,0.9298688,0.058257587,1.2833112,0.6111469,1.0627937,0.08058675,1.1480416,0.47217074,0.71623766,-0.17173304,1.1274529,0.33090627,0.9757969,0.40229365,0.7312701,-0.045803078,0.24710642,-0.12034461,-0.15331422,886.4469,824.7985,808.2784,821.978,724.4689,-0.13616943359375,-0.0067138671875,1.00146484375,5.704803466796875,-4.329071044921875,1.65985107421875,1,1.0,1.0,1.0,1.0,100.00
2021-04-14 22:14:09.091,,,,,,,,,,,,,,,,,,,,,,,,,,,,,,,,,,,,,,/muse/elements/blink
2021-04-14 22:14:09.283,0.6287225,0.9298688,0.058257587,1.2833112,0.6111469,1.0627937,0.08058675,1.1480416,0.47217074,0.71623766,-0.17173304,1.1274529,0.33090627,0.9757969,0.40229365,0.7312701,-0.045803078,0.24710642,-0.12034461,-0.15331422,965.0183,789.34064,808.68134,884.43225,921.9048,-0.13323974609375,-0.00543212890625,0.9881591796875,6.287994384765625,-2.10845947265625,-12.1124267578125,1,1.0,1.0,1.0,1.0,100.00
2021-04-14 22:14:09.785,0.6287225,0.9298688,0.058257587,1.2833112,0.6111469,1.0627937,0.08058675,1.1480416,0.47217074,0.71623766,-0.17173304,1.1274529,0.33090627,0.9757969,0.40229365,0.7312701,-0.045803078,0.24710642,-0.12034461,-0.15331422,623.3333,781.28204,783.2967,713.9927,789.7436,-0.17529296875,-0.0255126953125,0.97100830078125,5.93658447265625,-10.699310302734375,-21.87713623046875,1,1.0,1.0,1.0,1.0,100.00
2021-04-14 22:14:10.299,0.6287225,0.22686815,0.17565459,1.2588623,0.6111469,0.19993305,-0.08196822,0.17468941,0.47217074,0.45261988,0.16273202,0.37432206,0.33090627,0.8851852,0.39830095,0.48450974,-0.045803078,0.3908685,-0.12619941,-0.16113539,600.7692,821.1722,799.81683,628.97437,518.97437,-0.117919921875,-0.0811767578125,0.97991943359375,11.46942138671875,-7.835693359375,-79.0447998046875,1,1.0,1.0,1.0,1.0,100.00
2021-04-14 22:14:10.396,,,,,,,,,,,,,,,,,,,,,,,,,,,,,,,,,,,,,,/muse/elements/blink
2021-04-14 22:14:10.805,0.6287225,0.22686815,0.26457843,1.2588623,0.6111469,0.19993305,-0.10047865,0.17468941,0.47217074,0.45261988,0.24778903,0.37432206,0.33090627,0.8851852,0.46401998,0.48450974,-0.045803078,0.3908685,-0.1492073,-0.16113539,1014.17584,820.3663,817.1429,1007.72894,1061.7216,-0.0740966796875,-0.02392578125,0.99920654296875,8.127288818359375,-3.865509033203125,-51.27593994140625,1,1.0,1.0,1.0,1.0,100.00
2021-04-14 22:14:10.819,,,,,,,,,,,,,,,,,,,,,,,,,,,,,,,,,,,,,,/muse/elements/blink
2021-04-14 22:14:11.319,0.6287225,0.1643964,0.39070055,1.3237779,0.6111469,0.17249775,0.14950722,0.17101714,0.47217074,0.39016792,0.34661007,0.25549698,0.33090627,0.8937684,0.5178595,0.5360705,-0.045803078,0.39657438,-0.22265331,-0.3179908,927.9487,810.293,815.9341,903.7729,1020.2198,-0.1107177734375,0.07818603515625,1.00274658203125,9.97406005859375,-6.0711669921875,-35.552215576171875,1,1.0,1.0,1.0,1.0,100.00
2021-04-14 22:14:11.514,,,,,,,,,,,,,,,,,,,,,,,,,,,,,,,,,,,,,,/muse/elements/blink
2021-04-14 22:14:11.840,0.6287225,0.23148832,0.77479297,1.3237779,0.6111469,0.23860252,0.4555443,0.17101714,0.47217074,0.38114047,0.45654726,0.25549698,0.33090627,0.95245767,0.54586,0.5360705,-0.045803078,0.39713663,-0.27451226,-0.3179908,746.2271,820.7692,820.3663,736.55676,689.41394,-0.00665283203125,0.03826904296875,1.00042724609375,4.837493896484375,-7.080535888671875,-7.932891845703125,1,1.0,1.0,1.0,1.0,100.00
2021-04-14 22:14:12.355,0.6287225,0.23148832,0.8779692,1.3237779,0.6111469,0.23860252,0.6005347,0.17101714,0.47217074,0.38114047,0.46147215,0.25549698,0.33090627,0.95245767,0.47753212,0.5360705,-0.045803078,0.39713663,-0.26579386,-0.3179908,744.21246,792.1612,791.75824,713.1868,759.12085,-0.0025634765625,0.05450439453125,1.00885009765625,2.459869384765625,-5.166473388671875,21.107025146484375,1,1.0,1.0,1.0,1.0,100.00
2021-04-14 22:14:12.833,,,,,,,,,,,,,,,,,,,,,,,,,,,,,,,,,,,,,,/muse/elements/blink
2021-04-14 22:14:12.862,0.6287225,0.23148832,1.0147729,1.3237779,0.6111469,0.23860252,0.69897366,0.17101714,0.47217074,0.38114047,0.44002512,0.25549698,0.33090627,0.95245767,0.3313122,0.5360705,-0.045803078,0.39713663,-0.19620533,-0.3179908,818.7546,810.696,799.81683,831.6484,815.12823,-0.06756591796875,0.0892333984375,0.989501953125,1.77947998046875,0.2093505859375,64.67437744140625,1,1.0,1.0,1.0,1.0,100.00
2021-04-14 22:14:13.369,0.6287225,0.23148832,0.69664615,1.3237779,0.6111469,0.23860252,0.38070685,0.17101714,0.47217074,0.38114047,0.3256961,0.25549698,0.33090627,0.95245767,0.3009817,0.5360705,-0.045803078,0.39713663,0.06437749,-0.3179908,796.5934,820.3663,807.8755,830.0366,763.1502,-0.10064697265625,0.06524658203125,0.9874267578125,-4.83001708984375,-6.437530517578125,57.369537353515625,1,2.0,1.0,1.0,2.0,100.00
2021-04-14 22:14:13.589,,,,,,,,,,,,,,,,,,,,,,,,,,,,,,,,,,,,,,/muse/elements/blink
2021-04-14 22:14:13.899,0.6287225,0.23148832,1.0236051,1.3237779,0.6111469,0.23860252,0.7299105,0.17101714,0.47217074,0.38114047,0.54627746,0.25549698,0.33090627,0.95245767,0.35399684,0.5360705,-0.045803078,0.39713663,0.10165239,-0.3179908,757.50916,803.0403,794.17584,797.3993,791.75824,-0.08074951171875,0.01715087890625,1.0074462890625,1.936492919921875,-3.715972900390625,38.87939453125,1,2.0,1.0,1.0,2.0,100.00
2021-04-14 22:14:14.198,,,,,,,,,,,,,,,,,,,,,,,,,,,,,,,,,,,,,,/muse/elements/blink
2021-04-14 22:14:14.426,0.6287225,1.051129,0.9710224,1.3237779,0.6111469,0.90634036,0.7295038,0.17101714,0.47217074,0.81837505,0.62578726,0.25549698,0.33090627,0.8677863,0.38337415,0.5360705,-0.045803078,0.15140356,0.02602052,-0.3179908,757.50916,811.9048,796.1905,768.7912,707.1429,-0.086181640625,0.03973388671875,1.00189208984375,3.24493408203125,-6.98333740234375,20.7257080078125,1,2.0,1.0,1.0,2.0,100.00
2021-04-14 22:14:14.956,0.6287225,0.8482717,0.9604506,1.3237779,0.6111469,0.6958072,0.74039453,0.17101714,0.47217074,0.81928635,0.6290058,0.25549698,0.33090627,0.86300236,0.39891636,0.5360705,-0.045803078,0.2325976,-0.10259245,-0.3179908,700.293,811.9048,792.96704,786.9231,703.1135,-0.091064453125,0.0125732421875,0.98712158203125,-2.10845947265625,-10.9161376953125,-0.321502685546875,1,2.0,1.0,1.0,2.0,100.00
2021-04-14 22:14:15.460,0.6287225,0.5889838,0.67932993,1.3237779,0.6111469,0.40870473,0.5403472,0.17101714,0.47217074,0.66083896,0.51710176,0.25549698,0.33090627,0.85584766,0.41191033,0.5360705,-0.045803078,0.31841314,-0.23070087,-0.3179908,614.87177,793.7729,813.1135,700.696,622.9304,0.17034912109375,4.8828125E-4,1.05108642578125,4.366455078125,2.684173583984375,10.9759521484375,1,2.0,1.0,1.0,2.0,100.00
2021-04-14 22:14:15.491,,,,,,,,,,,,,,,,,,,,,,,,,,,,,,,,,,,,,,/muse/elements/blink
2021-04-14 22:14:15.969,0.6287225,0.39680612,0.31586087,1.3237779,0.6111469,-0.04927686,0.047333974,0.17101714,0.47217074,0.29515517,0.20323874,0.25549698,0.33090627,0.84823394,0.37869748,0.5360705,-0.045803078,0.3851901,-0.3005729,-0.3179908,822.7839,794.9817,804.2491,798.60803,768.7912,0.1217041015625,-0.06439208984375,1.02886962890625,2.011260986328125,-1.502838134765625,2.76641845703125,1,2.0,1.0,1.0,2.0,100.00
2021-04-14 22:14:16.482,0.6287225,0.647897,-0.1412437,1.3237779,0.6111469,0.111040525,-0.5594143,0.17101714,0.47217074,0.1657201,-0.07436245,0.25549698,0.33090627,0.8594458,0.3869797,0.5360705,-0.045803078,0.4064564,-0.23140404,-0.3179908,962.1978,772.01465,817.1429,882.4176,1069.3773,-0.052734375,0.01800537109375,0.99639892578125,8.38897705078125,5.36834716796875,10.250701904296875,1,2.0,1.0,1.0,2.0,100.00
2021-04-14 22:14:16.642,,,,,,,,,,,,,,,,,,,,,,,,,,,,,,,,,,,,,,/muse/elements/blink
2021-04-14 22:14:16.823,,,,,,,,,,,,,,,,,,,,,,,,,,,,,,,,,,,,,,/muse/elements/blink
2021-04-14 22:14:16.991,0.6287225,0.647897,-0.1412437,1.3237779,0.6111469,0.111040525,-0.5594143,0.17101714,0.47217074,0.1657201,-0.07436245,0.25549698,0.33090627,0.8594458,0.3869797,0.5360705,-0.045803078,0.4064564,-0.23140404,-0.3179908,836.08057,833.663,811.50183,832.0513,741.39197,-0.13348388671875,0.00726318359375,0.977294921875,0.545806884765625,2.51220703125,0.2392578125,1,2.0,1.0,1.0,2.0,100.00
2021-04-14 22:14:17.498,0.6287225,0.647897,-0.1412437,1.3237779,0.6111469,0.111040525,-0.5594143,0.17101714,0.47217074,0.1657201,-0.07436245,0.25549698,0.33090627,0.8594458,0.3869797,0.5360705,-0.045803078,0.4064564,-0.23140404,-0.3179908,805.8608,807.47253,809.0842,795.38464,757.1062,-0.132568359375,0.01507568359375,1.00469970703125,2.8411865234375,-5.51788330078125,1.443023681640625,1,2.0,1.0,1.0,2.0,100.00
2021-04-14 22:14:18.007,0.6287225,0.647897,0.3521796,1.3237779,0.6111469,0.111040525,-0.14536712,0.17101714,0.47217074,0.1657201,0.13157107,0.25549698,0.33090627,0.8594458,0.17328525,0.5360705,-0.045803078,0.4064564,-0.22248234,-0.3179908,943.663,815.5311,824.3956,874.35895,825.6044,-0.14263916015625,-0.00164794921875,0.99359130859375,4.044952392578125,-3.2598876953125,-1.6448974609375,1,2.0,1.0,1.0,2.0,100.00
2021-04-14 22:14:18.024,,,,,,,,,,,,,,,,,,,,,,,,,,,,,,,,,,,,,,/muse/elements/blink
2021-04-14 22:14:18.518,1.0756698,0.12010723,0.77458984,1.3237779,0.43329382,0.0848886,0.55066985,0.17101714,-0.02334822,-0.022724196,0.3631076,0.25549698,0.289814,0.7399489,0.23370399,0.5360705,0.19421294,0.108122215,-0.28061113,-0.3179908,823.5897,828.022,819.9634,810.293,713.5897,-0.13177490234375,-0.0089111328125,0.992919921875,4.71038818359375,-4.8150634765625,-1.039276123046875,1,1.0,1.0,1.0,1.0,100.00
2021-04-14 22:14:19.028,1.0756698,0.12010723,0.77458984,1.3237779,0.43329382,0.0848886,0.55066985,0.17101714,-0.02334822,-0.022724196,0.3631076,0.25549698,0.289814,0.7399489,0.23370399,0.5360705,0.19421294,0.108122215,-0.28061113,-0.3179908,695.05493,794.57874,819.15753,777.6557,745.82416,-0.14044189453125,0.00543212890625,0.99920654296875,2.67669677734375,-4.0374755859375,11.2750244140625,1,1.0,1.0,1.0,1.0,100.00
2021-04-14 22:14:19.166,,,,,,,,,,,,,,,,,,,,,,,,,,,,,,,,,,,,,,/muse/elements/blink
2021-04-14 22:14:19.547,1.0756698,0.12010723,0.9846178,1.3237779,0.43329382,0.0848886,0.80561525,0.17101714,-0.02334822,-0.022724196,0.3316554,0.25549698,0.289814,0.7399489,0.28673467,0.5360705,0.19421294,0.108122215,-0.3477404,-0.3179908,701.9048,783.69965,796.99634,759.5238,931.978,-0.1416015625,0.0172119140625,0.9932861328125,4.867401123046875,-4.912261962890625,5.450592041015625,1,1.0,1.0,1.0,1.0,100.00
2021-04-14 22:14:20.058,1.0756698,0.12010723,0.9846178,1.3237779,0.43329382,0.0848886,0.80561525,0.17101714,-0.02334822,-0.022724196,0.3316554,0.25549698,0.289814,0.7399489,0.28673467,0.5360705,0.19421294,0.108122215,-0.3477404,-0.3179908,863.47986,807.8755,806.26373,811.9048,756.30035,-0.14019775390625,0.01116943359375,0.99420166015625,4.852447509765625,-5.0244140625,3.476715087890625,1,1.0,1.0,1.0,1.0,100.00
2021-04-14 22:14:20.581,1.0756698,0.12010723,0.9846178,1.3237779,0.43329382,0.0848886,0.80561525,0.17101714,-0.02334822,-0.022724196,0.3316554,0.25549698,0.289814,0.7399489,0.28673467,0.5360705,0.19421294,0.108122215,-0.3477404,-0.3179908,692.23444,801.8315,801.8315,754.2857,729.304,-0.1351318359375,0.02581787109375,0.9925537109375,5.33843994140625,-4.77020263671875,2.848663330078125,1,1.0,1.0,1.0,1.0,100.00
2021-04-14 22:14:20.663,,,,,,,,,,,,,,,,,,,,,,,,,,,,,,,,,,,,,,/muse/elements/blink
2021-04-14 22:14:21.089,0.5689836,0.71182835,0.26945248,-0.18682984,0.57743573,0.530909,0.3964787,0.3265614,0.68348426,0.24422109,0.36753556,0.8150061,0.4106893,0.7825904,0.43246692,0.67973286,0.03054859,0.57588583,-0.08664571,0.38369468,779.2674,805.8608,817.1429,794.17584,741.39197,-0.15826416015625,0.01751708984375,0.9998779296875,6.063690185546875,-2.4224853515625,2.3626708984375,1,1.0,1.0,1.0,1.0,100.00
2021-04-14 22:14:21.615,0.41220808,0.698624,0.586613,-0.011727841,0.44689986,0.5138994,0.5708937,0.26301315,0.75302637,0.24422109,0.60713375,0.8461756,0.35767528,0.7790854,0.42008632,0.7793218,-0.025525074,0.55010116,-0.07806003,0.2471396,646.7033,818.3516,777.6557,719.2308,705.9341,-0.21575927734375,0.115478515625,0.9781494140625,13.876953125,-0.97198486328125,-8.516082763671875,1,1.0,1.0,1.0,1.0,100.00
2021-04-14 22:14:22.119,0.5072731,0.83586407,0.70599353,0.46932986,0.42737263,0.6479792,0.6458301,0.28800896,0.80821705,0.18137053,0.60248345,0.8887444,0.30480042,0.75691617,0.4112963,0.7948145,-0.06367348,0.43542638,-0.14259367,0.16983739,639.45056,798.20514,804.65204,690.2198,763.1502,-0.2413330078125,0.08514404296875,0.9669189453125,-0.67291259765625,-5.4132080078125,4.373931884765625,1,1.0,1.0,1.0,1.0,100.00
2021-04-14 22:14:22.306,,,,,,,,,,,,,,,,,,,,,,,,,,,,,,,,,,,,,,/muse/elements/blink
2021-04-14 22:14:22.624,0.42392123,0.7613626,0.87280315,0.6261643,0.31579137,0.5537896,0.7737523,0.2719052,0.78126717,0.032181405,0.5544606,0.8425409,0.3170591,0.7499627,0.39687097,0.83779174,-0.10079444,0.32365695,-0.06302099,-0.032269746,830.84247,827.2161,807.8755,830.4396,844.1392,-0.2369384765625,0.05316162109375,0.97906494140625,0.34393310546875,-6.198272705078125,1.742095947265625,1,1.0,1.0,1.0,1.0,100.00
2021-04-14 22:14:23.125,0.67283225,0.7613626,0.92909485,0.88827753,0.4585955,0.5537896,0.85120475,0.38434148,0.7807916,0.032181405,0.5544606,0.6944183,0.36895877,0.7499627,0.41351652,0.7641419,-0.07949026,0.32365695,-0.016492626,0.009826071,645.89746,807.0696,809.0842,732.52747,695.8608,-0.16558837890625,0.02911376953125,0.99627685546875,3.887939453125,-8.217010498046875,-0.426177978515625,1,1.0,1.0,1.0,1.0,100.00
2021-04-14 22:14:23.333,,,,,,,,,,,,,,,,,,,,,,,,,,,,,,,,,,,,,,/muse/elements/blink
2021-04-14 22:14:23.627,0.67283225,0.7613626,0.4893286,0.88827753,0.4585955,0.5537896,0.3877711,0.38434148,0.7807916,0.032181405,0.1978175,0.6944183,0.36895877,0.7499627,0.14735532,0.7641419,-0.07949026,0.32365695,-0.19939655,0.009826071,713.5897,792.1612,771.6117,767.98535,792.5641,-0.11407470703125,0.0198974609375,0.986328125,4.17205810546875,-11.91802978515625,-0.418701171875,1,1.0,1.0,1.0,1.0,100.00
2021-04-14 22:14:23.699,,,,,,,,,,,,,,,,,,,,,,,,,,,,,,,,,,,,,,/muse/elements/blink
2021-04-14 22:14:24.129,0.67283225,0.7613626,0.6602952,0.88827753,0.4585955,0.5537896,0.49614406,0.38434148,0.7807916,0.032181405,0.3968301,0.6944183,0.36895877,0.7499627,0.15630029,0.7641419,-0.07949026,0.32365695,-0.20718937,0.009826071,830.84247,821.5751,807.8755,821.1722,754.2857,0.00714111328125,0.0235595703125,1.0147705078125,4.90478515625,-14.84893798828125,2.041168212890625,1,1.0,1.0,1.0,1.0,100.00
2021-04-14 22:14:24.640,0.67283225,0.7613626,0.6602952,0.88827753,0.4585955,0.5537896,0.49614406,0.38434148,0.7807916,0.032181405,0.3968301,0.6944183,0.36895877,0.7499627,0.15630029,0.7641419,-0.07949026,0.32365695,-0.20718937,0.009826071,926.337,820.3663,820.7692,850.989,776.4469,0.08013916015625,0.0076904296875,1.0050048828125,3.57391357421875,-8.62823486328125,-0.04486083984375,1,1.0,1.0,1.0,1.0,100.00
2021-04-14 22:14:25.144,0.67283225,0.25858057,0.63923895,0.88827753,0.4585955,-0.02778453,0.27302387,0.38434148,0.7807916,0.0028717085,0.33966547,0.6944183,0.36895877,0.7809274,0.28018305,0.7641419,-0.07949026,0.4936765,-0.21065943,0.009826071,691.8315,793.7729,793.7729,733.3333,728.0952,0.09210205078125,0.0166015625,0.99993896484375,4.53094482421875,-4.927215576171875,0.6878662109375,1,2.0,1.0,1.0,2.0,100.00
2021-04-14 22:14:25.622,,,,,,,,,,,,,,,,,,,,,,,,,,,,,,,,,,,,,,/muse/elements/blink
2021-04-14 22:14:25.652,0.62024796,0.19493088,0.18628393,0.58098894,0.39231586,0.12724751,-0.3783089,0.49225435,0.5977236,0.19826488,0.15622316,0.7895859,0.40724197,0.7869483,0.29926586,0.6645449,-0.14453977,0.4629691,-0.07237662,0.29594472,671.685,808.68134,795.38464,733.3333,748.6447,0.0972900390625,0.00592041015625,0.99835205078125,4.942169189453125,-5.390777587890625,2.190704345703125,1,1.0,1.0,1.0,1.0,100.00
2021-04-14 22:14:25.963,,,,,,,,,,,,,,,,,,,,,,,,,,,,,,,,,,,,,,/muse/elements/blink
2021-04-14 22:14:26.158,0.62024796,0.3853525,0.41814286,0.56918466,0.39231586,0.17492105,0.279357,0.46841714,0.5977236,0.3561632,0.45200709,0.7895859,0.40724197,0.7541006,0.26096466,0.64708173,-0.14453977,0.35455897,-0.07017103,0.27890155,927.9487,812.71063,814.3223,869.12085,772.4176,0.09442138671875,0.00994873046875,0.99468994140625,3.96270751953125,-7.095489501953125,2.160797119140625,1,1.0,1.0,1.0,1.0,100.00
2021-04-14 22:14:26.664,0.13181315,0.37826473,0.81747,0.4814332,0.4874785,0.19395964,0.64241314,0.54228204,0.5977236,0.3561632,0.5932418,0.7895859,0.4435521,0.7494887,0.2039178,0.6577346,-0.082072444,0.33556482,-0.08498378,0.30884838,694.2491,733.3333,790.54944,753.47986,1039.5604,0.15386962890625,0.0013427734375,0.99688720703125,4.299163818359375,-9.70489501953125,3.476715087890625,1,1.0,1.0,1.0,1.0,100.00
2021-04-14 22:14:27.021,,,,,,,,,,,,,,,,,,,,,,,,,,,,,,,,,,,,,,/muse/elements/blink
2021-04-14 22:14:27.165,,,,,,,,,,,,,,,,,,,,,,,,,,,,,,,,,,,,,,/muse/elements/blink
2021-04-14 22:14:27.186,0.15788276,0.60014486,0.8337133,0.54886574,0.56063586,0.19706514,0.6714963,0.5325179,0.5714698,0.27420545,0.6010881,0.75206405,0.40714112,0.681915,0.20103796,0.63159937,-0.037067976,0.069673,-0.13124086,0.32523435,684.57874,753.0769,804.65204,743.00366,643.0769,0.165771484375,0.03277587890625,0.99127197265625,5.562744140625,-5.562744140625,6.65435791015625,1,1.0,1.0,1.0,1.0,100.00
2021-04-14 22:14:27.692,0.8467377,0.60014486,0.7789349,0.54886574,0.1555547,0.19706514,0.56634134,0.5325179,0.008153314,0.27420545,0.6030188,0.75206405,0.4428175,0.681915,0.39120707,0.63159937,0.09997534,0.069673,-0.1549487,0.32523435,763.5531,790.54944,788.1319,776.04395,795.38464,0.16796875,0.03131103515625,0.989990234375,4.007568359375,-8.17962646484375,-0.7177734375,1,1.0,1.0,1.0,1.0,100.00
2021-04-14 22:14:28.200,0.89734733,0.60014486,0.33258912,1.1614946,0.22560383,0.19706514,0.2631432,0.9510913,0.26432863,0.27420545,0.25585163,1.1152537,0.42723668,0.681915,0.47121578,0.77985436,0.10637124,0.069673,-0.17583048,0.3139937,853.00366,782.49084,808.68134,811.0989,827.619,0.2608642578125,0.052490234375,0.992431640625,3.237457275390625,-10.235748291015625,3.81317138671875,1,1.0,1.0,1.0,1.0,100.00
2021-04-14 22:14:28.428,,,,,,,,,,,,,,,,,,,,,,,,,,,,,,,,,,,,,,/muse/elements/blink
2021-04-14 22:14:28.729,1.1289247,0.60014486,0.35390142,1.2199272,0.38437808,0.19706514,0.2622865,0.86825144,0.6650729,0.27420545,0.24838494,1.1152537,0.44412246,0.681915,0.45630813,0.74751014,0.15913424,0.069673,-0.2523703,0.26198915,833.663,826.4103,815.12823,806.26373,714.7985,0.29742431640625,0.0433349609375,0.9691162109375,5.914154052734375,-7.559051513671875,-2.415008544921875,1,1.0,1.0,1.0,1.0,100.00
2021-04-14 22:14:29.254,1.3125643,0.60014486,0.46167365,1.247448,0.4644326,0.19706514,0.18830992,0.842685,0.69226325,0.27420545,0.25581512,1.1152537,0.46612462,0.681915,0.3011176,0.7538565,0.19385153,0.069673,-0.34925488,0.24280773,727.28937,784.90845,793.7729,764.35895,807.47253,0.28485107421875,0.04345703125,0.96295166015625,4.044952392578125,-3.551483154296875,-0.246734619140625,1,1.0,1.0,1.0,1.0,100.00
2021-04-14 22:14:29.523,,,,,,,,,,,,,,,,,,,,,,,,,,,,,,,,,,,,,,/muse/elements/blink
2021-04-14 22:14:29.760,1.3266112,0.60014486,0.43256748,1.0016503,0.48633,0.19706514,0.08631326,0.2305985,0.7171071,0.27420545,0.35238367,0.62913066,0.4474385,0.681915,0.24508443,0.55261844,0.1728895,0.069673,-0.40159053,0.09311829,693.44324,823.1868,804.2491,737.76556,679.34064,0.28704833984375,0.01788330078125,0.9593505859375,2.265472412109375,-3.57391357421875,-1.92901611328125,1,1.0,1.0,1.0,1.0,100.00
2021-04-14 22:14:30.281,1.2698523,0.60014486,0.5759934,0.5659467,0.57330513,0.19706514,0.21973859,0.3750754,0.6320335,0.27420545,0.42594552,0.5335677,0.38490543,0.681915,0.3764847,0.46960142,0.021645512,0.069673,-0.39980358,0.13399123,813.91943,814.3223,812.3077,787.72894,776.4469,0.27374267578125,0.0240478515625,0.96099853515625,4.074859619140625,-0.231781005859375,-1.016845703125,1,1.0,1.0,1.0,1.0,100.00
2021-04-14 22:14:30.737,,,,,,,,,,,,,,,,,,,,,,,,,,,,,,,,,,,,,,/muse/elements/blink
2021-04-14 22:14:30.803,1.2045537,0.60014486,0.46525577,0.5474148,0.5763196,0.19706514,0.3327903,0.33176345,0.6194206,0.27420545,0.45454705,0.53743416,0.40185308,0.681915,0.39420563,0.47794637,-0.07831844,0.069673,-0.39366657,0.11700901,955.7509,815.9341,812.3077,883.22345,804.65204,0.20751953125,0.02197265625,0.975341796875,4.448699951171875,-4.089813232421875,-0.485992431640625,1,1.0,1.0,1.0,1.0,100.00
2021-04-14 22:14:31.304,1.2943441,0.72061014,0.7254907,0.662772,0.6749968,0.64810526,0.5956776,0.3843209,0.5643345,0.5853857,0.6795889,0.3609873,0.4378507,0.8831093,0.3927656,0.4720824,-0.19588931,0.31107706,-0.35931203,0.090675406,861.06226,820.3663,820.3663,856.63007,693.0403,0.2445068359375,0.02392578125,0.97381591796875,4.777679443359375,-4.598236083984375,0.485992431640625,1,1.0,1.0,1.0,1.0,100.00
2021-04-14 22:14:31.824,0.9315793,0.63611233,0.76594436,0.48253983,0.3220088,0.59918296,0.7002829,0.029515734,0.3462106,0.5853857,0.6499065,0.074835,0.515372,0.8860898,0.2710017,0.46432298,-0.1831018,0.273709,-0.31990385,-0.02803758,786.9231,807.47253,804.65204,770.0,787.72894,0.24420166015625,0.02813720703125,0.97412109375,5.1739501953125,-6.35528564453125,0.37384033203125,1,1.0,1.0,1.0,1.0,100.00
2021-04-14 22:14:32.055,,,,,,,,,,,,,,,,,,,,,,,,,,,,,,,,,,,,,,/muse/elements/blink
2021-04-14 22:14:32.348,0.0543092,0.40163073,0.8470005,0.2535063,0.17418773,0.5026498,0.6127441,0.08845056,0.37698513,0.5853857,0.6639937,0.38370693,0.5795457,0.9298969,0.29567054,0.42611498,0.2428467,0.194498,-0.34116688,0.16457947,910.6227,813.5165,807.0696,835.2747,759.5238,0.26123046875,0.0294189453125,0.9681396484375,4.725341796875,-5.66741943359375,1.6448974609375,1,1.0,1.0,1.0,1.0,100.00
2021-04-14 22:14:32.853,-0.05928498,0.071711324,0.60515946,0.34494776,0.42375213,0.1452569,0.005052799,0.34978482,0.47886643,0.19349457,0.4050926,0.50433683,0.46926928,0.91268075,0.38840467,0.61436915,0.20912556,0.07540113,-0.38039145,0.092730835,838.9011,812.3077,810.696,791.3553,781.685,0.261962890625,0.02978515625,0.9710693359375,4.77020263671875,-5.12908935546875,1.173858642578125,1,1.0,1.0,1.0,1.0,100.00
2021-04-14 22:14:33.353,,,,,,,,,,,,,,,,,,,,,,,,,,,,,,,,,,,,,,/muse/elements/blink
2021-04-14 22:14:33.387,-0.04227402,0.08037518,0.6549065,0.29270035,0.47587293,0.04425312,0.05862422,0.52389735,0.5074278,0.42733073,0.5000132,0.6008814,0.4569109,0.86140436,0.4113623,0.6021071,0.18248689,0.09316398,-0.33479673,0.049771953,911.8315,804.65204,807.47253,846.1539,778.86444,0.27069091796875,0.03143310546875,0.9649658203125,4.8150634765625,-5.12908935546875,1.936492919921875,1,1.0,1.0,1.0,1.0,100.00
2021-04-14 22:14:33.898,0.33357096,0.23936017,0.62019205,0.28985557,0.53080666,0.1090213,0.0452453,0.6312405,0.40282902,0.45310158,0.51543105,0.63053685,0.36406025,0.77072006,0.38012388,0.62764275,0.2176241,0.2459097,-0.23421246,0.07628803,787.72894,816.337,810.293,813.5165,701.9048,0.2708740234375,0.02545166015625,0.96575927734375,4.5159912109375,-4.66552734375,0.94207763671875,1,1.0,1.0,1.0,1.0,100.00
2021-04-14 22:14:34.398,0.56500876,0.3399948,0.47172207,0.26036727,0.5295362,0.23123978,-0.027309949,0.58423537,0.4061583,0.4874344,0.41593668,0.63008046,0.39800158,0.7073427,0.3687171,0.4939546,0.30225322,0.3341192,-0.14033167,0.11405904,698.2784,811.0989,801.8315,757.9121,700.696,0.26708984375,0.02447509765625,0.96337890625,4.23187255859375,-4.358978271484375,0.814971923828125,1,1.0,1.0,1.0,1.0,100.00
2021-04-14 22:14:34.757,,,,,,,,,,,,,,,,,,,,,,,,,,,,,,,,,,,,,,/muse/elements/blink
2021-04-14 22:14:34.915,0.6344271,0.43804303,0.7438575,0.39133438,0.51695836,0.3674396,0.26294363,0.3955754,0.5207961,0.6585141,0.48694518,0.6586786,0.37447292,0.73492473,0.39476442,0.47232252,0.285299,0.30889755,-0.095247224,0.115685344,729.304,792.5641,809.0842,751.06226,809.0842,0.27386474609375,0.02911376953125,0.96649169921875,4.373931884765625,-5.03936767578125,0.83740234375,1,1.0,1.0,1.0,1.0,100.00
2021-04-14 22:14:35.415,,,,,,,,,,,,,,,,,,,,,,,,,,,,,,,,,,,,,,/muse/elements/blink
2021-04-14 22:14:35.444,0.6028963,0.34489202,1.0695853,0.39573222,0.5390159,0.32686868,0.54240125,0.25992832,0.560059,0.66063833,0.5873821,0.6003531,0.43169692,0.77657634,0.5194829,0.4218591,0.23576848,0.15613641,-0.046748742,0.03995773,916.26373,833.663,817.1429,855.0183,745.42126,0.27716064453125,0.0274658203125,0.9595947265625,4.897308349609375,-4.972076416015625,0.485992431640625,1,1.0,1.0,1.0,1.0,100.00
2021-04-14 22:14:35.910,,,,,,,,,,,,,,,,,,,,,,,,,,,,,,,,,,,,,,/muse/elements/blink
2021-04-14 22:14:35.971,0.49761721,0.31846103,1.1420443,0.4244665,0.5146877,0.40481016,0.6167293,0.2419255,0.55442446,0.75066584,0.66787404,0.53452873,0.4216921,0.8023693,0.49800634,0.48707333,0.019665997,0.21831392,-0.10490643,-0.062905684,940.0366,797.8022,815.12823,877.1795,829.6337,0.28326416015625,0.02294921875,0.96142578125,4.463653564453125,-4.987030029296875,0.418701171875,1,1.0,1.0,1.0,1.0,100.00
2021-04-14 22:14:36.480,0.47544888,0.2989432,0.97344947,0.1700725,0.5408805,0.38978633,0.4677531,0.2215098,0.4769404,0.70903,0.62021667,0.4486295,0.43659085,0.8044091,0.4087189,0.42605546,-0.061174147,0.26563612,-0.1369645,-0.115675196,847.76556,826.0073,814.7253,835.2747,782.49084,0.28515625,0.028564453125,0.9647216796875,4.0673828125,-4.837493896484375,0.934600830078125,1,1.0,1.0,1.0,1.0,100.00
2021-04-14 22:14:36.982,0.47544888,0.4247883,0.5072046,0.1700725,0.5408805,0.29470795,0.20442912,0.2215098,0.4769404,0.7021446,0.59677255,0.4486295,0.43659085,0.79736525,0.27450502,0.42605546,-0.061174147,0.30411384,-0.26102927,-0.115675196,755.09155,789.7436,791.75824,812.3077,732.52747,0.28851318359375,0.02239990234375,0.96514892578125,4.17205810546875,-4.74029541015625,1.024322509765625,1,1.0,1.0,1.0,1.0,100.00
2021-04-14 22:14:37.092,,,,,,,,,,,,,,,,,,,,,,,,,,,,,,,,,,,,,,/muse/elements/blink
2021-04-14 22:14:37.485,0.47544888,0.44957805,0.6971832,0.1700725,0.5408805,-0.049998477,0.53836215,0.2215098,0.4769404,0.15272585,0.47029933,0.4486295,0.43659085,0.769694,0.19179024,0.42605546,-0.061174147,0.15874842,-0.28398988,-0.115675196,710.3663,776.04395,796.5934,757.50916,814.7253,0.29058837890625,0.02520751953125,0.95880126953125,4.717864990234375,-4.957122802734375,1.36077880859375,1,1.0,1.0,1.0,1.0,100.00
2021-04-14 22:14:37.992,0.47544888,0.4469709,0.91096586,0.1700725,0.5408805,-0.039097235,0.6507568,0.2215098,0.4769404,0.14139448,0.41054517,0.4486295,0.43659085,0.76391166,0.068199545,0.42605546,-0.061174147,0.18526734,-0.32242334,-0.115675196,842.52747,817.9487,811.50183,810.696,723.2601,0.28924560546875,0.0225830078125,0.9600830078125,4.366455078125,-5.420684814453125,1.54022216796875,1,2.0,1.0,1.0,2.0,100.00
2021-04-14 22:14:38.417,,,,,,,,,,,,,,,,,,,,,,,,,,,,,,,,,,,,,,/muse/elements/blink
2021-04-14 22:14:38.499,0.47544888,0.3139037,0.96800184,0.1700725,0.5408805,0.03215422,0.65681225,0.2215098,0.4769404,0.39268202,0.26228598,0.4486295,0.43659085,0.7202444,-0.027540036,0.42605546,-0.061174147,0.10726027,-0.19501968,-0.115675196,781.28204,801.4286,803.44324,805.8608,745.0183,0.29449462890625,0.0235595703125,0.96044921875,4.284210205078125,-5.2935791015625,0.538330078125,1,2.0,1.0,1.0,2.0,100.00
2021-04-14 22:14:39.016,-0.029651105,0.61416966,0.8996615,0.1700725,0.25120246,0.4512873,0.46747652,0.2215098,0.5312548,0.6880738,0.19803289,0.4486295,0.53071177,0.77431506,0.13151209,0.42605546,0.44985142,0.12168678,-0.13396056,-0.115675196,691.4286,815.9341,801.4286,735.34796,716.4103,0.29766845703125,0.0269775390625,0.95947265625,4.38140869140625,-4.927215576171875,1.009368896484375,1,1.0,1.0,1.0,1.0,100.00
2021-04-14 22:14:39.519,-0.13447891,0.54615855,0.63806665,0.4251437,0.2295369,0.36837333,0.25956228,-0.044941396,0.55955285,0.6939724,0.19974515,0.29996705,0.43989012,0.7699837,0.19172466,0.37108937,0.30946472,0.13458586,-0.15835533,0.27424788,755.09155,807.8755,796.5934,740.58606,675.31134,0.30078125,0.028564453125,0.95794677734375,4.613189697265625,-4.56085205078125,1.383209228515625,1,1.0,1.0,1.0,1.0,100.00
2021-04-14 22:14:39.971,,,,,,,,,,,,,,,,,,,,,,,,,,,,,,,,,,,,,,/muse/elements/blink
2021-04-14 22:14:40.036,-0.21417466,0.5007388,0.5607961,0.40791494,0.19821817,0.32546088,0.17420577,-0.08283937,0.46598986,0.6939724,0.20949651,0.3003278,0.4625638,0.7859883,0.25595364,0.35711154,0.3195279,0.18756108,-0.23196249,0.25959912,927.1429,787.72894,795.38464,865.09155,834.4689,0.3052978515625,0.0247802734375,0.9541015625,4.613189697265625,-4.7552490234375,0.7476806640625,1,1.0,1.0,1.0,1.0,100.00
2021-04-14 22:14:40.545,-0.27343664,0.18964578,0.63257474,0.2761734,0.16299978,0.018746145,0.4278667,-0.16144533,0.431065,0.16338196,0.2207595,0.20689164,0.4071311,0.7745773,0.26948467,0.35743117,0.08996827,0.18604444,-0.23308066,0.20370169,700.293,802.23444,801.4286,762.74725,703.91943,0.30340576171875,0.02178955078125,0.952880859375,4.366455078125,-5.03936767578125,0.964508056640625,1,1.0,1.0,1.0,1.0,100.00
2021-04-14 22:14:40.680,,,,,,,,,,,,,,,,,,,,,,,,,,,,,,,,,,,,,,/muse/elements/blink
2021-04-14 22:14:41.062,-0.20823187,0.097159885,0.67294973,0.30533808,0.07729793,0.015971472,0.43503833,-0.29185295,0.2269705,0.10336621,0.1643668,0.0053490284,0.5200527,0.73091877,0.3110941,0.4314313,0.17870928,0.26082018,-0.085138164,0.10986754,767.1795,804.2491,809.4872,806.26373,724.0659,0.3114013671875,0.02252197265625,0.95245361328125,4.418792724609375,-4.837493896484375,1.084136962890625,1,1.0,1.0,1.0,1.0,100.00
2021-04-14 22:14:41.574,0.32889873,0.18931358,0.65481883,0.038008336,0.14644025,0.12897043,0.42823586,0.0018498601,0.500909,0.2305028,0.30067313,0.16979782,0.5233643,0.71881497,0.26008785,0.42439216,0.44445065,0.2765255,-0.048129465,0.2131897,684.17584,793.36993,798.60803,747.03296,689.41394,0.310791015625,0.02490234375,0.9498291015625,4.643096923828125,-4.74029541015625,0.6280517578125,1,1.0,1.0,1.0,1.0,100.00
2021-04-14 22:14:42.097,0.087765194,0.12931634,0.14528629,-0.054997377,0.06974115,-0.015311513,-0.12763663,0.22619733,0.59889823,0.23659246,0.37257618,0.4560235,0.49828175,0.67922646,0.1775658,0.48465893,0.25508627,0.43415877,-0.070329964,0.21590886,900.54944,813.1135,811.50183,855.42126,794.17584,0.3092041015625,0.02703857421875,0.95257568359375,4.493560791015625,-4.78515625,0.91217041015625,1,1.0,1.0,1.0,1.0,100.00
2021-04-14 22:14:42.115,,,,,,,,,,,,,,,,,,,,,,,,,,,,,,,,,,,,,,/muse/elements/blink
2021-04-14 22:14:42.613,0.06685617,0.31399682,0.06180414,-0.08710029,0.04970067,0.029033022,-0.14294124,0.24677579,0.59889823,0.2868585,0.37105104,0.48014244,0.50048816,0.70261174,0.19940448,0.46781036,0.23318113,0.49017224,-0.14787348,0.19299284,897.72894,809.89014,797.3993,843.73627,752.674,0.31719970703125,0.0264892578125,0.9583740234375,4.643096923828125,-4.50103759765625,1.03179931640625,1,1.0,1.0,1.0,1.0,100.00
2021-04-14 22:14:42.851,,,,,,,,,,,,,,,,,,,,,,,,,,,,,,,,,,,,,,/muse/elements/blink
2021-04-14 22:14:43.120,-0.30589098,0.6183222,0.3362768,-0.23760046,-0.092457406,0.04831357,0.13346551,0.3842181,0.49969295,0.39335898,0.3125217,0.47032252,0.48781908,0.6373872,0.2556373,0.48826844,-0.045533992,0.5815125,-0.036736663,0.1578156,783.69965,782.8938,809.4872,780.4762,694.2491,0.31573486328125,0.0279541015625,0.9537353515625,4.66552734375,-4.643096923828125,1.83929443359375,1,1.0,1.0,1.0,1.0,100.00
2021-04-14 22:14:43.630,-0.2968383,0.7694447,0.7330482,-0.3167236,-0.15560882,0.15657209,0.24892104,0.4077389,0.4113478,0.32245725,0.5987434,0.45795098,0.4887027,0.60290134,0.24173982,0.46836233,-0.06458841,0.5605694,-0.027859688,0.114314996,909.011,809.0842,810.696,854.21246,831.2454,0.31304931640625,0.02398681640625,0.95281982421875,5.00946044921875,-4.4561767578125,1.951446533203125,1,1.0,1.0,1.0,1.0,100.00
2021-04-14 22:14:44.055,,,,,,,,,,,,,,,,,,,,,,,,,,,,,,,,,,,,,,/muse/elements/blink
2021-04-14 22:14:44.149,1.1352409,0.9409123,0.7880083,0.532237,0.9491691,0.24149041,0.30954105,0.7353571,1.1633595,0.27903187,0.6089461,0.9155184,0.7069135,0.47358367,0.19495709,0.71701324,0.18022318,0.5877056,-0.05755238,0.32060218,675.7143,801.02563,801.02563,735.34796,728.49817,0.3148193359375,0.0223388671875,0.95843505859375,4.598236083984375,-4.44122314453125,1.786956787109375,1,1.0,1.0,1.0,1.0,100.00
2021-04-14 22:14:44.655,0.8920141,-0.29947427,0.7046867,0.5688287,0.87934875,0.15046963,0.1338337,0.7351464,1.2355618,0.49716857,0.60656166,0.9155184,0.7127782,0.7150018,0.14319532,0.7381876,0.14445844,0.07348448,-0.25085405,0.17473143,728.49817,789.34064,798.20514,793.36993,750.2564,0.3077392578125,0.02044677734375,0.95440673828125,4.90478515625,-4.478607177734375,3.401947021484375,1,1.0,1.0,1.0,1.0,100.00
2021-04-14 22:14:45.161,0.46787906,-0.15744112,0.31875962,0.47661293,0.70251787,0.07995697,-0.028195726,0.6842173,1.1552017,0.5027473,0.3001516,0.6488192,0.69025093,0.7362669,0.1128022,0.69364697,0.16341883,0.13938186,-0.23962511,0.06684317,859.45056,798.20514,820.7692,809.89014,896.9231,0.3173828125,0.01910400390625,0.95709228515625,4.717864990234375,-5.443115234375,1.293487548828125,1,1.0,1.0,1.0,1.0,100.00
2021-04-14 22:14:45.352,,,,,,,,,,,,,,,,,,,,,,,,,,,,,,,,,,,,,,/muse/elements/blink
2021-04-14 22:14:45.585,,,,,,,,,,,,,,,,,,,,,,,,,,,,,,,,,,,,,,/muse/elements/blink
2021-04-14 22:14:45.676,0.50332344,0.07428686,-0.04325858,0.63065064,0.71642786,0.025794204,-0.3621173,0.60252,1.0906274,0.5239029,0.12734693,0.6883845,0.65820473,0.77077675,0.17170356,0.64991856,0.14637096,0.17156361,-0.24265091,-0.05126744,888.0586,842.9304,824.7985,844.1392,771.6117,0.3154296875,0.03253173828125,0.966796875,5.360870361328125,0.695343017578125,1.1663818359375,1,1.0,1.0,1.0,1.0,100.00
2021-04-14 22:14:46.191,0.8015535,0.18438795,0.009000154,0.67151874,0.8060331,-0.053176515,-0.26410446,0.57202023,0.9482175,0.4574059,0.3000255,0.6883845,0.6213602,0.7961895,0.28980643,0.58248365,0.1432744,0.21338065,-0.0869453,-0.03099317,761.13556,807.47253,812.3077,808.68134,729.707,0.2342529296875,0.05987548828125,0.99951171875,3.94775390625,9.293670654296875,1.443023681640625,1,1.0,1.0,1.0,1.0,100.00
2021-04-14 22:14:46.716,0.8916707,0.39316973,-0.022441152,0.89490956,0.8313686,0.16594815,-0.16378088,0.5575827,0.87899137,0.51878387,0.29514217,0.5822371,0.57889116,0.80371207,0.34081477,0.5077377,0.05422305,0.2742362,-0.016852332,0.1877819,681.3553,793.36993,802.6374,740.989,734.94507,0.0113525390625,-0.0015869140625,1.001220703125,4.35150146484375,4.134674072265625,-0.59814453125,1,1.0,1.0,1.0,1.0,100.00
2021-04-14 22:14:47.244,0.93902755,0.39647883,-0.016387872,1.0947788,0.7265753,0.13821562,-0.14043538,0.5854122,0.552509,0.5034807,0.29668966,0.4671109,0.49577582,0.74860746,0.31790122,0.48662353,0.060503144,0.4242929,0.045344003,0.23888443,803.0403,829.2308,816.7399,803.0403,727.6923,-0.02789306640625,-0.02239990234375,1.0030517578125,4.42626953125,-2.026214599609375,1.876678466796875,1,1.0,1.0,1.0,1.0,100.00
2021-04-14 22:14:47.747,0.88119113,0.4341608,-0.15285301,0.9862295,0.4713984,0.12831725,-0.20367703,0.5146217,0.66067165,0.5100195,0.38231194,0.456196,0.4218206,0.7373211,0.330717,0.47941282,0.052093793,0.37017295,-0.03681065,0.15033832,933.1868,805.8608,806.6667,858.6447,814.7253,-0.08306884765625,-0.023193359375,0.99664306640625,7.5067138671875,0.88226318359375,0.829925537109375,1,1.0,1.0,1.0,1.0,100.00
2021-04-14 22:14:48.259,0.8843577,0.43779165,-0.4108515,0.84768915,0.427037,-0.0077225296,-0.33270046,0.47703743,0.6693854,0.33997223,0.32044348,0.42103958,0.347108,0.73667496,0.36621732,0.48501298,0.08290209,0.30142343,-0.15120535,-0.0046912883,870.32965,803.44324,817.1429,830.0366,695.8608,-0.09832763671875,0.02215576171875,0.999267578125,3.69354248046875,-2.863616943359375,3.66363525390625,1,1.0,1.0,1.0,1.0,100.00
2021-04-14 22:14:48.774,0.7931256,0.627074,0.010649271,0.5776706,0.50169736,0.18746664,0.02695233,0.38765275,0.672152,0.51475525,0.35187715,0.56453085,0.30727756,0.71221846,0.406491,0.469699,0.034933414,0.17538778,-0.23756124,0.08315203,776.04395,820.7692,803.44324,777.25275,720.84247,-0.11456298828125,0.01995849609375,0.9931640625,10.88623046875,-5.674896240234375,-0.321502685546875,1,1.0,1.0,1.0,1.0,100.00
2021-04-14 22:14:49.148,,,,,,,,,,,,,,,,,,,,,,,,,,,,,,,,,,,,,,/muse/elements/blink
2021-04-14 22:14:49.283,0.76232177,0.7129605,0.60858387,0.987888,0.70876354,0.2761125,0.25704283,0.56165516,0.742227,0.5012899,0.35290623,0.7573528,0.25344932,0.67832905,0.32689273,0.41807595,-0.005078982,0.28426808,-0.16933113,0.20528668,680.54944,794.57874,806.26373,729.304,725.6777,-0.1094970703125,0.0267333984375,1.00445556640625,0.83740234375,-5.301055908203125,1.652374267578125,1,1.0,1.0,1.0,1.0,100.00
2021-04-14 22:14:49.636,,,,,,,,,,,,,,,,,,,,,,,,,,,,,,,,,,,,,,/muse/elements/blink
2021-04-14 22:14:49.796,0.8352564,0.6775273,0.753116,1.1512083,0.8180343,0.32075942,0.40656328,0.7821587,0.7562535,0.46501058,0.35163927,0.8086399,0.2226154,0.59363246,0.30742398,0.36740723,-0.059294213,0.3829522,-0.122801565,0.26227257,810.293,809.4872,826.0073,790.9524,682.1612,-0.1075439453125,0.0133056640625,0.9915771484375,3.386993408203125,-2.743988037109375,1.876678466796875,1,1.0,1.0,1.0,1.0,100.00
2021-04-14 22:14:50.323,0.9059851,0.5023577,0.91516745,1.297646,0.9110124,0.24259093,0.38243526,0.94166374,0.7562535,0.3423954,0.32580027,0.8086399,0.24703203,0.53540754,0.21263036,0.34435335,-0.05365247,0.45830238,-0.1500318,0.23652971,937.619,792.1612,823.1868,866.30035,830.84247,-0.09832763671875,0.01580810546875,1.0009765625,3.87298583984375,-9.233856201171875,0.95703125,1,1.0,1.0,1.0,1.0,100.00
2021-04-14 22:14:50.448,,,,,,,,,,,,,,,,,,,,,,,,,,,,,,,,,,,,,,/muse/elements/blink
2021-04-14 22:14:50.848,0.9796064,0.30098537,1.072184,1.2790974,0.90278375,0.16874406,0.5321639,1.0793251,0.7543281,0.010531218,0.24665117,0.7789602,0.21595247,0.50248766,0.21911097,0.34015048,-0.08919352,0.43398213,-0.2851887,0.14603402,837.28937,805.4579,804.65204,838.49817,699.4872,-0.0123291015625,0.0064697265625,1.00799560546875,3.551483154296875,-9.67498779296875,2.489776611328125,1,1.0,1.0,1.0,1.0,100.00
2021-04-14 22:14:51.361,0.9796064,0.36286616,1.1002593,1.2790974,0.90278375,0.1150218,0.46421117,1.0793251,0.7543281,-0.2834699,0.30180544,0.7789602,0.21595247,0.48053724,0.1543891,0.34015048,-0.08919352,0.4610271,-0.22732145,0.14603402,694.2491,807.47253,785.31134,761.13556,682.1612,-0.02587890625,0.00152587890625,1.00189208984375,4.747772216796875,-1.263580322265625,1.667327880859375,1,1.0,1.0,1.0,1.0,100.00
2021-04-14 22:14:51.740,,,,,,,,,,,,,,,,,,,,,,,,,,,,,,,,,,,,,,/muse/elements/blink
2021-04-14 22:14:51.885,0.9796064,-0.0400676,1.0368341,1.2790974,0.90278375,-0.36960593,0.3576785,1.0793251,0.7543281,-0.15989153,0.3049707,0.7789602,0.21595247,0.682169,0.046730943,0.34015048,-0.08919352,0.04634931,-0.22669682,0.14603402,707.5458,780.87915,786.1172,754.2857,945.2747,-0.03094482421875,0.0263671875,1.00457763671875,6.3702392578125,-6.47491455078125,0.052337646484375,1,1.0,1.0,1.0,1.0,100.00
2021-04-14 22:14:52.388,1.2224609,0.3702326,0.66980773,1.345154,1.0712035,0.04796755,-0.06473006,1.3105794,1.1180243,0.1688893,0.4591969,1.1102613,0.26087096,0.73208505,0.19554003,0.63701546,0.063368395,0.15325257,-0.17537978,0.20946711,846.55676,815.9341,813.91943,807.8755,803.8461,0.0069580078125,0.01385498046875,1.00030517578125,2.729034423828125,-5.27862548828125,-1.218719482421875,1,1.0,1.0,1.0,1.0,100.00
2021-04-14 22:14:52.897,1.0924819,0.30474895,0.43964124,1.0989866,0.94232124,-0.023894344,-0.123253815,1.0706526,1.1218512,0.3200855,0.42641082,1.112783,0.32691276,0.6938951,0.26364258,0.57208455,0.12080366,0.20276922,-0.19537492,0.26364976,921.9048,815.12823,805.4579,848.5714,698.2784,0.00653076171875,-0.004638671875,1.0032958984375,4.725341796875,-7.01324462890625,-3.768310546875,1,1.0,1.0,1.0,1.0,100.00
2021-04-14 22:14:53.408,0.8408296,0.28789383,0.16838369,0.95575076,0.74310356,-0.025991263,-0.045737945,0.9222817,1.1077397,0.3190497,0.39776582,1.112783,0.3351679,0.68091667,0.30847457,0.5301095,0.15929163,0.2989276,-0.178246,0.20085458,808.68134,776.4469,788.1319,836.8865,1004.5055,0.0184326171875,-0.00238037109375,0.990966796875,4.2767333984375,-4.65057373046875,-1.24114990234375,1,1.0,1.0,1.0,1.0,100.00
2021-04-14 22:14:53.921,0.43164185,0.01650802,-1.03028644E-4,0.5207273,0.3970527,-0.36562404,0.057670966,0.5186577,0.6736382,0.22698002,0.2954002,0.72812766,0.3427175,0.65070146,0.21901251,0.48416713,0.13915554,0.28994283,-0.210895,0.2227395,832.8571,811.50183,811.50183,799.41394,786.9231,0.0601806640625,0.00347900390625,1.02166748046875,8.336639404296875,-11.484375,1.9439697265625,1,1.0,1.0,1.0,1.0,100.00
2021-04-14 22:14:54.306,,,,,,,,,,,,,,,,,,,,,,,,,,,,,,,,,,,,,,/muse/elements/blink
2021-04-14 22:14:54.437,0.27119592,-0.10195972,-0.013806493,0.42055544,0.40690818,-0.43515584,0.060717516,0.46046287,0.682664,0.06564023,0.024201876,0.6749695,0.33923456,0.6119599,0.15875514,0.39560312,0.046895705,0.25502375,-0.28111184,0.15242022,911.02563,802.6374,808.2784,850.58606,763.1502,0.140625,-0.00982666015625,1.00390625,3.461761474609375,-8.433837890625,-0.800018310546875,1,1.0,1.0,1.0,1.0,100.00
2021-04-14 22:14:54.941,0.6257271,0.122838825,-0.0017186812,0.6076098,0.4546755,-0.5454699,0.049012396,0.58280206,0.62802124,0.34042868,0.008485222,0.65710664,0.35851032,0.6113619,0.16820212,0.36558256,-0.077868454,0.27084112,-0.23002954,0.19427797,892.8938,823.1868,804.2491,822.7839,782.0879,0.18438720703125,0.088134765625,1.01055908203125,9.45068359375,-0.43365478515625,-17.36114501953125,1,1.0,1.0,1.0,1.0,100.00
2021-04-14 22:14:55.384,,,,,,,,,,,,,,,,,,,,,,,,,,,,,,,,,,,,,,/muse/elements/blink
2021-04-14 22:14:55.449,0.77718353,0.19969454,0.57915133,0.69030136,0.47378197,-0.5504061,0.037681054,0.5406035,0.5451953,0.34042868,-0.073301554,0.49049383,0.38235366,0.5831129,0.27021047,0.28196296,-0.1398464,0.31676623,-0.2110821,0.17748733,902.5641,823.1868,817.9487,836.8865,671.28204,0.013671875,0.076904296875,1.01080322265625,3.7982177734375,6.80389404296875,-4.88983154296875,1,1.0,1.0,1.0,1.0,100.00
2021-04-14 22:14:55.636,,,,,,,,,,,,,,,,,,,,,,,,,,,,,,,,,,,,,,/muse/elements/blink
2021-04-14 22:14:55.968,0.9651504,0.3467769,0.83556867,0.8032578,0.44054028,-0.6020417,0.19599088,0.62050325,0.15656789,0.30901772,0.20880492,0.14521366,0.40850085,0.59557706,0.2570722,0.37286484,-0.10469713,0.31576857,-0.21460566,0.16422735,707.5458,788.5348,810.696,761.53845,726.8865,-0.0985107421875,0.04083251953125,0.9932861328125,3.372039794921875,-3.63372802734375,11.626434326171875,1,1.0,1.0,1.0,1.0,100.00
2021-04-14 22:14:56.492,0.9651504,0.39537102,0.9959755,1.4942043,0.44054028,-0.56178635,0.31098893,1.3646455,0.15656789,0.30120593,0.20880492,0.5369136,0.40850085,0.5696037,0.29161143,0.5118501,-0.10469713,0.25109428,-0.24501052,0.08692675,853.8095,804.65204,804.2491,812.71063,783.69965,0.05303955078125,0.02471923828125,1.0015869140625,1.55517578125,-13.734893798828125,9.832000732421875,1,1.0,1.0,1.0,1.0,100.00
2021-04-14 22:14:56.995,1.388818,0.39537102,0.8189903,1.2922187,1.3013182,-0.56178635,0.24553874,1.075015,0.8558083,0.30120593,0.35689384,0.5810222,0.5114455,0.5696037,0.1816064,0.4479871,0.1930458,0.25109428,-0.09488515,0.11441972,794.57874,816.7399,814.3223,813.1135,745.82416,0.12408447265625,-0.0068359375,0.998046875,3.940277099609375,-13.38348388671875,10.803985595703125,1,1.0,1.0,1.0,1.0,100.00
2021-04-14 22:14:57.514,1.158139,0.34677026,0.3815067,1.1447301,1.0144492,-0.050726354,0.0011193443,0.9236078,0.8633143,0.2642317,0.3148292,0.6342064,0.5304414,0.5996647,0.21428618,0.4633547,0.22474699,0.31617713,-0.05247954,0.16583142,942.0513,812.71063,811.9048,866.30035,763.95605,0.209228515625,0.005126953125,0.981201171875,5.21881103515625,-9.802093505859375,0.949554443359375,1,1.0,1.0,1.0,1.0,100.00
2021-04-14 22:14:58.017,0.7291777,0.50955397,0.3137183,0.7207853,0.50711125,0.13969786,0.004398247,0.3164622,0.8453884,0.4831849,0.45478377,0.6950141,0.57960933,0.6012743,0.23000526,0.4732293,0.26468962,0.33934787,-0.09434626,0.24555407,647.50916,803.0403,808.68134,724.87177,725.6777,0.25982666015625,0.03033447265625,0.9786376953125,5.63751220703125,-7.484283447265625,0.650482177734375,1,1.0,1.0,1.0,1.0,100.00
2021-04-14 22:14:58.066,,,,,,,,,,,,,,,,,,,,,,,,,,,,,,,,,,,,,,/muse/elements/blink
2021-04-14 22:14:58.524,0.6766587,0.4741795,0.19256032,0.32892445,0.46484184,0.268718,0.04231889,0.24592078,0.7416281,0.48909727,0.5345454,0.66992456,0.59743637,0.6192713,0.22482313,0.42068368,0.25257465,0.41651535,-0.09199386,0.27211794,770.0,819.9634,805.8608,778.0586,741.39197,0.27655029296875,0.01885986328125,0.96820068359375,3.66363525390625,-5.809478759765625,-0.04486083984375,1,1.0,1.0,1.0,1.0,100.00
2021-04-14 22:14:59.036,0.5280085,0.3547627,0.17129977,0.3159774,0.4019042,0.36812347,0.012758693,0.14466037,0.6229532,0.46474287,0.5545498,0.6677224,0.60523266,0.5936794,0.21390598,0.36093906,0.30738282,0.3854594,-0.048138734,0.25490603,940.0366,806.6667,806.26373,877.98535,848.5714,0.26751708984375,0.01708984375,0.96063232421875,5.084228515625,-5.256195068359375,0.76263427734375,1,1.0,1.0,1.0,1.0,100.00
2021-04-14 22:14:59.280,,,,,,,,,,,,,,,,,,,,,,,,,,,,,,,,,,,,,,/muse/elements/blink
2021-04-14 22:14:59.547,0.7744535,0.04842644,0.31406263,0.59711164,0.59469104,0.26117477,-0.030617567,0.26805472,0.65509903,0.55934787,0.55041885,0.54294,0.5763806,0.6087517,0.24209379,0.3221037,0.2922734,0.38173565,-0.044438507,0.17463678,875.16486,823.9927,811.50183,833.2601,777.6557,0.27569580078125,0.01800537109375,0.96343994140625,4.418792724609375,-5.33843994140625,0.829925537109375,1,1.0,1.0,1.0,1.0,100.00
2021-04-14 22:14:59.752,,,,,,,,,,,,,,,,,,,,,,,,,,,,,,,,,,,,,,/muse/elements/blink
2021-04-14 22:15:00.064,0.9044002,0.020760426,0.63226706,0.7373769,0.6775516,0.13110787,0.21757212,0.25811243,0.6061205,0.43303248,0.35720402,0.47542676,0.54656744,0.5833324,0.26306695,0.3860496,0.32390723,0.4134161,-0.06072118,0.14404368,731.7216,809.89014,811.0989,782.0879,705.9341,0.2891845703125,0.0205078125,0.9625244140625,4.306640625,-4.867401123046875,0.64300537109375,1,1.0,1.0,1.0,1.0,100.00
2021-04-14 22:15:00.573,1.110052,0.13108487,0.75888973,0.86424404,0.8775951,-0.02257202,0.3425687,0.42042866,0.5798735,0.4183929,0.29776147,0.4353162,0.52519196,0.6070781,0.2883084,0.44598433,0.25200775,0.49404502,-0.09781954,0.095290154,647.9121,785.31134,786.1172,705.12823,888.46155,0.28631591796875,-4.8828125E-4,0.96807861328125,-0.097198486328125,-4.32159423828125,-1.009368896484375,1,1.0,1.0,1.0,1.0,100.00
2021-04-14 22:15:00.610,,,,,,,,,,,,,,,,,,,,,,,,,,,,,,,,,,,,,,/muse/elements/blink
2021-04-14 22:15:01.102,1.0788215,0.12985098,0.7429888,0.8467389,0.89837974,-0.0749033,0.45880425,0.4365294,0.549793,0.07505009,0.13787416,0.39763695,0.52931803,0.61505187,0.20706479,0.45313016,0.25200117,0.48957103,-0.090888135,0.1014824,807.47253,814.3223,805.8608,793.7729,684.57874,0.2364501953125,-0.049560546875,0.9630126953125,-0.16448974609375,-3.880462646484375,-4.074859619140625,1,1.0,1.0,1.0,1.0,100.00
2021-04-14 22:15:01.608,0.43629718,-0.14589144,0.93034786,1.1786917,0.77130556,-0.23060192,0.5018322,0.7618056,0.4951352,-0.2233648,0.43481225,0.7544439,0.3528944,0.6626712,0.23914297,0.71285826,0.100364745,0.29876593,-0.21107943,0.12029426,956.1539,796.5934,806.26373,874.35895,769.19415,0.2525634765625,-0.06494140625,0.96435546875,3.072967529296875,-5.884246826171875,-3.09539794921875,1,1.0,1.0,1.0,1.0,100.00
2021-04-14 22:15:01.984,,,,,,,,,,,,,,,,,,,,,,,,,,,,,,,,,,,,,,/muse/elements/blink
2021-04-14 22:15:02.138,0.3806763,-0.14589144,0.8232392,1.2163119,0.63976383,-0.23060192,0.38873893,0.7381285,0.5681232,-0.2233648,0.4355512,0.7544439,0.37307566,0.6626712,0.28164604,0.71908194,0.046588596,0.29876593,-0.17609063,0.12142787,894.90845,814.3223,800.6227,841.7216,816.7399,0.27740478515625,-0.05670166015625,0.96795654296875,3.72344970703125,-4.972076416015625,1.00189208984375,1,1.0,1.0,1.0,1.0,100.00
2021-04-14 22:15:02.640,0.3515877,0.36769307,0.79388094,1.2073106,0.5382508,-0.19378284,0.34598055,0.7138996,0.59007734,-0.12432706,0.4355512,0.76392275,0.34107885,0.528675,0.32223964,0.6906565,0.0062361406,0.18460722,-0.14579046,0.16369702,696.6667,811.50183,802.6374,756.30035,603.5897,0.2584228515625,-0.0616455078125,0.968505859375,3.51409912109375,-2.2430419921875,1.1962890625,1,1.0,1.0,1.0,1.0,100.00
2021-04-14 22:15:03.122,,,,,,,,,,,,,,,,,,,,,,,,,,,,,,,,,,,,,,/muse/elements/blink
2021-04-14 22:15:03.149,0.3451706,0.64610666,0.21433105,0.7470311,0.26998946,-0.1981961,0.061429184,0.12232626,0.4422939,-0.038204983,0.4185674,0.5460971,0.35428238,0.5232637,0.32030097,0.5323533,-0.04528909,0.2236972,-0.14304952,0.21111424,611.2454,743.8095,849.3773,717.619,721.2454,0.2384033203125,-0.0684814453125,0.9678955078125,4.007568359375,-2.848663330078125,1.069183349609375,1,1.0,1.0,1.0,1.0,100.00
2021-04-14 22:15:03.659,0.36698896,0.64610666,0.09647299,0.29065114,0.17657144,-0.1981961,0.13006356,0.01830797,0.39703125,-0.038204983,0.40759388,0.47628364,0.3291726,0.5232637,0.29239976,0.47747967,-0.05508645,0.2236972,-0.17832963,0.22322132,844.1392,803.8461,804.2491,838.0952,803.44324,0.22259521484375,-0.0660400390625,0.96820068359375,5.18890380859375,-3.267364501953125,2.848663330078125,1,1.0,1.0,1.0,1.0,100.00
2021-04-14 22:15:04.170,0.4559419,0.82176155,0.15813166,0.2910699,0.093832985,-0.16808453,0.17639904,0.040929824,0.27996185,-0.06480516,0.3887641,0.4744642,0.33974853,0.52440625,0.28112212,0.49296433,-0.036143996,0.27507526,-0.21833989,0.23677896,720.0366,826.8132,801.02563,752.27106,708.7546,0.2430419921875,-0.04754638671875,0.97235107421875,5.39825439453125,-6.89361572265625,-0.456085205078125,1,1.0,1.0,1.0,1.0,100.00
2021-04-14 22:15:04.362,,,,,,,,,,,,,,,,,,,,,,,,,,,,,,,,,,,,,,/muse/elements/blink
2021-04-14 22:15:04.684,0.8150024,-0.19853051,0.5361478,1.0930055,0.84315145,0.003060842,0.22915989,0.87861633,0.74913454,-0.123862885,0.3765324,0.88214856,0.40950003,0.40848985,0.3069078,0.4726762,0.1746761,0.40202677,-0.24151856,0.26043907,852.1978,808.2784,812.71063,845.7509,788.1319,0.24200439453125,-0.03900146484375,0.969482421875,5.7421875,-3.147735595703125,3.33465576171875,1,1.0,1.0,1.0,1.0,100.00
2021-04-14 22:15:05.197,0.6921731,-0.03249258,0.35741448,0.9629911,0.66445476,-0.06806109,0.09866539,0.70294,0.74913454,-0.11036488,0.3145028,0.88214856,0.43747178,0.38048053,0.39810514,0.51874053,0.18888639,0.35556707,-0.06986851,0.2802659,775.64105,809.0842,807.47253,776.8498,857.8388,0.24847412109375,-0.04461669921875,0.9749755859375,4.8150634765625,-4.68048095703125,1.8841552734375,1,1.0,1.0,1.0,1.0,100.00
2021-04-14 22:15:05.582,,,,,,,,,,,,,,,,,,,,,,,,,,,,,,,,,,,,,,/muse/elements/blink
2021-04-14 22:15:05.699,0.65638304,0.18102407,0.24243699,0.83424085,0.5845791,-0.001430109,0.005941471,0.58519477,0.74913454,0.09138565,0.3173282,0.88214856,0.47679693,0.50655067,0.34626216,0.5349875,0.20685813,0.2694033,-0.11363482,0.29581732,938.8278,797.8022,812.71063,867.9121,811.50183,0.24151611328125,-0.038818359375,0.97454833984375,5.5328369140625,-6.422576904296875,5.323486328125,1,1.0,1.0,1.0,1.0,100.00
2021-04-14 22:15:06.206,0.668883,0.35602993,0.48375285,0.6712407,0.70404136,0.1840048,0.20898837,0.5168285,0.814828,0.299807,0.48875645,0.609937,0.5450385,0.56948984,0.29730433,0.6344937,0.27185324,0.18986373,-0.077503584,0.30754623,892.0879,804.65204,815.5311,839.707,850.58606,0.247802734375,-0.0302734375,0.97540283203125,6.20574951171875,-4.478607177734375,2.58697509765625,1,1.0,1.0,1.0,1.0,100.00
2021-04-14 22:15:06.709,0.64800364,0.4857502,0.69746715,0.554787,0.8060925,0.32117715,0.36661282,0.5817926,0.89335346,0.29670402,0.48857018,0.73444116,0.65658885,0.6755739,0.23752251,0.656934,0.35384917,0.07220183,-0.07559092,0.33121672,706.7399,803.8461,804.2491,749.45056,651.9414,0.28045654296875,-0.0263671875,0.9908447265625,2.6318359375,-3.357086181640625,4.844970703125,1,1.0,1.0,1.0,1.0,100.00
2021-04-14 22:15:06.880,,,,,,,,,,,,,,,,,,,,,,,,,,,,,,,,,,,,,,/muse/elements/blink
2021-04-14 22:15:07.223,0.81758547,0.28346378,0.7314451,0.7007016,0.9376468,0.3017563,0.38238108,0.7269312,0.89335346,0.37146166,0.48857018,0.74754524,0.6430082,0.6730612,0.30625567,0.601761,0.37439767,0.0545222,-6.603854E-4,0.33188993,672.0879,781.28204,796.5934,738.97437,679.34064,0.208740234375,-0.08074951171875,0.969970703125,2.88604736328125,-0.67291259765625,2.392578125,1,1.0,1.0,1.0,1.0,100.00
2021-04-14 22:15:07.748,0.7458823,0.02182401,0.6096479,0.82923293,0.8054187,0.13191031,0.2748827,0.65402,0.7823153,0.05061374,0.47234508,0.90347683,0.6166556,0.62178326,0.39048296,0.47917354,0.34197393,0.050372135,-0.014191409,0.32623786,877.98535,814.7253,819.5604,859.45056,796.99634,0.19659423828125,-0.09307861328125,0.98016357421875,3.850555419921875,-4.44122314453125,-0.1495361328125,1,1.0,1.0,1.0,1.0,100.00
2021-04-14 22:15:08.215,,,,,,,,,,,,,,,,,,,,,,,,,,,,,,,,,,,,,,/muse/elements/blink
2021-04-14 22:15:08.276,0.9734651,0.15755534,0.4284939,1.033098,0.8295417,0.1449215,0.1517367,0.754513,0.81613916,0.06475374,0.47252882,1.0546129,0.5551789,0.6186624,0.42732826,0.4858758,0.28735587,0.12009035,-0.058728047,0.3070049,950.10986,825.6044,823.5897,873.95605,729.707,0.17041015625,-0.09747314453125,0.990966796875,6.08612060546875,-2.355194091796875,1.996307373046875,1,1.0,1.0,1.0,1.0,100.00
2021-04-14 22:15:08.781,0.952537,0.2605024,0.39792907,1.1786056,0.7302912,0.09157712,0.1547655,0.7331082,0.81613916,0.26946425,0.4643409,1.0573562,0.590317,0.57761186,0.38249156,0.5499151,0.27242368,0.12897557,-0.16283777,0.29442206,857.4359,802.23444,805.8608,850.989,811.9048,0.14190673828125,-0.0810546875,0.98590087890625,6.347808837890625,-0.73272705078125,0.61309814453125,1,1.0,1.0,1.0,1.0,100.00
2021-04-14 22:15:09.289,1.0566581,0.25672182,0.2363431,1.1312839,0.8249582,-0.07359943,0.075605005,0.8974711,0.7742417,0.26675144,0.4616051,1.0824488,0.5519879,0.5555521,0.30644467,0.525482,0.20732364,0.19506018,-0.1672769,0.20388183,685.78754,804.2491,793.7729,741.39197,687.8022,0.09735107421875,0.00115966796875,0.9896240234375,7.07305908203125,-0.904693603515625,-7.245025634765625,1,1.0,1.0,1.0,1.0,100.00
2021-04-14 22:15:09.402,,,,,,,,,,,,,,,,,,,,,,,,,,,,,,,,,,,,,,/muse/elements/blink
2021-04-14 22:15:09.798,1.3732473,0.2544946,0.06898455,1.2569044,0.9970573,-0.24141972,0.06394717,0.9453321,0.7374392,0.23396611,0.24090177,0.91951203,0.35202202,0.5168192,0.2583635,0.39260027,0.11650204,0.21722293,-0.17383051,0.1726867,676.9231,786.52014,801.8315,738.1685,817.9487,0.10736083984375,-0.0179443359375,0.990478515625,6.878662109375,-6.048736572265625,3.2000732421875,1,1.0,1.0,1.0,1.0,100.00
2021-04-14 22:15:10.300,1.0635531,0.26864377,0.16052352,1.1159209,0.9060103,-0.26053962,0.06317981,0.96829146,0.6585476,0.27294445,0.2100793,0.874022,0.4721339,0.53461677,0.23766448,0.5585408,0.016505789,0.3121223,-0.09392265,0.15884575,843.3333,807.0696,803.8461,826.8132,879.59705,0.13494873046875,0.02349853515625,0.9935302734375,4.493560791015625,-4.3963623046875,-2.370147705078125,1,1.0,1.0,1.0,1.0,100.00
2021-04-14 22:15:10.633,,,,,,,,,,,,,,,,,,,,,,,,,,,,,,,,,,,,,,/muse/elements/blink
2021-04-14 22:15:10.827,0.94153374,0.34480163,0.37536645,1.045647,0.7792936,-0.09879595,0.10288669,0.83116555,0.6685826,0.37237918,0.20294358,0.8767348,0.46129122,0.5348378,0.18931168,0.66889924,0.06939718,0.2637376,-0.1614424,0.16641991,718.022,792.96704,805.8608,758.71796,751.06226,0.13922119140625,-3.0517578125E-4,0.99261474609375,4.134674072265625,-4.762725830078125,-1.203765869140625,1,1.0,1.0,1.0,1.0,100.00
2021-04-14 22:15:11.331,0.51708716,0.26334292,0.34324884,0.64016,0.58947027,0.10349661,0.086570024,0.7390413,0.5449981,0.36209875,0.10068874,0.78143525,0.4478045,0.55267525,0.20510787,0.65350294,0.085151955,0.24296197,-0.24100408,0.43624175,873.5531,806.6667,812.3077,842.1245,977.1062,0.13720703125,-0.0015869140625,0.98809814453125,4.538421630859375,-3.401947021484375,2.7813720703125,1,1.0,1.0,1.0,1.0,100.00
2021-04-14 22:15:11.472,,,,,,,,,,,,,,,,,,,,,,,,,,,,,,,,,,,,,,/muse/elements/blink
2021-04-14 22:15:11.842,0.3040377,0.24535798,0.27755556,0.5623396,0.30888256,0.21212319,0.14496733,0.8200855,0.3543273,0.37855825,0.094366826,0.7516273,0.34122592,0.6068507,0.23760995,0.60025626,0.11747132,0.2082458,-0.37471542,0.5480119,683.36993,811.0989,805.8608,747.8388,646.7033,0.14178466796875,0.00286865234375,0.9976806640625,3.925323486328125,-5.87677001953125,1.443023681640625,1,1.0,1.0,1.0,1.0,100.00
2021-04-14 22:15:12.357,0.19307028,0.1451405,0.06758552,0.5586673,0.116775334,0.11589387,0.21376924,0.8343021,0.36915377,0.337046,0.15848376,0.6267833,0.47674286,0.6381888,0.28353274,0.4758338,0.14648278,0.26769832,-0.36094776,0.5394059,677.326,791.75824,786.1172,724.4689,720.0366,0.1290283203125,0.00860595703125,0.99322509765625,5.66741943359375,-4.314117431640625,-1.2860107421875,1,1.0,1.0,1.0,1.0,100.00
2021-04-14 22:15:12.684,,,,,,,,,,,,,,,,,,,,,,,,,,,,,,,,,,,,,,/muse/elements/blink
2021-04-14 22:15:12.868,0.33648148,0.2656124,0.526913,0.75875765,0.26774225,-0.005384923,0.29984936,0.7660443,0.45423183,0.39795646,0.3222525,0.51273763,0.4866135,0.6524009,0.22735694,0.524321,0.0644473,0.2877917,-0.3872911,0.43577904,856.63007,813.91943,813.1135,823.9927,790.54944,0.1300048828125,0.00640869140625,0.99658203125,3.865509033203125,-4.747772216796875,0.052337646484375,1,1.0,1.0,1.0,1.0,100.00
2021-04-14 22:15:13.375,0.77894974,0.5436799,0.7630667,1.0086119,0.8421181,0.07988091,0.32451114,0.71874315,1.123655,0.47610456,0.33235037,0.9239125,0.5579135,0.5288873,0.110225156,0.61013067,0.07216685,0.2339709,-0.27640906,0.07339582,943.2601,808.2784,803.44324,869.5238,812.3077,0.14703369140625,-0.00592041015625,0.9910888671875,4.9945068359375,-3.93280029296875,1.876678466796875,1,1.0,1.0,1.0,1.0,100.00
2021-04-14 22:15:13.903,0.8762513,0.5354284,0.80607516,1.1038026,0.9258993,0.19052449,0.23896272,0.8106931,1.1235285,0.47610456,0.3172506,0.92848253,0.60073835,0.5206463,0.056523085,0.70311683,0.06262275,0.10808775,-0.19002989,0.07336993,843.73627,810.293,796.1905,825.2015,759.5238,0.15087890625,0.01483154296875,0.99432373046875,4.882354736328125,-5.061798095703125,0.695343017578125,1,1.0,1.0,1.0,1.0,100.00
2021-04-14 22:15:14.038,,,,,,,,,,,,,,,,,,,,,,,,,,,,,,,,,,,,,,/muse/elements/blink
2021-04-14 22:15:14.406,0.89810276,0.4536517,0.57591164,0.9128711,0.9788173,0.24347833,0.06551059,0.8564142,1.1235285,0.4269346,0.1891913,0.92848253,0.6315401,0.6216904,0.042032648,0.65417325,0.111641124,0.049978983,-0.10382489,-0.060339052,666.8498,802.6374,799.41394,724.4689,765.16486,0.145263671875,0.0167236328125,0.99591064453125,5.12908935546875,-4.807586669921875,3.162689208984375,1,1.0,1.0,1.0,1.0,100.00
2021-04-14 22:15:14.911,,,,,,,,,,,,,,,,,,,,,,,,,,,,,,,,,,,,,,/muse/elements/blink
2021-04-14 22:15:14.912,0.6149246,0.34790236,0.33113217,0.2817783,0.69962585,0.21048373,0.03760235,0.52429277,0.62261313,0.25036496,0.18635641,0.5567604,0.58375096,0.64588976,0.09909445,0.5273011,0.09869393,0.11047284,-0.1498383,-0.05200539,736.55676,797.3993,792.1612,788.5348,805.8608,0.15594482421875,0.02392578125,0.99969482421875,3.99261474609375,-4.807586669921875,1.368255615234375,1,1.0,1.0,1.0,1.0,100.00
2021-04-14 22:15:15.240,,,,,,,,,,,,,,,,,,,,,,,,,,,,,,,,,,,,,,/muse/elements/blink
2021-04-14 22:15:15.433,0.5435429,0.4280634,0.29536015,0.15394415,0.6814923,0.24054691,0.09425276,0.48969463,0.40446815,0.24740021,0.14589329,0.42707813,0.5311425,0.64863,0.09339837,0.5233202,0.11081482,0.16252741,-0.14824492,-0.035613284,829.2308,804.2491,802.23444,819.15753,733.3333,0.1583251953125,0.0107421875,0.99310302734375,4.42626953125,-4.23187255859375,-0.665435791015625,1,1.0,1.0,1.0,1.0,100.00
2021-04-14 22:15:15.437,,,,,,,,,,,,,,,,,,,,,,,,,,,,,,,,,,,,,,/muse/elements/blink
2021-04-14 22:15:15.602,,,,,,,,,,,,,,,,,,,,,,,,,,,,,,,,,,,,,,/muse/elements/blink
2021-04-14 22:15:15.937,0.68443155,0.5104847,0.26320553,0.1105118,0.6071943,0.28412506,0.20471923,0.35059175,0.25553262,0.23913428,0.29055384,0.35859007,0.37402567,0.5246526,0.1511461,0.48690584,0.046843864,0.25377837,-0.18978426,0.050616432,699.89014,846.9597,790.14655,736.1539,731.7216,0.1734619140625,0.03717041015625,0.99932861328125,5.121612548828125,-4.41131591796875,-11.252593994140625,1,1.0,1.0,1.0,1.0,100.00
2021-04-14 22:15:16.456,0.68443155,0.59674966,0.8070828,1.6557848,0.6071943,0.29820982,0.5391951,1.177084,0.25553262,0.21450661,0.23003119,0.59781605,0.37402567,0.45386612,0.14957005,0.7086291,0.046843864,0.17280059,-0.2710387,0.09335432,691.4286,792.5641,798.60803,756.30035,641.06226,0.09930419921875,0.1087646484375,0.966064453125,8.172149658203125,0.94207763671875,-1.36077880859375,1,1.0,1.0,1.0,1.0,100.00
2021-04-14 22:15:16.460,,,,,,,,,,,,,,,,,,,,,,,,,,,,,,,,,,,,,,/muse/elements/blink
2021-04-14 22:15:16.983,0.68443155,0.59674966,0.66693187,1.4569405,0.6071943,0.29820982,0.41428274,1.0434133,0.25553262,0.21450661,0.2401876,0.69693863,0.37402567,0.45386612,0.10640044,0.6859877,0.046843864,0.17280059,-0.2773363,0.06048764,823.9927,805.4579,807.47253,810.293,778.0586,0.107177734375,0.042724609375,0.994873046875,-1.375732421875,-6.557159423828125,11.14044189453125,1,1.0,1.0,1.0,1.0,100.00
2021-04-14 22:15:17.501,1.1641005,0.15434544,0.5424874,1.344723,1.0302459,0.03537969,0.25554273,0.9494853,1.0313857,0.103370264,0.16340728,0.71338373,0.5309149,0.6118112,0.13194504,0.61403155,0.20308547,0.15525843,-0.31326246,0.034790367,740.18317,810.696,810.696,780.07324,703.1135,0.189208984375,-0.02532958984375,1.01861572265625,3.058013916015625,-14.826507568359375,-15.484466552734375,1,1.0,1.0,1.0,1.0,100.00
2021-04-14 22:15:17.668,,,,,,,,,,,,,,,,,,,,,,,,,,,,,,,,,,,,,,/muse/elements/blink
2021-04-14 22:15:18.023,1.4237748,0.09501057,0.35250157,1.1401458,0.7792649,-0.06809877,-0.04758094,0.81220245,1.0320952,0.15432942,-0.17346269,0.6802098,0.5806673,0.62775064,0.14797285,0.5505384,0.114970915,0.20515582,-0.3527057,-0.002756604,895.31134,800.6227,806.26373,833.663,862.674,0.2926025390625,-0.01788330078125,0.9725341796875,3.78326416015625,2.624359130859375,15.080718994140625,1,1.0,1.0,1.0,1.0,100.00
2021-04-14 22:15:18.533,1.5308199,0.24960592,0.3992911,1.217763,0.7070744,-0.18250524,-0.22872101,0.78030455,1.035928,0.18145312,0.26339152,0.31932005,0.6934153,0.6290444,0.20610918,0.43759593,0.1231323,0.1674741,-0.3429852,0.00598477,995.64105,824.3956,797.3993,895.7143,745.0183,0.00433349609375,-0.045166015625,1.0440673828125,5.48797607421875,9.293670654296875,20.65093994140625,1,1.0,1.0,1.0,1.0,100.00
2021-04-14 22:15:18.646,,,,,,,,,,,,,,,,,,,,,,,,,,,,,,,,,,,,,,/muse/elements/blink
2021-04-14 22:15:19.040,1.6631968,0.31421813,0.43298468,1.217763,0.19790217,-0.27530438,-0.30116203,0.78030455,0.78464353,0.114168465,0.25088316,0.31932005,0.7708152,0.6268783,0.21067084,0.43759593,0.06447762,0.17038481,-0.3262243,0.00598477,762.3443,807.0696,819.5604,798.20514,722.4542,-0.0596923828125,0.07452392578125,1.0030517578125,22.53509521484375,-3.5589599609375,10.714263916015625,1,1.0,1.0,1.0,1.0,100.00
2021-04-14 22:15:19.075,,,,,,,,,,,,,,,,,,,,,,,,,,,,,,,,,,,,,,/muse/elements/blink
2021-04-14 22:15:19.566,1.7660768,0.5265466,0.38729995,1.217763,0.2449641,-0.37701723,-0.42621267,0.78030455,0.52983814,0.05539622,0.25088316,0.31932005,0.9145743,0.6067715,0.2694896,0.43759593,0.08904314,0.02428256,-0.24015893,0.00598477,678.93774,790.9524,802.6374,787.72894,823.1868,-0.10211181640625,0.15338134765625,0.97723388671875,6.0711669921875,-0.22430419921875,-4.000091552734375,1,1.0,1.0,1.0,1.0,100.00
2021-04-14 22:15:20.069,1.7660768,0.38935426,0.45422864,1.217763,0.2449641,0.20735365,0.21430135,0.78030455,0.52983814,0.39984524,0.417935,0.31932005,0.9145743,0.69311523,0.22480153,0.43759593,0.08904314,0.39840645,0.014306814,0.00598477,810.293,808.2784,803.8461,788.93774,697.0696,-0.05255126953125,0.09857177734375,0.98992919921875,0.657958984375,-7.29736328125,11.8133544921875,1,1.0,1.0,1.0,1.0,100.00
2021-04-14 22:15:20.237,,,,,,,,,,,,,,,,,,,,,,,,,,,,,,,,,,,,,,/muse/elements/blink
2021-04-14 22:15:20.406,,,,,,,,,,,,,,,,,,,,,,,,,,,,,,,,,,,,,,/muse/elements/blink
2021-04-14 22:15:20.586,1.2210461,0.3796286,0.60607386,1.217763,1.2220578,0.28652647,0.32589003,0.78030455,1.0977079,0.40717137,0.5496352,0.31932005,0.79497564,0.71382797,0.23526187,0.43759593,0.018762385,0.50500333,-0.10850481,0.00598477,759.5238,799.011,805.8608,796.99634,779.2674,-0.04437255859375,0.03289794921875,1.003173828125,-3.66363525390625,-5.809478759765625,-0.58319091796875,1,1.0,1.0,1.0,1.0,100.00
2021-04-14 22:15:21.113,1.3687378,0.31386226,0.53653485,1.217763,1.1196185,0.2213318,0.18957214,0.78030455,1.0997062,0.51097506,0.5496352,0.31932005,0.7213459,0.62614644,0.15795705,0.43759593,0.10985309,0.47270182,-0.15661106,0.00598477,848.1685,802.23444,814.7253,829.2308,888.0586,-0.067626953125,0.014892578125,0.99810791015625,6.407623291015625,-6.32537841796875,-2.7813720703125,1,1.0,1.0,1.0,1.0,100.00
2021-04-14 22:15:21.512,,,,,,,,,,,,,,,,,,,,,,,,,,,,,,,,,,,,,,/muse/elements/blink
2021-04-14 22:15:21.637,1.400979,0.16415039,0.8207936,1.1721829,1.0220511,0.22700153,0.054984737,0.96667504,1.105295,0.4666415,0.5288465,0.7824657,0.73707366,0.5514547,0.13902949,0.6111022,0.27276063,0.40853584,-0.253303,0.3367262,641.06226,797.3993,805.05493,699.0842,716.8132,-0.05718994140625,0.01007080078125,0.9996337890625,5.465545654296875,-3.4991455078125,-4.65057373046875,1,1.0,1.0,1.0,1.0,100.00
2021-04-14 22:15:21.839,,,,,,,,,,,,,,,,,,,,,,,,,,,,,,,,,,,,,,/muse/elements/blink
2021-04-14 22:15:22.169,1.3392563,0.061768036,0.79943514,1.1721829,0.80202323,0.24264504,-0.1717073,0.96667504,0.9778826,0.46897757,0.2944862,0.7824657,0.6104067,0.46458447,0.115036756,0.6111022,0.35250247,0.27257165,-0.24062417,0.3367262,732.1245,790.9524,804.2491,772.01465,710.3663,-0.02740478515625,0.02423095703125,1.012451171875,5.345916748046875,-11.185302734375,-0.4486083984375,1,1.0,1.0,1.0,1.0,100.00
2021-04-14 22:15:22.683,1.0784528,0.08005212,0.82028294,0.997723,0.7828232,0.19097923,-0.02032745,0.91188294,0.90695804,0.4385191,0.32231224,0.7822951,0.6742689,0.4645879,0.1539677,0.6430216,0.4603885,0.068536274,-0.28559828,0.3107843,836.4835,811.9048,798.60803,797.3993,773.6264,0.02777099609375,0.01348876953125,0.98358154296875,4.179534912109375,-9.547882080078125,-0.396270751953125,1,1.0,1.0,1.0,1.0,100.00
2021-04-14 22:15:22.934,,,,,,,,,,,,,,,,,,,,,,,,,,,,,,,,,,,,,,/muse/elements/blink
2021-04-14 22:15:23.202,1.0784528,0.20953746,0.54398376,0.997723,0.7828232,0.15445468,0.092017666,0.91188294,0.90695804,0.3059557,0.3211657,0.7822951,0.6742689,0.47158918,0.08900715,0.6430216,0.4603885,-0.08260096,-0.36477563,0.3107843,879.19415,803.0403,811.0989,829.6337,707.1429,0.0484619140625,0.04669189453125,1.00933837890625,4.53094482421875,-4.373931884765625,2.310333251953125,1,1.0,1.0,1.0,1.0,100.00
2021-04-14 22:15:23.706,1.4121585,0.25399715,0.5253611,1.0887079,0.40113208,0.15446545,0.13228865,0.48920023,0.6324322,0.3708902,0.327512,0.9303105,0.34425226,0.47521228,0.0578714,0.72925436,-0.2290624,-0.17667153,-0.44656467,0.4566451,780.87915,800.6227,801.4286,809.4872,780.4762,-0.00982666015625,0.032470703125,1.01739501953125,4.613189697265625,-0.441131591796875,3.5888671875,1,1.0,1.0,1.0,1.0,100.00
2021-04-14 22:15:24.224,1.2673132,0.21659365,0.4514028,0.9313057,0.6514686,0.20380364,0.11413952,0.7106059,0.7937566,0.432701,0.3480908,0.98163325,0.37853357,0.49766263,0.108443856,0.7459568,-0.19829255,-0.025096687,-0.45774624,0.48158136,705.5311,824.3956,808.68134,757.50916,742.1978,0.027587890625,0.039306640625,1.0145263671875,4.044952392578125,-7.37213134765625,-0.299072265625,1,1.0,1.0,1.0,1.0,100.00
2021-04-14 22:15:24.753,1.1716118,0.23731498,0.35312167,0.8539233,0.75505966,0.1477407,0.036834326,0.7278647,0.9159682,0.43091783,0.2836301,1.0287701,0.46454468,0.47560373,0.14132093,0.7982093,-0.13456838,0.030682167,-0.41851205,0.52695066,776.04395,800.6227,811.50183,805.4579,811.0989,-0.01910400390625,0.03656005859375,1.00262451171875,8.8525390625,-5.570220947265625,4.62066650390625,1,1.0,1.0,1.0,1.0,100.00
2021-04-14 22:15:25.277,0.8341417,0.55153495,0.21902388,0.68369937,0.8693235,0.24216773,-0.0018637691,0.867172,0.9623082,0.2523782,0.25619882,1.0450833,0.5730448,0.4464406,0.14321776,1.0303991,-0.118415326,0.040857606,-0.38562852,0.57294124,891.28204,808.2784,812.3077,821.5751,715.2015,-0.015380859375,0.059814453125,0.99578857421875,7.005767822265625,-4.493560791015625,-0.276641845703125,1,1.0,1.0,1.0,1.0,100.00
2021-04-14 22:15:25.800,0.8953336,0.6223466,0.31098908,0.79583555,0.8878435,0.27226016,0.21744795,0.87179893,0.985757,0.33043736,0.23717432,1.0542532,0.62583375,0.5012557,0.09574969,1.1679403,-0.02169582,0.014394104,-0.42364967,0.6161256,823.5897,792.1612,788.1319,788.93774,751.06226,0.01873779296875,0.08135986328125,1.00360107421875,6.602020263671875,-3.805694580078125,-0.740203857421875,1,1.0,1.0,1.0,1.0,100.00
2021-04-14 22:15:26.328,0.95330393,0.6583967,0.49561167,0.8844602,0.8376868,0.36721236,0.30716953,1.0266227,0.88948876,0.32825148,0.20799324,1.1982521,0.5824923,0.55397683,0.102198675,1.2690864,0.094867334,0.029115165,-0.46712345,0.74026144,874.7619,793.36993,803.44324,826.0073,804.2491,0.061767578125,0.05975341796875,0.96588134765625,3.60382080078125,-5.4730224609375,2.026214599609375,1,1.0,1.0,1.0,1.0,100.00
2021-04-14 22:15:26.830,1.005448,0.43762287,0.81391996,0.9450291,0.76042,0.28116196,0.32243606,0.9475616,0.77809614,0.34154958,0.24588479,1.5292376,0.4688076,0.58032554,0.11431022,1.190612,0.1976888,0.056459036,-0.35410714,0.83913785,859.0476,807.47253,792.1612,864.68866,640.2564,0.0234375,0.0634765625,1.0452880859375,4.366455078125,-6.811370849609375,5.51788330078125,1,1.0,1.0,1.0,1.0,100.00
2021-04-14 22:15:26.933,,,,,,,,,,,,,,,,,,,,,,,,,,,,,,,,,,,,,,/muse/elements/blink
2021-04-14 22:15:27.337,0.98430276,0.5321571,0.966186,0.8993711,0.60760057,0.41214088,0.15617765,0.9835045,0.523505,0.27831906,0.1679406,1.5292376,0.38511667,0.55944854,0.1194946,1.1901779,0.25542882,-0.0010720608,-0.27347493,0.8949031,717.2161,795.78754,810.696,758.71796,743.8095,-0.0538330078125,0.104248046875,1.0079345703125,4.987030029296875,-5.256195068359375,-0.37384033203125,1,1.0,1.0,1.0,1.0,100.00
2021-04-14 22:15:27.859,1.0007809,0.5321571,0.9245306,0.85196584,0.68670654,0.41214088,0.3155715,0.8139402,0.4928775,0.27831906,0.32221606,1.5287311,0.30777663,0.55944854,0.18911785,1.2097429,0.2549157,-0.0010720608,-0.24421409,0.86299264,743.8095,799.011,797.8022,767.1795,792.1612,-0.02032470703125,0.08892822265625,1.01751708984375,4.56085205078125,-3.9178466796875,-0.43365478515625,1,1.0,1.0,1.0,1.0,100.00
2021-04-14 22:15:28.367,1.1469681,0.91125757,1.1048652,1.2035483,1.1067158,0.43959862,0.68879086,1.0160836,0.6060715,0.15681227,0.16582939,0.885829,0.35687378,0.5519903,0.26122347,0.77183264,0.08103385,0.013452253,-0.15472162,0.51138836,863.0769,811.0989,813.5165,822.381,682.1612,-0.0262451171875,0.08740234375,0.98638916015625,3.70849609375,-0.83740234375,2.10845947265625,1,1.0,1.0,1.0,1.0,100.00
2021-04-14 22:15:28.872,0.9771518,0.77291787,1.0204902,0.97148174,0.92266583,0.2946069,0.5324502,0.7613154,0.69161457,0.23311995,0.22521456,0.885829,0.2720506,0.5425516,0.15588641,0.7149428,0.020335449,0.07738939,-0.12526922,0.51070166,881.2088,807.0696,805.05493,827.2161,779.67035,-0.01470947265625,0.08526611328125,0.993408203125,3.72344970703125,-4.0673828125,2.729034423828125,1,1.0,1.0,1.0,1.0,100.00
2021-04-14 22:15:29.384,1.0894924,0.82783246,0.9862284,0.9092073,1.0701412,0.42506617,0.45791572,0.6527309,0.88249564,0.33727017,0.41396308,0.89142233,0.29648513,0.5435732,0.17535758,0.77245873,0.04042425,0.061175793,-0.16562964,0.5047856,776.8498,801.02563,812.71063,812.3077,859.85345,-0.0125732421875,0.06683349609375,0.99676513671875,5.001983642578125,-3.99261474609375,-0.934600830078125,1,1.0,1.0,1.0,1.0,100.00
2021-04-14 22:15:29.917,1.0371109,0.75659996,1.0537639,0.8963132,1.0004933,0.4143798,0.47065958,0.45848513,0.8869428,0.2978851,0.52226704,0.9299845,0.25676104,0.53745955,0.16787893,0.7461448,0.0122609185,0.09231439,-0.27065885,0.4544103,874.7619,837.6923,805.05493,815.5311,719.6337,0.0018310546875,0.07470703125,1.00909423828125,6.706695556640625,-15.1031494140625,-17.099456787109375,1,1.0,1.0,1.0,1.0,100.00
2021-04-14 22:15:30.441,1.1473595,0.8681689,1.1556678,1.1330801,1.1220924,0.61003006,0.57160485,0.5870161,0.86121655,0.2713567,0.5325786,0.9388172,0.29391432,0.52408385,0.22665687,0.7880234,0.039479747,0.039980713,-0.368086,0.42892396,759.12085,790.14655,807.47253,782.49084,830.84247,0.028564453125,0.04931640625,1.0025634765625,3.701019287109375,-2.332763671875,-0.665435791015625,1,1.0,1.0,1.0,1.0,100.00
2021-04-14 22:15:30.741,,,,,,,,,,,,,,,,,,,,,,,,,,,,,,,,,,,,,,/muse/elements/blink
2021-04-14 22:15:30.945,0.977455,0.8681689,1.2453747,1.2147969,0.87820643,0.61003006,0.5950198,0.6809887,0.6366694,0.2713567,0.5097364,0.9388172,0.2652442,0.52408385,0.15731743,0.7509199,-0.0355608,0.039980713,-0.39829126,0.38766238,801.8315,817.5458,809.4872,819.15753,804.65204,-0.0794677734375,0.05126953125,0.99737548828125,4.3963623046875,1.547698974609375,8.067474365234375,1,1.0,1.0,1.0,1.0,100.00
2021-04-14 22:15:31.462,0.977455,0.8681689,1.1454438,1.2125355,0.87820643,0.61003006,0.40044236,0.7404602,0.6366694,0.2713567,0.22284168,0.8825109,0.2652442,0.52408385,0.06576498,0.8179178,-0.0355608,0.039980713,-0.38732472,0.42289746,874.7619,803.0403,826.4103,840.5128,779.67035,-0.1302490234375,0.0601806640625,0.99615478515625,3.87298583984375,1.697235107421875,11.70867919921875,1,1.0,1.0,1.0,1.0,100.00
2021-04-14 22:15:31.860,,,,,,,,,,,,,,,,,,,,,,,,,,,,,,,,,,,,,,/muse/elements/blink
2021-04-14 22:15:31.969,0.977455,0.8681689,1.1454438,1.112901,0.87820643,0.61003006,0.40044236,0.76490206,0.6366694,0.2713567,0.22284168,0.8657185,0.2652442,0.52408385,0.06576498,0.83565545,-0.0355608,0.039980713,-0.38732472,0.41298497,825.6044,794.57874,807.0696,828.8278,796.99634,-0.20587158203125,0.06396484375,0.968505859375,1.457977294921875,7.05810546875,8.740386962890625,1,1.0,1.0,1.0,1.0,100.00
2021-04-14 22:15:32.475,0.977455,0.9429269,1.471738,1.112901,0.87820643,0.71635604,0.98159975,0.76490206,0.6366694,0.46389407,0.6916401,0.8657185,0.2652442,0.530203,0.27008674,0.83565545,-0.0355608,0.17106794,-0.08633775,0.41298497,875.56775,817.9487,832.4542,831.2454,753.8828,-0.263427734375,7.9345703125E-4,0.96881103515625,3.36456298828125,-5.30853271484375,-2.61688232421875,1,1.0,1.0,1.0,1.0,100.00
2021-04-14 22:15:32.810,,,,,,,,,,,,,,,,,,,,,,,,,,,,,,,,,,,,,,/muse/elements/blink
2021-04-14 22:15:32.978,0.977455,0.8242344,1.471738,1.112901,0.87820643,0.64512926,0.98159975,0.76490206,0.6366694,0.4824286,0.6916401,0.8657185,0.2652442,0.5443082,0.27008674,0.83565545,-0.0355608,0.07920408,-0.08633775,0.41298497,911.02563,804.65204,813.1135,865.4945,761.13556,-0.15802001953125,0.037841796875,0.9976806640625,3.910369873046875,-10.310516357421875,-9.383392333984375,1,1.0,1.0,1.0,1.0,100.00
2021-04-14 22:15:33.501,0.977455,0.8476038,1.4611127,1.112901,0.87820643,0.67277247,1.0833714,0.76490206,0.6366694,0.47239846,0.7151527,0.8657185,0.2652442,0.54205644,0.26567265,0.83565545,-0.0355608,0.044290897,-0.11266883,0.41298497,770.0,806.26373,799.81683,803.0403,780.07324,-0.11651611328125,0.0665283203125,0.9881591796875,9.9591064453125,0.560760498046875,-3.566436767578125,1,2.0,1.0,1.0,2.0,100.00
2021-04-14 22:15:34.004,0.977455,0.5166468,1.0658528,1.112901,0.87820643,0.43646184,0.8731691,0.76490206,0.6366694,0.35980493,0.55833095,0.8657185,0.2652442,0.5318295,0.32844725,0.83565545,-0.0355608,-0.012313224,-0.11857015,0.41298497,726.8865,798.60803,796.1905,747.4359,699.4872,-0.079833984375,0.035400390625,0.98565673828125,8.336639404296875,-22.8790283203125,10.460052490234375,1,2.0,1.0,1.0,2.0,100.00
2021-04-14 22:15:34.511,1.0513269,0.20577757,1.012041,0.6948948,0.45689902,0.08704636,0.73622286,0.4863503,0.37618583,0.3820887,0.55833095,0.36548918,0.54881793,0.38809788,0.29995304,0.4347281,-0.057306714,0.24515331,-0.09004106,-0.013722798,759.12085,780.07324,792.5641,779.2674,740.989,0.0137939453125,0.125,1.05340576171875,6.587066650390625,0.55328369140625,9.390869140625,1,1.0,1.0,1.0,1.0,100.00
2021-04-14 22:15:35.029,1.195337,0.2807747,0.7453923,0.87423193,0.5488121,0.18782225,0.35481828,0.5131237,0.7808332,0.54045236,0.4970545,0.3758606,0.5882378,0.4328464,0.25676307,0.47777697,0.0067121377,0.19461867,-0.11360138,0.03125261,838.0952,805.8608,845.7509,795.78754,815.9341,-0.1649169921875,-0.00128173828125,0.98712158203125,-4.224395751953125,-1.9439697265625,-7.0880126953125,1,1.0,1.0,1.0,1.0,100.00
2021-04-14 22:15:35.330,,,,,,,,,,,,,,,,,,,,,,,,,,,,,,,,,,,,,,/muse/elements/blink
2021-04-14 22:15:35.544,1.195337,0.4514932,0.78864056,0.87423193,0.5488121,0.24771367,0.36601508,0.5131237,0.7808332,0.54045236,0.33798605,0.3758606,0.5882378,0.43956688,0.14641236,0.47777697,0.0067121377,0.23955679,-0.1009677,0.03125261,883.6264,822.381,809.0842,848.97437,751.4652,-0.094482421875,0.059814453125,1.0067138671875,6.871185302734375,-7.476806640625,1.45050048828125,1,1.0,1.0,1.0,1.0,100.00
2021-04-14 22:15:35.633,,,,,,,,,,,,,,,,,,,,,,,,,,,,,,,,,,,,,,/muse/elements/blink
2021-04-14 22:15:36.069,1.3265636,0.5485142,0.6292706,1.0007845,0.64168274,0.2919801,0.3152163,0.53834194,0.73679703,0.56585586,0.30528063,0.15300426,0.6329589,0.50066125,0.08927367,0.5169409,0.07538904,0.14397034,-0.14673576,0.07200436,751.8681,794.17584,824.7985,790.54944,776.8498,-0.1326904296875,0.05926513671875,0.98931884765625,4.3365478515625,-7.349700927734375,1.614990234375,1,1.0,1.0,1.0,1.0,100.00
2021-04-14 22:15:36.578,1.3265636,0.4916587,1.1112053,0.9756534,0.64168274,0.026138432,0.37929636,0.582465,0.73679703,0.45773062,0.28080177,0.14125538,0.6329589,0.47467187,-0.10393136,0.5478468,0.07538904,0.01053341,-0.1275681,0.082711786,707.9487,800.2198,813.91943,745.0183,813.91943,-0.1787109375,0.0498046875,0.999267578125,3.656158447265625,-2.811279296875,-5.69732666015625,1,1.0,1.0,1.0,1.0,100.00
2021-04-14 22:15:36.945,,,,,,,,,,,,,,,,,,,,,,,,,,,,,,,,,,,,,,/muse/elements/blink
2021-04-14 22:15:37.082,1.3265636,0.5690371,1.2126514,0.9756534,0.64168274,0.14148508,0.50573015,0.582465,0.73679703,0.55360323,0.73449546,0.14125538,0.6329589,0.4987497,0.03613739,0.5478468,0.07538904,-0.13213088,-0.16315389,0.082711786,810.293,800.2198,807.0696,799.41394,673.2967,-0.1256103515625,0.0072021484375,0.99639892578125,3.072967529296875,-7.200164794921875,-0.1495361328125,1,1.0,1.0,1.0,1.0,100.00
2021-04-14 22:15:37.593,1.3265636,0.5853654,1.1043419,0.9756534,0.64168274,0.1592658,0.8181041,0.582465,0.73679703,0.53442454,0.89417195,0.14125538,0.6329589,0.50084966,0.11989793,0.5478468,0.07538904,-0.11617068,-0.10727434,0.082711786,866.7033,805.4579,818.7546,829.6337,799.81683,-0.10736083984375,0.00994873046875,1.0067138671875,3.985137939453125,-4.08233642578125,4.478607177734375,1,1.0,1.0,1.0,1.0,100.00
2021-04-14 22:15:38.101,1.3265636,0.5313652,0.96400005,0.9756534,0.64168274,0.1712027,0.8177493,0.582465,0.73679703,0.4325847,0.9148894,0.14125538,0.6329589,0.5079092,0.2123431,0.5478468,0.07538904,0.010521768,-0.13979493,0.082711786,819.5604,809.4872,845.34796,808.68134,711.5751,-0.11541748046875,0.03594970703125,1.0001220703125,10.146026611328125,-7.873077392578125,-7.349700927734375,1,2.0,1.0,1.0,2.0,100.00
2021-04-14 22:15:38.294,,,,,,,,,,,,,,,,,,,,,,,,,,,,,,,,,,,,,,/muse/elements/blink
2021-04-14 22:15:38.620,1.3265636,0.6591405,1.0487576,0.9756534,0.64168274,0.48143998,0.9184401,0.582465,0.73679703,0.84450126,0.9622791,0.14125538,0.6329589,0.57959586,0.28021404,0.5478468,0.07538904,-0.009194288,-0.16924046,0.082711786,778.46155,784.90845,794.17584,776.8498,722.4542,-0.14910888671875,0.01873779296875,0.99249267578125,1.89910888671875,-5.121612548828125,1.79443359375,1,2.0,1.0,1.0,2.0,100.00
2021-04-14 22:15:39.148,1.3265636,0.8068756,1.1567594,0.9756534,0.64168274,0.54535955,0.75238055,0.582465,0.73679703,0.88112915,0.7804556,0.14125538,0.6329589,0.5686517,0.27821276,0.5478468,0.07538904,-0.0190148,-0.2230301,0.082711786,858.6447,797.8022,811.0989,820.3663,805.4579,-0.149658203125,0.03070068359375,0.985107421875,5.0543212890625,-5.921630859375,1.607513427734375,1,2.0,1.0,1.0,2.0,100.00
2021-04-14 22:15:39.677,1.3265636,0.814152,1.3946894,0.9756534,0.64168274,0.543567,0.8371336,0.582465,0.73679703,0.8817886,0.770568,0.14125538,0.6329589,0.5476903,0.21583213,0.5478468,0.07538904,0.078830175,-0.044613976,0.082711786,809.89014,831.2454,760.32965,767.98535,701.9048,-0.140380859375,0.02294921875,0.99127197265625,5.316009521484375,-4.486083984375,-1.712188720703125,1,2.0,1.0,1.0,2.0,100.00
2021-04-14 22:15:40.205,0.44998994,0.82108927,1.4140021,0.9439059,0.14964162,0.48468697,0.61916107,0.2674686,0.6855486,0.863127,0.3861589,0.9081676,0.49929926,0.4816182,-0.024644494,0.5231382,-0.18472138,0.19303772,0.14115378,-0.090375766,873.95605,806.6667,803.44324,833.2601,762.74725,-0.1466064453125,0.02490234375,0.99053955078125,4.11224365234375,-3.805694580078125,0.478515625,1,1.0,1.0,1.0,1.0,100.00
2021-04-14 22:15:40.714,0.70366293,0.68857515,1.3030674,1.0173942,0.37795326,0.36985117,0.45543122,0.44604272,0.71371543,0.3854464,0.3969955,0.92366844,0.44643742,0.44551733,0.14592403,0.5107074,-0.133805,0.2748138,0.0075712693,-0.07035526,826.0073,812.3077,809.0842,826.0073,743.8095,-0.1473388671875,0.0208740234375,0.99102783203125,4.329071044921875,-5.001983642578125,0.904693603515625,1,1.0,1.0,1.0,1.0,100.00
2021-04-14 22:15:40.814,,,,,,,,,,,,,,,,,,,,,,,,,,,,,,,,,,,,,,/muse/elements/blink
2021-04-14 22:15:41.104,,,,,,,,,,,,,,,,,,,,,,,,,,,,,,,,,,,,,,/muse/elements/blink
2021-04-14 22:15:41.237,0.7331783,0.75148827,0.8665813,1.0453073,0.48308665,0.5337862,0.43284503,0.50846463,0.71371543,0.44494197,0.6318471,0.92558163,0.39559636,0.52368444,0.33869958,0.5185715,-0.11970936,0.19924212,-0.32890233,-0.027730808,776.04395,800.6227,811.9048,805.8608,689.41394,-0.150146484375,0.02197265625,0.98931884765625,4.583282470703125,-4.942169189453125,0.725250244140625,1,1.0,1.0,1.0,1.0,100.00
2021-04-14 22:15:41.743,0.80622894,0.7939248,0.9108979,0.8545372,0.5173251,0.6356001,0.51274496,0.5480623,0.45321992,0.53972405,0.6340854,0.5882879,0.33594596,0.55794203,0.3237045,0.46076253,-0.11321292,0.14671762,-0.31971487,-0.06891069,728.49817,792.5641,788.93774,764.35895,771.6117,-0.15093994140625,0.01983642578125,0.9930419921875,4.71038818359375,-5.031890869140625,1.472930908203125,1,1.0,1.0,1.0,1.0,100.00
2021-04-14 22:15:42.250,0.60844547,0.7044278,0.9330509,0.42833397,0.4140169,0.56849957,0.53106934,0.45659974,0.42440417,0.58978534,0.60920805,0.2428856,0.35888034,0.53743696,0.26023516,0.45997033,-0.15003417,0.07700855,-0.31025162,-0.067966506,829.2308,817.5458,797.8022,809.0842,749.85345,-0.15032958984375,0.01812744140625,0.99151611328125,4.807586669921875,-4.80010986328125,1.428070068359375,1,1.0,1.0,1.0,1.0,100.00
2021-04-14 22:15:42.768,0.5276199,0.6741357,0.9117122,0.64324063,0.30396196,0.527908,0.5001431,0.6344795,0.5315627,0.5793034,0.51062274,0.6419422,0.5570677,0.4820419,0.2832894,0.5691996,-0.15002504,0.007667483,-0.41113544,-0.009656366,626.9597,772.01465,841.31866,681.3553,762.3443,-0.15533447265625,0.02227783203125,0.98919677734375,4.44122314453125,-4.32159423828125,0.650482177734375,1,1.0,1.0,1.0,1.0,100.00
2021-04-14 22:15:42.939,,,,,,,,,,,,,,,,,,,,,,,,,,,,,,,,,,,,,,/muse/elements/blink
2021-04-14 22:15:43.292,0.5276199,0.49995103,0.9073643,0.64324063,0.30396196,0.27206168,0.5107966,0.6344795,0.5315627,0.4661173,0.49407658,0.6419422,0.5570677,0.37405905,0.31595913,0.5691996,-0.15002504,-0.13706802,-0.42030334,-0.009656366,807.0696,812.3077,805.8608,817.9487,788.5348,-0.151123046875,0.02362060546875,0.990966796875,4.44122314453125,-4.104766845703125,1.27105712890625,1,1.0,1.0,1.0,1.0,100.00
2021-04-14 22:15:43.364,,,,,,,,,,,,,,,,,,,,,,,,,,,,,,,,,,,,,,/muse/elements/blink
2021-04-14 22:15:43.807,0.41273534,0.6097568,0.914567,0.5820772,0.19262923,0.26709312,0.6156113,0.62905574,0.43788368,0.45724607,0.48230517,0.6309873,0.5387599,0.31423077,0.39456138,0.56227535,-0.13289222,-0.17478968,-0.48172143,-0.010480029,530.65936,802.6374,839.707,570.14655,631.39197,-0.15777587890625,0.02056884765625,0.98760986328125,4.42626953125,-4.702911376953125,0.7476806640625,1,1.0,1.0,1.0,1.0,100.00
2021-04-14 22:15:43.972,,,,,,,,,,,,,,,,,,,,,,,,,,,,,,,,,,,,,,/muse/elements/blink
2021-04-14 22:15:44.331,0.41273534,0.8713194,1.1195056,0.5820772,0.19262923,0.39040416,0.75227696,0.62905574,0.43788368,0.35060155,0.79672694,0.6309873,0.5387599,0.32532236,0.1973741,0.56227535,-0.13289222,-0.28899294,-0.3582258,-0.010480029,751.06226,792.1612,799.81683,770.80585,706.337,-0.14422607421875,0.019287109375,0.9932861328125,4.0374755859375,-4.702911376953125,0.590667724609375,1,1.0,1.0,1.0,1.0,100.00
2021-04-14 22:15:44.844,0.41273534,0.5025554,1.0806934,0.5820772,0.19262923,0.76012844,0.7278945,0.62905574,0.43788368,0.37073737,0.7602424,0.6309873,0.5387599,0.5261095,0.15350743,0.56227535,-0.13289222,-0.04645813,-0.40959132,-0.010480029,841.31866,813.1135,811.50183,815.5311,805.05493,-0.1484375,0.0147705078125,0.997314453125,4.942169189453125,-4.687957763671875,1.323394775390625,1,1.0,1.0,1.0,1.0,100.00
2021-04-14 22:15:45.369,0.41273534,0.30386734,0.9557285,0.5820772,0.19262923,0.58987606,0.5781083,0.62905574,0.43788368,0.48358634,0.84983826,0.6309873,0.5387599,0.503242,0.14925922,0.56227535,-0.13289222,-0.11202415,-0.37831366,-0.010480029,873.1502,795.78754,800.2198,839.304,746.63007,-0.14990234375,0.01263427734375,0.9930419921875,4.18701171875,-4.53094482421875,0.725250244140625,1,1.0,1.0,1.0,1.0,100.00
2021-04-14 22:15:45.904,0.3485342,0.15520719,0.6219239,0.13134907,0.3703415,0.4385626,0.32548723,0.14214556,0.59748656,0.44137797,0.74488974,0.48876238,0.39974177,0.40060124,0.12890047,0.4539941,0.069772184,-0.020053025,-0.32581866,0.004539064,693.8461,774.0293,856.63007,674.10254,828.022,-0.1510009765625,0.0126953125,0.9918212890625,5.03936767578125,-4.56085205078125,1.18133544921875,1,1.0,1.0,1.0,1.0,100.00
2021-04-14 22:15:46.083,,,,,,,,,,,,,,,,,,,,,,,,,,,,,,,,,,,,,,/muse/elements/blink
2021-04-14 22:15:46.413,0.3485342,0.1879657,0.48423418,0.13134907,0.3703415,0.34305325,0.19861427,0.14214556,0.59748656,0.40028968,0.47095907,0.48876238,0.39974177,0.36891896,0.056184847,0.4539941,0.069772184,0.07026084,-0.25113118,0.004539064,888.46155,826.0073,822.7839,871.9414,695.8608,-0.1419677734375,0.01885986328125,0.9925537109375,4.5758056640625,-5.51788330078125,1.398162841796875,1,1.0,1.0,1.0,1.0,100.00
2021-04-14 22:15:46.931,0.3701991,0.2730743,0.40637234,0.16462985,0.3278159,0.3449876,0.30413702,0.08264935,0.4012778,0.19998178,0.30592138,0.3956177,0.4140271,0.32553515,0.037220117,0.4492341,0.08267611,0.15440942,-0.21659255,0.019917164,788.93774,794.17584,803.0403,797.3993,779.2674,-0.14349365234375,0.0166015625,0.9927978515625,4.50103759765625,-4.2767333984375,1.2860107421875,1,1.0,1.0,1.0,1.0,100.00
2021-04-14 22:15:47.462,0.38694733,0.453021,0.45045203,0.21439093,0.2295815,-0.018067852,0.36806446,-0.026460918,0.18493612,0.22239229,-0.1474367,0.20513542,0.42635694,0.5657292,0.15536462,0.44370636,0.08519932,0.23198088,-0.07021155,0.04321596,710.7692,798.60803,800.2198,746.2271,886.4469,-0.14404296875,0.0189208984375,0.9918212890625,4.47113037109375,-5.121612548828125,0.79254150390625,1,1.0,1.0,1.0,1.0,100.00
2021-04-14 22:15:47.987,0.23047209,0.39448228,0.1444253,0.1105819,0.22484633,-0.20928729,0.15645826,-0.0023765704,0.28520122,0.22855589,-0.17347248,0.3655696,0.32818338,0.42510638,0.06683923,0.33063123,-0.11334153,0.21005979,-0.1598275,0.21223928,829.6337,812.3077,792.1612,807.8755,704.7253,-0.14166259765625,0.0225830078125,0.990234375,4.433746337890625,-4.792633056640625,0.904693603515625,1,1.0,1.0,1.0,1.0,100.00
2021-04-14 22:15:48.515,0.47282293,0.76320547,0.6725763,0.78841615,0.19154069,0.25560784,0.39427203,0.52178854,0.4153136,0.2791944,0.52696085,0.64034915,0.32117912,0.41070864,0.14658873,0.5183062,-0.011104073,0.17765306,-0.091590226,0.16164112,885.64105,803.44324,814.3223,838.0952,846.55676,-0.143798828125,0.0225830078125,0.98919677734375,4.747772216796875,-4.628143310546875,0.61309814453125,1,1.0,1.0,1.0,1.0,100.00
2021-04-14 22:15:48.945,,,,,,,,,,,,,,,,,,,,,,,,,,,,,,,,,,,,,,/muse/elements/blink
2021-04-14 22:15:49.017,0.463798,0.7481989,0.76685876,0.8234655,0.16676497,0.2517009,0.3433314,0.5180606,0.42875192,0.21934527,0.5523962,0.6686481,0.34244978,0.4198604,0.18056752,0.5367377,-0.008364924,0.12538657,-0.12397231,0.11111152,860.65936,821.978,814.7253,867.9121,684.57874,-0.13629150390625,0.01544189453125,0.99444580078125,4.83001708984375,-4.538421630859375,1.084136962890625,1,1.0,1.0,1.0,1.0,100.00
2021-04-14 22:15:49.525,0.57670176,0.8319993,0.90126246,1.0396432,0.11994025,0.44489938,0.57719046,0.7108084,0.32712144,0.18848547,0.6244205,0.59340715,0.35236058,0.5283297,0.20014586,0.65144265,0.053604823,-0.040508185,-0.16424568,0.008871063,736.1539,788.5348,798.20514,778.46155,720.4396,-0.14825439453125,0.02734375,0.9915771484375,4.66552734375,-4.08233642578125,1.487884521484375,1,1.0,1.0,1.0,1.0,100.00
2021-04-14 22:15:50.038,0.5631558,0.51363516,0.71999305,1.0472287,0.0295256,0.2284256,0.47351745,0.69212246,0.22481126,0.1793599,0.61837673,0.56719,0.39557964,0.59966946,0.101431705,0.65243554,0.050027464,-0.23043868,-0.24752377,-0.043074146,743.00366,787.326,799.011,765.56775,800.2198,-0.1470947265625,0.01776123046875,0.9891357421875,4.4561767578125,-4.613189697265625,0.755157470703125,1,1.0,1.0,1.0,1.0,100.00
2021-04-14 22:15:50.554,0.5631558,0.5031538,0.6271199,1.0472287,0.0295256,0.23586495,0.4614687,0.69212246,0.22481126,0.37916735,0.5606913,0.56719,0.39557964,0.5833391,0.012606576,0.65243554,0.050027464,-0.30561328,-0.24046329,-0.043074146,863.8828,815.9341,810.293,832.8571,760.7326,-0.14373779296875,0.02044677734375,0.98968505859375,4.88983154296875,-5.2337646484375,0.82244873046875,1,1.0,1.0,1.0,1.0,100.00
2021-04-14 22:15:50.590,,,,,,,,,,,,,,,,,,,,,,,,,,,,,,,,,,,,,,/muse/elements/blink
2021-04-14 22:15:50.984,,,,,,,,,,,,,,,,,,,,,,,,,,,,,,,,,,,,,,/muse/elements/blink
2021-04-14 22:15:51.080,0.5631558,0.46345827,0.8982386,1.0472287,0.0295256,0.21085599,0.6599238,0.69212246,0.22481126,0.37759176,0.46907714,0.56719,0.39557964,0.56827927,0.024640432,0.65243554,0.050027464,-0.21008028,-0.25887096,-0.043074146,884.0293,796.99634,813.5165,857.8388,890.4762,-0.1405029296875,0.02197265625,0.99737548828125,4.7552490234375,-4.732818603515625,1.906585693359375,1,1.0,1.0,1.0,1.0,100.00
2021-04-14 22:15:51.589,0.5631558,0.67853695,1.0623409,1.0472287,0.0295256,0.39750493,0.74092865,0.69212246,0.22481126,0.4297229,0.5213214,0.56719,0.39557964,0.51867485,0.10397827,0.65243554,0.050027464,-0.08612726,-0.33072758,-0.043074146,790.54944,808.2784,813.5165,815.9341,707.9487,-0.14007568359375,0.01824951171875,0.99560546875,4.127197265625,-4.717864990234375,0.844879150390625,1,2.0,1.0,1.0,2.0,100.00
2021-04-14 22:15:52.069,,,,,,,,,,,,,,,,,,,,,,,,,,,,,,,,,,,,,,/muse/elements/blink
2021-04-14 22:15:52.120,0.3397048,0.65288484,1.0205741,0.011021071,0.11883346,0.3853641,0.70438284,0.033112656,0.3662759,0.2525225,0.5569021,0.38393694,0.31795678,0.45357668,0.19255877,0.28912613,-0.10228019,0.074632496,-0.27692097,0.162783,756.7033,801.4286,816.337,799.011,713.5897,-0.13348388671875,0.0194091796875,0.99493408203125,4.08233642578125,-5.151519775390625,0.859832763671875,1,1.0,1.0,1.0,1.0,100.00
2021-04-14 22:15:52.627,0.3397048,0.49647278,0.73188335,0.011021071,0.11883346,0.33379626,0.1736094,0.033112656,0.3662759,0.3760555,0.4423517,0.38393694,0.31795678,0.42577037,0.3080625,0.28912613,-0.10228019,0.057465408,-0.1448949,0.162783,776.4469,794.9817,799.41394,778.86444,711.5751,-0.1329345703125,0.01922607421875,0.9962158203125,4.987030029296875,-4.583282470703125,1.607513427734375,1,1.0,1.0,1.0,1.0,100.00
2021-04-14 22:15:53.138,0.3397048,0.21530999,0.6083856,0.011021071,0.11883346,0.20300396,0.2592112,0.033112656,0.3662759,0.24298616,0.44773695,0.38393694,0.31795678,0.39374506,0.28263807,0.28912613,-0.10228019,-0.0062651336,-0.19969077,0.162783,731.31866,817.5458,807.8755,761.9414,659.19415,-0.13702392578125,0.0181884765625,0.99554443359375,3.529052734375,-5.330963134765625,0.4486083984375,1,1.0,1.0,1.0,1.0,100.00
2021-04-14 22:15:53.662,0.47429743,0.48756623,0.6018122,0.10595568,0.2175657,0.35577106,0.2943335,0.21236031,0.45531726,0.32633957,0.3349758,0.39818147,0.24148141,0.46351334,0.22103448,0.34274262,-0.116659336,-0.06555622,-0.2972988,-0.27421162,864.2857,805.8608,794.9817,840.9158,728.9011,-0.136962890625,0.01800537109375,0.99310302734375,4.14215087890625,-3.985137939453125,0.620574951171875,1,1.0,1.0,1.0,1.0,100.00
2021-04-14 22:15:54.190,0.4887462,0.55629206,0.4740805,-0.018012557,0.13856311,0.2894293,0.27613872,0.20190178,0.45531726,0.16073753,0.2818212,0.39818147,0.279252,0.5071882,0.13843052,0.41526037,-0.13411027,-0.03855073,-0.3982084,-0.30039895,790.54944,794.9817,800.2198,834.87177,994.0293,-0.13995361328125,0.01953125,0.99127197265625,4.50103759765625,-4.643096923828125,0.6280517578125,1,1.0,1.0,1.0,1.0,100.00
2021-04-14 22:15:54.226,,,,,,,,,,,,,,,,,,,,,,,,,,,,,,,,,,,,,,/muse/elements/blink
