TimeStamp,Delta_TP9,Delta_AF7,Delta_AF8,Delta_TP10,Theta_TP9,Theta_AF7,Theta_AF8,Theta_TP10,Alpha_TP9,Alpha_AF7,Alpha_AF8,Alpha_TP10,Beta_TP9,Beta_AF7,Beta_AF8,Beta_TP10,Gamma_TP9,Gamma_AF7,Gamma_AF8,Gamma_TP10,RAW_TP9,RAW_AF7,RAW_AF8,RAW_TP10,AUX_RIGHT,Accelerometer_X,Accelerometer_Y,Accelerometer_Z,Gyro_X,Gyro_Y,Gyro_Z,HeadBandOn,HSI_TP9,HSI_AF7,HSI_AF8,HSI_TP10,Battery,Elements
2021-04-20 22:28:56.463,1.0002711,-0.057241354,0.111987084,0.9377198,1.1380917,0.35917872,-0.0062575634,0.9554462,1.1005353,0.75800973,0.13884628,1.0964499,0.510309,0.4322218,0.19489634,0.6308038,-0.22168957,-0.186549,-0.27359107,0.025239397,825.2015,818.7546,813.1135,845.34796,873.5531,0.43536376953125,-0.08514404296875,0.9012451171875,3.760833740234375,-3.6187744140625,0.28411865234375,1,1.0,1.0,1.0,1.0,100.00
2021-04-20 22:28:56.975,1.1495931,-0.08767803,0.111681245,1.0833677,1.0467184,0.20873582,-0.02339968,0.95585006,1.0889006,0.7558337,0.08992703,1.0792713,0.47590312,0.401472,0.07636543,0.49405485,-0.27191123,-0.13022022,-0.24226686,0.046768714,804.2491,822.7839,793.36993,792.1612,634.21246,0.39666748046875,-0.09686279296875,0.9178466796875,-0.9869384765625,-0.82244873046875,2.100982666015625,1,1.0,1.0,1.0,1.0,100.00
2021-04-20 22:28:57.485,1.092983,0.1264906,0.07699496,0.88035643,0.7704958,-0.06710262,-0.10039932,0.64420044,1.0394734,0.18750438,0.22441879,0.9283706,0.45086643,0.31382644,0.08901751,0.3832803,-0.25143176,-0.10868227,-0.14722173,0.059221063,781.28204,789.34064,800.2198,755.09155,760.7326,0.3651123046875,-0.1727294921875,0.93035888671875,-2.01873779296875,4.5758056640625,-1.846771240234375,1,1.0,1.0,1.0,1.0,100.00
2021-04-20 22:28:57.964,,,,,,,,,,,,,,,,,,,,,,,,,,,,,,,,,,,,,,/muse/elements/blink
2021-04-20 22:28:57.995,0.854981,0.5922626,0.21597376,1.0129292,0.51328456,0.14893502,-0.09837971,0.6061392,0.863346,0.34927425,0.17180488,0.7479666,0.46669862,0.28831637,0.15978509,0.3630601,-0.22336403,-0.1254348,-0.11246956,0.026204702,805.05493,812.3077,811.0989,813.1135,742.6007,0.26275634765625,-0.1429443359375,0.967529296875,11.357269287109375,10.340423583984375,-17.83966064453125,1,1.0,1.0,1.0,1.0,100.00
2021-04-20 22:28:58.509,0.8097402,0.7972889,0.7210867,1.3177907,0.8490871,0.6709433,0.37507883,1.1791043,1.0864539,0.566679,0.36955082,1.2740643,0.3521639,0.22653465,0.13528548,0.4671675,-0.3431001,-0.059898905,-0.12726502,-0.074651144,831.6484,830.84247,799.011,832.4542,852.1978,0.1485595703125,-0.05810546875,0.9969482421875,6.400146484375,5.45806884765625,4.194488525390625,1,1.0,1.0,1.0,1.0,100.00
2021-04-20 22:28:59.021,0.7305838,0.79251266,0.8133796,1.3456823,0.7643561,0.7511409,0.41058913,1.2571473,1.0949618,0.5744802,0.42475402,1.2740643,0.35068482,0.20074467,0.10750217,0.50293744,-0.36137375,-0.12368266,-0.18000512,-0.27614662,815.12823,805.4579,812.3077,814.7253,782.49084,0.0732421875,0.00848388671875,0.99652099609375,14.46014404296875,2.19818115234375,55.8966064453125,1,1.0,1.0,1.0,1.0,100.00
2021-04-20 22:28:59.533,0.6500142,0.6846319,0.81645083,1.1891134,0.61628467,0.7228107,0.43182254,1.125808,1.0949618,0.56297207,0.5463361,1.2661432,0.3587174,0.26707774,0.09134762,0.5553334,-0.29563075,-0.16037194,-0.18829703,-0.27538535,799.81683,813.5165,817.9487,803.0403,564.5055,-0.0556640625,-0.01007080078125,0.99237060546875,7.574005126953125,7.8955078125,43.761749267578125,1,1.0,1.0,1.0,1.0,100.00
2021-04-20 22:29:00.038,0.48897532,0.42647773,0.46192664,0.8054871,0.33878508,0.30712166,0.016142186,0.6943703,0.7344499,0.45161432,0.5184896,1.1926322,0.3155208,0.2553693,0.12764753,0.55016345,-0.21566327,-0.3179152,-0.13901599,-0.21873927,792.5641,794.57874,795.38464,780.07324,721.6484,-0.00372314453125,0.02020263671875,0.9976806640625,3.63372802734375,-0.31402587890625,47.440338134765625,1,1.0,1.0,1.0,1.0,100.00
2021-04-20 22:29:00.551,0.41710272,0.33474457,0.26459426,0.51771635,0.31493464,0.08186505,-0.1767865,0.31891418,0.38875577,0.31349668,0.46932164,0.73648477,0.20492332,0.2812878,0.08969923,0.5372128,-0.21603611,-0.314357,-0.07473754,-0.1617366,779.67035,812.71063,806.26373,799.81683,770.40295,-0.1685791015625,0.05755615234375,0.9935302734375,3.6785888671875,1.622467041015625,32.995147705078125,1,1.0,1.0,1.0,1.0,100.00
2021-04-20 22:29:01.054,0.5516907,0.3862462,0.20118198,0.4548131,0.43253812,0.010868985,-0.17586666,0.21015629,0.42767164,0.017232329,0.24611782,0.6438939,0.12706104,0.2741847,0.14553003,0.4992879,-0.082175136,-0.3093319,0.027015012,-0.072439864,781.685,814.7253,808.2784,835.6777,817.9487,-0.155029296875,0.05462646484375,0.98919677734375,2.953338623046875,-6.62445068359375,8.516082763671875,1,1.0,1.0,1.0,1.0,100.00
2021-04-20 22:29:01.577,0.5724126,0.36868727,0.3053289,0.36618954,0.36208957,-0.031241072,-0.068207696,0.27785,0.40101635,0.029309263,0.17649789,0.5669006,0.097458534,0.33876196,0.19187993,0.3861376,-0.02123454,-0.30376703,0.1897702,-0.12506808,810.293,801.02563,800.6227,763.1502,818.3516,-0.171875,0.10235595703125,0.99310302734375,8.4637451171875,-2.878570556640625,4.6954345703125,1,1.0,1.0,1.0,1.0,100.00
2021-04-20 22:29:02.092,0.57534814,0.46701878,0.35826066,0.37775728,0.36669675,0.01529833,0.0976222,0.3635388,0.4464949,0.24184322,0.2503882,0.5181299,0.14042975,0.3127683,0.23463234,0.41772664,-0.032179866,-0.20226304,0.20966636,-0.13997644,803.0403,801.4286,815.5311,819.15753,919.4872,-0.20660400390625,0.07183837890625,0.97650146484375,8.306732177734375,-4.7552490234375,-21.712646484375,1,1.0,1.0,1.0,1.0,100.00
2021-04-20 22:29:02.613,0.59800744,0.5427366,0.43926096,0.37732416,0.33021402,0.07211851,0.2348862,0.40172845,0.5313268,0.31461492,0.36367163,0.48897886,0.21802573,0.2813234,0.1581995,0.3859608,-0.16690917,-0.10762193,0.2189998,-0.19540854,782.8938,817.9487,815.5311,852.6007,751.06226,-0.2559814453125,0.106689453125,0.95074462890625,13.495635986328125,-1.727142333984375,-31.29791259765625,1,1.0,1.0,1.0,1.0,100.00
2021-04-20 22:29:03.121,0.6653096,0.6359384,0.37093538,0.4655284,0.2955237,0.06487918,0.26237562,0.3340981,0.5174179,0.31461492,0.37953103,0.57229686,0.22514038,0.28231394,0.15178052,0.4046145,-0.29451376,-0.04668191,0.10845637,-0.15823305,790.9524,794.57874,801.4286,832.0513,998.46155,-0.27960205078125,0.126220703125,0.9697265625,10.09368896484375,-0.897216796875,-25.159454345703125,1,1.0,1.0,1.0,1.0,100.00
2021-04-20 22:29:03.630,0.6680698,0.5357025,0.28269222,0.48724532,0.38001475,-0.058367338,0.22366369,0.2976898,0.5070465,0.21993677,0.3763047,0.5861727,0.25505018,0.28518274,0.23218901,0.34010658,-0.3446373,-0.14427143,0.17364477,-0.1333214,800.2198,811.50183,805.8608,867.9121,844.1392,-0.3934326171875,0.1240234375,0.94561767578125,8.994598388671875,9.981536865234375,6.44500732421875,1,1.0,1.0,1.0,1.0,100.00
2021-04-20 22:29:04.056,,,,,,,,,,,,,,,,,,,,,,,,,,,,,,,,,,,,,,/muse/elements/blink
2021-04-20 22:29:04.149,0.54367703,0.40004304,0.15440427,0.46774015,0.42937908,0.073162474,0.055820975,0.3149916,0.524408,0.26600987,0.33442253,0.5708428,0.15141697,0.31019843,0.22234213,0.25419295,-0.3965039,-0.21900257,0.14090683,-0.08679842,839.304,808.68134,791.3553,800.6227,669.2674,-0.3768310546875,0.10980224609375,0.92913818359375,5.390777587890625,-10.893707275390625,-2.64678955078125,1,1.0,1.0,1.0,1.0,100.00
2021-04-20 22:29:04.651,0.24703309,0.6127774,0.7338449,0.3342529,0.5065607,0.41738892,0.27973345,0.2815472,0.50681734,0.34542087,0.2536548,0.54599833,0.1937251,0.27877915,0.21427894,0.27749076,-0.44758695,-0.1669346,0.16296028,-0.0629715,803.0403,806.6667,793.7729,806.26373,851.79486,-0.359130859375,0.068359375,0.9219970703125,2.669219970703125,1.607513427734375,-1.547698974609375,1,1.0,1.0,1.0,1.0,100.00
2021-04-20 22:29:05.153,0.28985897,0.82128644,0.820777,0.42022744,0.5680639,0.5999987,0.4204272,0.18383443,0.48173767,0.42636037,0.41192764,0.28419766,0.08521609,0.2799487,0.1003078,0.25077355,-0.44054267,-0.079060085,0.013506965,0.022922553,792.5641,798.60803,794.9817,844.94507,837.6923,-0.3533935546875,0.08892822265625,0.9337158203125,2.572021484375,-10.774078369140625,-0.127105712890625,1,1.0,1.0,1.0,1.0,100.00
2021-04-20 22:29:05.519,,,,,,,,,,,,,,,,,,,,,,,,,,,,,,,,,,,,,,/muse/elements/blink
2021-04-20 22:29:05.679,0.28985897,0.918881,0.87390363,0.42022744,0.5680639,0.6475391,0.54254895,0.18383443,0.48173767,0.4378273,0.4526378,0.28419766,0.08521609,0.24768029,0.20667493,0.25077355,-0.44054267,0.043694746,0.09092735,0.022922553,828.8278,807.47253,805.05493,841.7216,812.71063,-0.23431396484375,-0.04132080078125,0.9595947265625,11.132965087890625,-3.237457275390625,11.40960693359375,1,1.0,1.0,1.0,1.0,100.00
2021-04-20 22:29:06.186,0.28985897,1.0604546,1.1072954,0.42022744,0.5680639,0.94055766,0.85412335,0.18383443,0.48173767,0.5480654,0.5566377,0.28419766,0.08521609,0.1385309,0.27286497,0.25077355,-0.44054267,-0.040632065,0.08368052,0.022922553,784.10254,816.337,806.6667,762.3443,618.9011,-0.2750244140625,0.02825927734375,0.93829345703125,5.091705322265625,-7.693634033203125,-2.64678955078125,1,1.0,1.0,1.0,1.0,100.00
2021-04-20 22:29:06.694,0.28985897,0.94609547,1.0680459,0.42022744,0.5680639,0.8855318,0.7764984,0.18383443,0.48173767,0.50981814,0.49044734,0.28419766,0.08521609,0.007456385,0.31021395,0.25077355,-0.44054267,-0.048637822,0.06848768,0.022922553,804.65204,805.05493,797.8022,753.47986,655.56775,-0.326904296875,0.03533935546875,0.95159912109375,6.14593505859375,-1.854248046875,-3.6785888671875,1,2.0,1.0,1.0,2.0,100.00
2021-04-20 22:29:07.213,0.42189756,0.7662283,1.0321418,0.56444865,0.36354402,0.7651189,0.71738344,0.5316655,0.25740132,0.5015485,0.44887972,0.4614555,0.12637255,0.08189581,0.34110296,0.25986448,-0.33541146,-0.09549894,-0.0049214126,-0.13753508,792.96704,801.8315,797.3993,782.8938,853.4066,-0.3310546875,0.025146484375,0.94110107421875,4.717864990234375,-5.7122802734375,-1.39068603515625,1,1.0,1.0,1.0,1.0,100.00
2021-04-20 22:29:07.519,,,,,,,,,,,,,,,,,,,,,,,,,,,,,,,,,,,,,,/muse/elements/blink
2021-04-20 22:29:07.725,0.3838658,0.550241,0.32175368,0.5329266,0.35528347,0.10390269,-0.029348878,0.49454823,0.25740132,0.26962155,0.20391001,0.48963222,0.12009705,0.18849145,0.32670373,0.25082117,-0.3554155,0.024136921,0.038946494,-0.16567674,843.73627,813.1135,810.696,877.5824,861.4652,-0.34112548828125,-0.00341796875,0.94537353515625,-3.147735595703125,-8.874969482421875,6.11602783203125,1,1.0,1.0,1.0,1.0,100.00
2021-04-20 22:29:08.234,0.12605345,0.83431417,0.38973206,0.3941019,0.38843885,0.18203275,0.08837345,0.41329247,0.24095142,0.26962155,0.042962622,0.44480813,0.084839895,0.2525868,0.3319852,0.2505849,-0.4114443,0.042562112,0.103262655,-0.19458555,812.3077,807.47253,793.7729,837.28937,828.4249,-0.3126220703125,3.0517578125E-4,0.95245361328125,5.540313720703125,-6.65435791015625,6.273040771484375,1,1.0,1.0,1.0,1.0,100.00
2021-04-20 22:29:08.745,0.05134329,0.8682249,0.67845875,0.3450373,0.38099813,0.2282519,0.21064442,0.34026024,0.2133526,0.25665167,0.031374548,0.42620143,0.046754714,0.1994926,0.25489384,0.23081735,-0.4514002,0.03916607,0.098398425,-0.23831514,788.93774,799.41394,805.8608,763.5531,979.5238,-0.307373046875,0.01654052734375,0.958740234375,7.31231689453125,-2.803802490234375,3.768310546875,1,1.0,1.0,1.0,1.0,100.00
2021-04-20 22:29:09.260,0.05134329,0.80323154,0.6031798,0.3450373,0.38099813,0.16438329,-0.13750271,0.34026024,0.2133526,0.1878907,-0.008335043,0.42620143,0.046754714,0.16047886,0.050558377,0.23081735,-0.4514002,-0.014456446,0.031603124,-0.23831514,680.14655,794.57874,835.6777,731.31866,921.0989,-0.27984619140625,0.027099609375,0.95709228515625,1.60003662109375,-5.136566162109375,-2.03369140625,1,1.0,1.0,1.0,1.0,100.00
2021-04-20 22:29:09.363,,,,,,,,,,,,,,,,,,,,,,,,,,,,,,,,,,,,,,/muse/elements/blink
2021-04-20 22:29:09.777,0.05134329,0.2739661,0.56775963,0.3450373,0.38099813,0.013553485,-0.1292571,0.34026024,0.2133526,0.004329482,0.042606313,0.42620143,0.046754714,0.15970944,0.060723796,0.23081735,-0.4514002,-0.033856202,0.057403523,-0.23831514,796.5934,810.696,803.0403,815.9341,914.65204,-0.30206298828125,0.04632568359375,0.95208740234375,4.08233642578125,-4.314117431640625,1.65985107421875,1,1.0,1.0,1.0,1.0,100.00
2021-04-20 22:29:10.286,0.05134329,0.3323296,0.48297888,0.3450373,0.38099813,-0.059001196,-0.24281767,0.34026024,0.2133526,-0.063606314,0.009521259,0.42620143,0.046754714,0.15117024,0.028779231,0.23081735,-0.4514002,-0.011596171,0.07632004,-0.23831514,800.2198,814.7253,806.26373,782.0879,606.8132,-0.30780029296875,0.061279296875,0.95379638671875,4.493560791015625,-3.289794921875,1.9439697265625,1,2.0,1.0,1.0,2.0,100.00
2021-04-20 22:29:10.777,,,,,,,,,,,,,,,,,,,,,,,,,,,,,,,,,,,,,,/muse/elements/blink
2021-04-20 22:29:10.790,0.05134329,0.37694043,0.42913353,0.3450373,0.38099813,0.31426206,0.05212224,0.34026024,0.2133526,-0.0027005551,-0.040921357,0.42620143,0.046754714,0.12681027,0.25841615,0.23081735,-0.4514002,-0.21242815,-0.014407788,-0.23831514,901.75824,841.31866,774.83514,847.3626,629.7802,-0.31640625,0.0677490234375,0.94244384765625,4.88983154296875,-3.192596435546875,1.443023681640625,1,2.0,1.0,1.0,2.0,100.00
2021-04-20 22:29:11.301,0.05134329,0.37694043,0.42913353,0.3450373,0.38099813,0.31426206,0.05212224,0.34026024,0.2133526,-0.0027005551,-0.040921357,0.42620143,0.046754714,0.12681027,0.25841615,0.23081735,-0.4514002,-0.21242815,-0.014407788,-0.23831514,809.89014,798.20514,799.41394,796.1905,844.94507,-0.3248291015625,0.07281494140625,0.9459228515625,3.70849609375,-3.730926513671875,-0.067291259765625,1,2.0,1.0,1.0,2.0,100.00
2021-04-20 22:29:11.818,0.05134329,0.31982526,0.42913353,0.3450373,0.38099813,0.29965702,0.05212224,0.34026024,0.2133526,0.06462059,-0.040921357,0.42620143,0.046754714,0.10536655,0.25841615,0.23081735,-0.4514002,-0.1314533,-0.014407788,-0.23831514,796.5934,814.7253,804.2491,848.5714,896.1172,-0.30902099609375,0.068603515625,0.9500732421875,4.448699951171875,-5.682373046875,-0.082244873046875,1,2.0,1.0,1.0,2.0,100.00
2021-04-20 22:29:12.324,0.05134329,-0.011641188,0.32229766,0.3450373,0.38099813,0.07698563,-0.1684157,0.34026024,0.2133526,-0.08487438,0.34082177,0.42620143,0.046754714,0.060877796,0.32006776,0.23081735,-0.4514002,-0.08996846,-0.031073498,-0.23831514,802.23444,813.5165,797.3993,834.0659,761.53845,-0.30859375,0.0628662109375,0.95330810546875,3.2598876953125,-4.88983154296875,1.084136962890625,1,2.0,1.0,1.0,2.0,100.00
2021-04-20 22:29:12.844,0.3260004,0.504336,0.36527184,0.42575648,0.1719633,0.23703966,-0.1492457,0.0988385,0.67922515,0.4682697,0.39496332,0.51495475,0.013069758,0.106069095,0.3343905,0.22886877,-0.19729833,-0.1781532,-0.03218946,-0.05845348,797.3993,800.2198,806.6667,774.83514,634.21246,-0.29010009765625,0.06390380859375,0.9578857421875,4.433746337890625,-3.940277099609375,1.18133544921875,1,1.0,1.0,1.0,1.0,100.00
2021-04-20 22:29:13.362,0.24942982,0.5620567,0.3285362,0.29097947,0.07377079,0.1686439,-0.19258489,0.032101914,0.76102823,0.4724903,0.3968399,0.51974666,0.1313359,0.17032667,0.24404556,0.28094053,-0.2661467,-0.2721019,-0.019283926,-0.065043844,807.0696,813.5165,797.3993,754.68866,626.55676,-0.289794921875,0.0604248046875,0.96112060546875,4.747772216796875,-3.970184326171875,1.06170654296875,1,1.0,1.0,1.0,1.0,100.00
2021-04-20 22:29:13.629,,,,,,,,,,,,,,,,,,,,,,,,,,,,,,,,,,,,,,/muse/elements/blink
2021-04-20 22:29:13.890,0.17345403,0.56978935,0.5508764,0.13262855,0.007584617,0.20723526,0.07513414,0.016884554,0.76102823,0.4726684,0.477184,0.47916558,0.17100342,0.22846009,0.20557536,0.32043034,-0.26249838,-0.16027695,0.026457164,-0.042937383,811.9048,806.26373,801.8315,803.44324,854.21246,-0.3031005859375,0.07550048828125,0.9515380859375,7.0880126953125,-1.30096435546875,3.611297607421875,1,1.0,1.0,1.0,1.0,100.00
2021-04-20 22:29:14.398,0.08922646,0.43049812,0.8046522,-0.088064775,-0.15238054,0.18413436,0.3876125,-0.10206205,0.5544987,0.400257,0.484402,0.19985549,0.27166182,0.24806748,0.1624789,0.35311133,-0.40572354,-0.060810395,0.10363594,-0.07580097,800.2198,798.20514,803.8461,870.32965,1296.227,-0.338134765625,0.12225341796875,0.94073486328125,7.319793701171875,-4.605712890625,1.532745361328125,1,1.0,1.0,1.0,1.0,100.00
2021-04-20 22:29:14.857,,,,,,,,,,,,,,,,,,,,,,,,,,,,,,,,,,,,,,/muse/elements/blink
2021-04-20 22:29:14.902,0.020841515,0.1810787,0.77385896,-0.112305105,-0.22952867,0.2575193,0.40685892,-0.13072209,0.5449896,0.20374925,0.48435217,0.04951295,0.31854194,0.20115627,0.2252218,0.34557447,-0.38996068,-0.017018115,0.10485147,-0.09962882,841.7216,805.05493,794.17584,793.36993,599.9634,-0.31463623046875,0.11572265625,0.94635009765625,3.18511962890625,-6.422576904296875,-0.874786376953125,1,1.0,1.0,1.0,1.0,100.00
2021-04-20 22:29:15.418,0.020841515,0.25387305,0.8435753,-0.112305105,-0.22952867,0.2918023,0.5795442,-0.13072209,0.5449896,0.27828518,0.47816187,0.04951295,0.31854194,0.20140782,0.2156905,0.34557447,-0.38996068,-0.045042846,0.17970909,-0.09962882,807.8755,788.93774,796.5934,782.49084,773.6264,-0.310791015625,0.10211181640625,0.94720458984375,4.119720458984375,-4.71038818359375,0.49346923828125,1,1.0,1.0,1.0,1.0,100.00
2021-04-20 22:29:15.924,0.020841515,0.120466925,0.6471588,-0.112305105,-0.22952867,0.18113609,0.42884508,-0.13072209,0.5449896,0.29338792,0.35776314,0.04951295,0.31854194,0.16841364,0.19165015,0.34557447,-0.38996068,-0.025530208,0.14474978,-0.09962882,799.011,807.8755,793.36993,751.06226,902.5641,-0.302978515625,0.11163330078125,0.94940185546875,3.656158447265625,-6.11602783203125,-0.336456298828125,1,1.0,1.0,1.0,1.0,100.00
2021-04-20 22:29:16.458,0.14521515,0.27624562,0.6670738,0.1292589,0.40009302,0.10737079,0.43966442,0.33696055,0.20576842,0.2796789,0.35776314,0.15844567,0.24650495,0.15676981,0.23104753,0.058667444,-0.27526668,-0.0037832242,0.20799387,-0.13313429,799.011,805.4579,799.81683,794.17584,789.7436,-0.27447509765625,0.0758056640625,0.960693359375,3.357086181640625,-8.3441162109375,-2.3626708984375,1,1.0,1.0,1.0,1.0,100.00
2021-04-20 22:29:16.960,0.07993656,0.31072366,0.317711,0.1702632,0.31163546,-0.050058022,0.067867994,0.24409132,0.2747512,0.21086648,0.075454,0.38945928,0.20855412,0.1158726,0.2256328,0.05799104,-0.27473006,-0.055003587,0.13494699,-0.16352072,807.8755,809.89014,800.2198,849.7802,896.1172,-0.242919921875,0.068603515625,0.9754638671875,5.00946044921875,-4.02252197265625,1.77947998046875,1,1.0,1.0,1.0,1.0,100.00
2021-04-20 22:29:17.468,0.34484255,0.42882428,0.1901273,0.23670702,0.29992053,-0.04683127,0.08955938,0.23274718,0.2747512,0.25196815,0.20875819,0.4782494,0.16257314,0.17462537,0.2168783,0.2192221,-0.27812594,-0.14700808,0.06719019,-0.22795002,815.12823,815.9341,802.23444,760.32965,643.8828,-0.2342529296875,0.05780029296875,0.9676513671875,4.5458984375,-6.213226318359375,-2.52716064453125,1,1.0,1.0,1.0,1.0,100.00
2021-04-20 22:29:17.980,0.3903692,0.42041865,0.2396942,0.3046315,0.1373026,-0.012064879,0.14701702,0.16789226,0.28458408,0.30164817,0.33069593,0.5199366,0.0926594,0.19459343,0.1977214,0.27373955,-0.29637694,-0.19147432,-0.034526248,-0.2480638,766.3736,804.65204,805.8608,732.1245,683.7729,-0.2498779296875,0.05963134765625,0.96844482421875,4.702911376953125,-3.03558349609375,-0.456085205078125,1,1.0,1.0,1.0,1.0,100.00
2021-04-20 22:29:18.044,,,,,,,,,,,,,,,,,,,,,,,,,,,,,,,,,,,,,,/muse/elements/blink
2021-04-20 22:29:18.500,0.46194825,0.5854701,0.7757457,0.31686687,0.08711502,0.3854576,0.6283211,0.20415439,0.14513618,0.63651156,0.43627676,0.49066174,0.071315005,0.22772469,0.30777836,0.34910432,-0.31213087,-0.21289459,-0.04898591,-0.25555077,804.2491,809.0842,805.4579,759.5238,682.96704,-0.2403564453125,0.06170654296875,0.97137451171875,4.4561767578125,-4.20196533203125,1.7645263671875,1,1.0,1.0,1.0,1.0,100.00
2021-04-20 22:29:19.010,0.23486651,0.6419717,0.8806385,0.3623396,-0.3093552,0.47563362,0.6944114,0.111780934,0.11055391,0.5940788,0.43554443,0.3230886,0.08672237,0.19114617,0.3754409,0.17834547,-0.3398612,-0.264459,-0.025645994,-0.12696439,807.47253,823.1868,805.8608,814.7253,802.23444,-0.24029541015625,0.06341552734375,0.97369384765625,4.358978271484375,-4.568328857421875,1.712188720703125,1,1.0,1.0,1.0,1.0,100.00
2021-04-20 22:29:19.542,-0.19370604,0.6763057,0.87053525,0.23779793,-0.09369391,0.4500707,0.68943346,0.30832157,0.13092074,0.57115805,0.3603036,0.2785644,0.16240849,0.2167326,0.3556967,0.34422827,-0.33654067,-0.18808664,-0.12696885,-0.38447532,651.9414,781.28204,851.39197,714.3956,786.1172,-0.23236083984375,0.06005859375,0.97540283203125,3.940277099609375,-4.71038818359375,-0.142059326171875,1,1.0,1.0,1.0,1.0,100.00
2021-04-20 22:29:19.726,,,,,,,,,,,,,,,,,,,,,,,,,,,,,,,,,,,,,,/muse/elements/blink
2021-04-20 22:29:20.062,-0.19370604,0.80361396,0.8271807,0.23779793,-0.09369391,0.6723292,0.712717,0.30832157,0.13092074,0.4396961,0.63356036,0.2785644,0.16240849,0.13710092,0.31092486,0.34422827,-0.33654067,-0.07390801,-0.09450237,-0.38447532,815.5311,820.3663,814.7253,819.9634,747.03296,-0.24359130859375,0.0550537109375,0.9732666015625,4.77020263671875,-4.5758056640625,0.770111083984375,1,1.0,1.0,1.0,1.0,100.00
2021-04-20 22:29:20.569,-0.19370604,0.8789209,0.9742056,0.23779793,-0.09369391,0.7910461,0.9019633,0.30832157,0.13092074,0.36743122,0.63726807,0.2785644,0.16240849,0.15572932,0.225678,0.34422827,-0.33654067,-0.03060266,-0.036029845,-0.38447532,808.68134,810.696,815.5311,777.25275,581.8315,-0.23553466796875,0.06048583984375,0.97283935546875,4.5458984375,-5.323486328125,1.375732421875,1,1.0,1.0,1.0,1.0,100.00
2021-04-20 22:29:21.082,-0.19370604,0.84652793,0.995234,0.23779793,-0.09369391,0.7860825,0.8948873,0.30832157,0.13092074,0.38864776,0.63709676,0.2785644,0.16240849,0.18440461,0.33689058,0.34422827,-0.33654067,-0.091629036,-0.04231506,-0.38447532,801.8315,795.78754,801.4286,767.1795,884.43225,-0.2452392578125,0.0535888671875,0.97430419921875,4.2169189453125,-3.0804443359375,1.248626708984375,1,1.0,1.0,1.0,1.0,100.00
2021-04-20 22:29:21.606,0.14709143,0.615196,0.72730494,0.107768506,0.33657256,0.47351113,0.56005347,0.034924764,0.55322397,0.38756207,0.60779655,0.37669265,0.2816372,0.18864922,0.4149609,0.41103393,-0.34915802,-0.21794428,-0.018392064,-0.13718286,792.96704,798.60803,807.8755,817.5458,734.5421,-0.238525390625,0.05792236328125,0.973388671875,4.972076416015625,-5.854339599609375,2.03369140625,1,1.0,1.0,1.0,1.0,100.00
2021-04-20 22:29:21.991,,,,,,,,,,,,,,,,,,,,,,,,,,,,,,,,,,,,,,/muse/elements/blink
2021-04-20 22:29:22.111,0.18142678,0.49375352,0.29557723,0.12444348,0.3474193,0.2637177,-0.09473897,0.045886632,0.55322397,0.31468254,0.38018844,0.37669265,0.27569994,0.23699476,0.41577733,0.41134313,-0.33710358,-0.26828587,-0.01866887,-0.12883177,824.7985,809.89014,799.41394,865.4945,776.8498,-0.23907470703125,0.057861328125,0.97265625,4.80010986328125,-4.179534912109375,0.6280517578125,1,1.0,1.0,1.0,1.0,100.00
2021-04-20 22:29:22.622,0.23317118,0.97545254,0.26738596,0.14868136,0.39189976,0.71737254,-0.13975133,0.04730496,0.37649104,0.28930724,0.38018844,0.237271,0.18185794,0.17779472,0.41090083,0.449131,-0.24531794,-0.15134065,0.08155912,-0.12708917,805.8608,805.05493,805.05493,807.47253,751.8681,-0.23931884765625,0.064453125,0.9725341796875,4.867401123046875,-4.3963623046875,1.136474609375,1,1.0,1.0,1.0,1.0,100.00
2021-04-20 22:29:23.139,0.29086182,0.97191226,0.4472308,0.19027726,0.4298864,0.7027986,0.0047975015,0.07714931,0.36569646,0.39211327,0.022850055,0.15803948,0.19976488,0.20504785,0.30145082,0.4676905,-0.19028817,-0.07192529,0.04238727,-0.15996028,804.2491,807.8755,807.0696,820.7692,831.2454,-0.23101806640625,0.06011962890625,0.97308349609375,4.643096923828125,-3.84307861328125,1.3458251953125,1,1.0,1.0,1.0,1.0,100.00
2021-04-20 22:29:23.653,0.34135556,1.0243815,0.75927645,0.33501804,0.23053282,0.674548,-0.017626835,0.23534687,0.51474106,0.49242142,0.015768273,-0.10268528,0.053190727,0.17255548,0.37956256,0.23706798,-0.1517641,-0.026765872,0.013274118,-0.10681237,807.0696,807.0696,817.1429,851.39197,846.1539,-0.23052978515625,0.05877685546875,0.970947265625,4.5159912109375,-4.11224365234375,1.293487548828125,1,1.0,1.0,1.0,1.0,100.00
2021-04-20 22:29:24.157,0.19698524,0.77290154,0.67501754,0.41506937,0.13910411,0.2718343,-0.10608388,0.3095394,0.53332126,0.4541632,0.30676422,0.2957867,0.08881949,0.1764209,0.43059227,0.18641454,-0.15243922,-0.09594641,-0.06241485,-0.07765545,814.7253,817.5458,798.20514,819.15753,644.2857,-0.23553466796875,0.05523681640625,0.97406005859375,3.78326416015625,-3.581390380859375,0.695343017578125,1,1.0,1.0,1.0,1.0,100.00
2021-04-20 22:29:24.686,0.10096753,0.92288727,0.71933305,0.5325781,0.011358181,0.39160323,0.094384305,0.32257295,0.5558516,0.45996577,0.36797482,0.4173398,0.18226,0.27973723,0.3851157,0.23245004,-0.06531768,-0.12757532,-0.06916424,-0.07897244,815.5311,816.337,809.4872,763.1502,552.4176,-0.24114990234375,0.056396484375,0.97723388671875,4.927215576171875,-5.69732666015625,1.79443359375,1,1.0,1.0,1.0,1.0,100.00
2021-04-20 22:29:25.193,0.0048285155,0.74804956,0.4747812,0.52020085,-0.022707913,0.27105325,0.06483212,0.26638675,0.2739883,0.24394248,0.36797482,0.45278102,0.17940658,0.2766017,0.31457776,0.22936209,-0.12249104,-0.21999052,-0.030328648,-0.11736374,807.0696,819.9634,801.8315,786.1172,721.6484,-0.23052978515625,0.0631103515625,0.9736328125,4.553375244140625,-4.80010986328125,0.4486083984375,1,1.0,1.0,1.0,1.0,100.00
2021-04-20 22:29:25.707,0.032169603,0.59038156,0.3401305,0.47024992,0.08152839,0.19722301,0.049575377,0.3195125,0.27362588,0.3391234,0.28344208,0.40066585,0.11586788,0.32310748,0.19485086,0.26475492,-0.24386747,-0.20037127,-0.027598156,-0.21338595,811.50183,822.7839,799.41394,766.77655,672.0879,-0.2352294921875,0.05682373046875,0.97283935546875,4.463653564453125,-4.418792724609375,0.859832763671875,1,1.0,1.0,1.0,1.0,100.00
2021-04-20 22:29:26.208,0.25753903,0.3315525,0.045073695,0.335266,0.18079741,0.16503353,-0.13680208,0.31965387,0.2402693,0.35865352,0.261219,0.5201866,0.031316556,0.2795264,0.24839501,0.2691815,-0.34288657,-0.18938687,-0.0098237395,-0.25813043,803.44324,811.0989,811.50183,837.6923,766.3736,-0.2340087890625,0.0595703125,0.9764404296875,4.7552490234375,-4.62066650390625,1.3458251953125,1,1.0,1.0,1.0,1.0,100.00
2021-04-20 22:29:26.714,0.24264753,0.23649745,0.056152854,0.25750953,0.246552,0.072736256,-0.04428324,0.5177338,0.28537774,0.36113653,0.2601244,0.544702,0.052476596,0.24934301,0.18675047,0.24130693,-0.26563397,-0.17082836,-0.12250131,-0.28723213,796.1905,807.47253,809.89014,801.02563,790.54944,-0.22137451171875,0.06329345703125,0.9755859375,4.38140869140625,-3.566436767578125,0.964508056640625,1,1.0,1.0,1.0,1.0,100.00
2021-04-20 22:29:26.835,,,,,,,,,,,,,,,,,,,,,,,,,,,,,,,,,,,,,,/muse/elements/blink
2021-04-20 22:29:27.228,0.35315534,0.12110913,0.47683907,0.15868258,0.2634402,0.050697222,0.31304273,0.53962004,0.2152254,0.31839365,0.24238463,0.5067342,0.09115193,0.23217173,0.19337074,0.25515074,-0.18351296,-0.18613027,-0.043755405,-0.24433804,827.2161,818.3516,803.44324,779.67035,658.3883,-0.23468017578125,0.05706787109375,0.97125244140625,4.88983154296875,-4.306640625,0.85235595703125,1,1.0,1.0,1.0,1.0,100.00
2021-04-20 22:29:27.736,-0.25152388,-0.043341607,0.55775917,-0.1759722,0.30840406,0.09682095,0.38751814,0.6677038,0.18161464,0.32502982,0.23845144,0.32708237,0.044210948,0.23622221,0.14832644,0.10148108,-0.15016343,-0.25011513,0.036477204,-0.30141705,807.47253,802.6374,801.8315,783.69965,702.3077,-0.2286376953125,0.0604248046875,0.97271728515625,4.1571044921875,-4.673004150390625,0.740203857421875,1,1.0,1.0,1.0,1.0,100.00
2021-04-20 22:29:28.245,-0.25152388,0.01647618,0.55793905,-0.1759722,0.30840406,0.17630701,0.3784205,0.6677038,0.18161464,0.32029974,0.2517632,0.32708237,0.044210948,0.3010833,0.2345194,0.10148108,-0.15016343,-0.1649674,0.116952784,-0.30141705,850.58606,813.5165,777.6557,882.8205,1002.8938,-0.23443603515625,0.0574951171875,0.97088623046875,4.35150146484375,-4.80010986328125,0.79254150390625,1,1.0,1.0,1.0,1.0,100.00
2021-04-20 22:29:28.347,,,,,,,,,,,,,,,,,,,,,,,,,,,,,,,,,,,,,,/muse/elements/blink
2021-04-20 22:29:28.764,-0.25152388,0.6284252,0.48630205,-0.1759722,0.30840406,0.65719074,0.30361903,0.6677038,0.18161464,0.61567116,0.26617238,0.32708237,0.044210948,0.31989706,0.2507783,0.10148108,-0.15016343,-0.0829328,0.13659005,-0.30141705,819.9634,813.5165,800.6227,771.2088,567.326,-0.23272705078125,0.0592041015625,0.97222900390625,4.65057373046875,-4.05242919921875,1.143951416015625,1,1.0,1.0,1.0,1.0,100.00
2021-04-20 22:29:29.289,-0.25152388,0.8290605,0.48687208,-0.1759722,0.30840406,0.8182571,0.3406963,0.6677038,0.18161464,0.58479255,0.31333408,0.32708237,0.044210948,0.33185193,0.30088323,0.10148108,-0.15016343,-0.031521216,0.04207227,-0.30141705,810.696,803.0403,796.5934,798.60803,664.0293,-0.224365234375,0.058837890625,0.97576904296875,4.583282470703125,-4.2767333984375,1.21124267578125,1,1.0,1.0,1.0,1.0,100.00
2021-04-20 22:29:29.799,-0.25152388,0.8239009,0.5489489,0.3320511,0.30840406,0.8329906,0.24150296,-0.06863355,0.18161464,0.5877405,0.21637133,0.34591168,0.044210948,0.31246564,0.37627655,0.08883653,-0.15016343,-0.030550545,0.026929345,-0.07830457,815.9341,807.47253,815.12823,775.64105,618.49817,-0.2283935546875,0.06427001953125,0.97564697265625,4.837493896484375,-4.388885498046875,1.256103515625,1,2.0,1.0,1.0,2.0,100.00
2021-04-20 22:29:30.307,0.21214598,0.47324967,0.4329821,0.11464136,0.16668646,0.4997978,0.15135613,0.38268226,0.16468045,0.40004686,0.37398097,0.41888022,0.045782745,0.28248376,0.3993668,0.11462286,-0.20687003,-0.03599356,-0.06262902,-0.11665772,763.5531,813.5165,807.0696,750.65936,762.3443,-0.22796630859375,0.05792236328125,0.97296142578125,3.790740966796875,-3.715972900390625,0.179443359375,1,1.0,1.0,1.0,1.0,100.00
2021-04-20 22:29:30.478,,,,,,,,,,,,,,,,,,,,,,,,,,,,,,,,,,,,,,/muse/elements/blink
2021-04-20 22:29:30.820,0.21214598,0.54187936,0.3912195,0.11464136,0.16668646,0.4371263,0.13052124,0.38268226,0.16468045,0.4190541,0.32264873,0.41888022,0.045782745,0.25125882,0.43099144,0.11462286,-0.20687003,-0.08076009,0.014792658,-0.11665772,806.6667,811.50183,799.41394,844.5421,894.90845,-0.2398681640625,0.05755615234375,0.9739990234375,4.254302978515625,-4.366455078125,1.136474609375,1,1.0,1.0,1.0,1.0,100.00
2021-04-20 22:29:31.323,-0.24346127,0.53845984,0.3559028,-0.34094092,0.3439197,0.39584965,0.25506145,0.5991807,0.095939904,0.41021252,0.35068208,0.17768916,-0.030387675,0.23875344,0.41109234,0.13896357,-0.15512332,-0.14285956,-0.021025082,-0.15872888,806.26373,816.337,809.4872,821.1722,747.03296,-0.2269287109375,0.06500244140625,0.97686767578125,4.41131591796875,-5.1739501953125,0.261688232421875,1,1.0,1.0,1.0,1.0,100.00
2021-04-20 22:29:31.829,-0.24346127,0.4639405,0.27990732,-0.34094092,0.3439197,0.22791752,0.21336916,0.5991807,0.095939904,0.37144947,0.34912863,0.17768916,-0.030387675,0.18379392,0.37172738,0.13896357,-0.15512332,-0.18143082,-4.3971263E-4,-0.15872888,804.2491,813.5165,807.8755,786.1172,661.6117,-0.23638916015625,0.0574951171875,0.973876953125,4.23187255859375,-4.463653564453125,0.934600830078125,1,1.0,1.0,1.0,1.0,100.00
2021-04-20 22:29:32.346,0.31993815,0.16203828,-0.03981172,-0.030285908,-0.2195074,-0.11937377,0.07261456,-0.2827587,0.18612772,0.18785784,0.19451047,0.024310295,0.07400086,0.1486696,0.30199602,0.36577538,-0.19125634,-0.08540736,0.002306622,0.020775802,805.4579,802.23444,806.6667,846.9597,965.82416,-0.2308349609375,0.05938720703125,0.9732666015625,4.299163818359375,-4.433746337890625,1.158905029296875,1,1.0,1.0,1.0,1.0,100.00
2021-04-20 22:29:32.862,0.2927208,0.25715372,-0.04543296,0.1784445,-0.21253347,0.028843706,0.016655324,-0.06488362,0.23065823,0.1754462,0.2781562,0.20211887,0.10012499,0.09433529,0.28635785,0.32033664,-0.22085588,-0.074895516,-0.018262705,-0.055846326,793.7729,808.68134,807.8755,819.5604,739.3773,-0.223388671875,0.05682373046875,0.9742431640625,4.56085205078125,-3.90289306640625,0.306549072265625,1,1.0,1.0,1.0,1.0,100.00
2021-04-20 22:29:33.129,,,,,,,,,,,,,,,,,,,,,,,,,,,,,,,,,,,,,,/muse/elements/blink
2021-04-20 22:29:33.392,0.27604908,0.5735517,0.30516824,0.21619686,-0.22341147,0.24063061,0.2546047,-0.054083135,0.23065823,0.360274,0.47727296,0.1516521,0.14934707,0.2509588,0.21668567,0.32087407,-0.18911959,-0.14971195,0.03332817,-0.07273153,810.696,813.1135,808.2784,794.17584,572.5641,-0.23052978515625,0.0592041015625,0.9732666015625,4.7552490234375,-3.970184326171875,1.039276123046875,1,1.0,1.0,1.0,1.0,100.00
2021-04-20 22:29:33.915,0.24528024,0.5710307,0.3433154,0.38542134,-0.20160303,0.24425238,0.36920303,0.1476172,0.15659304,0.34868985,0.47566518,0.11872636,0.13890699,0.23341574,0.29074422,0.23601425,-0.2728592,-0.31336203,0.05297481,-0.21619202,811.0989,803.8461,810.293,770.80585,684.57874,-0.22613525390625,0.0625,0.97137451171875,4.299163818359375,-4.7552490234375,0.411224365234375,1,1.0,1.0,1.0,1.0,100.00
2021-04-20 22:29:34.346,,,,,,,,,,,,,,,,,,,,,,,,,,,,,,,,,,,,,,/muse/elements/blink
2021-04-20 22:29:34.441,0.26911956,0.54819477,0.37837568,0.4346337,-0.15364923,0.10063066,0.37217587,0.21065487,0.11943039,0.34868985,0.47587726,0.101636164,0.17045708,0.28220037,0.29289612,0.22101356,-0.27372906,-0.388401,0.0022567294,-0.2624029,831.6484,815.5311,800.6227,821.978,785.31134,-0.23284912109375,0.0574951171875,0.97454833984375,4.508514404296875,-4.366455078125,0.83740234375,1,1.0,1.0,1.0,1.0,100.00
2021-04-20 22:29:34.946,0.26911956,0.33733097,0.4826701,0.4346337,-0.15364923,-0.016852949,0.3612272,0.21065487,0.11943039,0.18927556,0.46353534,0.101636164,0.17045708,0.20627442,0.37871236,0.22101356,-0.27372906,-0.24769846,0.09166136,-0.2624029,819.9634,828.4249,780.4762,766.77655,722.4542,-0.22430419921875,0.05670166015625,0.97589111328125,4.5458984375,-5.27862548828125,1.57012939453125,1,1.0,1.0,1.0,1.0,100.00
2021-04-20 22:29:35.457,0.26911956,0.46829823,0.5903628,0.4346337,-0.15364923,0.12572747,0.31534088,0.21065487,0.11943039,0.3460102,0.44943154,0.101636164,0.17045708,0.21202932,0.37165666,0.22101356,-0.27372906,-0.17169337,0.1189847,-0.2624029,808.68134,805.05493,808.68134,833.663,805.8608,-0.22674560546875,0.058837890625,0.974609375,4.463653564453125,-3.887939453125,1.03179931640625,1,1.0,1.0,1.0,1.0,100.00
2021-04-20 22:29:35.992,0.20697188,0.74799126,0.6809254,-0.095291875,0.10491271,0.36555815,0.33971894,-0.092677735,0.41466042,0.40118083,0.43956837,0.20032103,0.04847728,0.21386002,0.3363922,0.34188643,0.005046112,-0.05481254,0.22565241,-0.11040633,798.60803,808.68134,815.12823,783.2967,583.8461,-0.2288818359375,0.058349609375,0.97381591796875,4.673004150390625,-4.26177978515625,1.158905029296875,1,1.0,1.0,1.0,1.0,100.00
2021-04-20 22:29:36.259,,,,,,,,,,,,,,,,,,,,,,,,,,,,,,,,,,,,,,/muse/elements/blink
2021-04-20 22:29:36.504,0.19904062,0.70145684,0.5129059,0.039058395,0.19460577,0.339798,0.23381972,0.004475769,0.45329383,0.38488528,0.27144143,0.2814701,0.07456117,0.21758156,0.33556986,0.33288863,-0.020034153,-0.10592142,0.22609483,-0.07730219,813.5165,809.0842,803.44324,821.1722,698.68134,-0.22076416015625,0.05596923828125,0.97918701171875,4.7552490234375,-4.448699951171875,0.695343017578125,1,1.0,1.0,1.0,1.0,100.00
2021-04-20 22:29:37.005,0.19928998,0.6211283,0.46952736,0.009591156,0.23219588,0.392518,0.2687939,0.02974953,0.45329383,0.29848972,0.05708787,0.26599774,0.06178827,0.23042129,0.2832976,0.31968844,0.005424267,-0.1605374,0.23803294,-0.052171648,803.0403,807.8755,803.0403,774.83514,624.1392,-0.225830078125,0.059814453125,0.9771728515625,4.41131591796875,-4.56085205078125,1.016845703125,1,1.0,1.0,1.0,1.0,100.00
2021-04-20 22:29:37.513,0.13375157,0.3302771,0.32751617,0.09225365,0.33412424,0.3327576,0.30173412,0.09667212,0.45329383,0.118257865,0.29650864,0.26599774,0.08190204,0.24710035,0.2659667,0.3144772,0.009758034,-0.2806432,0.2137165,-0.004033336,805.8608,801.8315,804.2491,850.18317,846.9597,-0.217529296875,0.06414794921875,0.97515869140625,4.957122802734375,-5.084228515625,0.59814453125,1,1.0,1.0,1.0,1.0,100.00
2021-04-20 22:29:38.021,-0.21942073,0.38937125,0.34875304,0.24387656,0.039949186,0.31499738,0.23184639,-0.022439763,0.54837227,0.11624223,0.37608108,0.46749938,0.2421585,0.24945594,0.24624683,0.38176155,-0.33016053,-0.26503202,0.14761111,-0.14392075,808.68134,806.26373,811.50183,834.4689,1040.3663,-0.2252197265625,0.06072998046875,0.9735107421875,4.284210205078125,-3.72344970703125,0.43365478515625,1,1.0,1.0,1.0,1.0,100.00
2021-04-20 22:29:38.532,-0.2553987,0.54087174,0.697569,0.59458596,-0.12338267,0.28545603,0.34760037,0.16644186,0.6909506,0.15136012,0.5122095,0.62384665,0.22819716,0.27672043,0.28719756,0.30642486,-0.341892,-0.22655457,0.115845405,-0.12459397,799.41394,809.89014,807.47253,766.3736,603.5897,-0.22528076171875,0.062255859375,0.97515869140625,4.747772216796875,-4.725341796875,1.375732421875,1,1.0,1.0,1.0,1.0,100.00
2021-04-20 22:29:39.041,0.072336785,0.56402093,0.7792686,0.6048543,-0.018147707,0.24025011,0.31285262,0.15079151,0.7255314,0.22010872,0.46371388,0.62661743,0.29614156,0.23687154,0.32962558,0.3276439,-0.2927133,-0.2557797,0.045849398,-0.15189238,810.696,801.02563,799.81683,777.25275,757.1062,-0.22662353515625,0.05743408203125,0.97381591796875,4.523468017578125,-4.179534912109375,1.495361328125,1,1.0,1.0,1.0,1.0,100.00
2021-04-20 22:29:39.552,0.26929244,0.71100754,0.8762039,0.6006858,-0.06538089,0.30728838,0.4036802,0.16094433,0.666874,0.291275,0.463717,0.6309628,0.31282943,0.18232882,0.30100632,0.28319684,-0.26537764,-0.28343195,0.003025043,-0.11886503,801.02563,809.0842,800.6227,809.4872,940.84247,-0.22674560546875,0.05938720703125,0.97528076171875,4.538421630859375,-4.523468017578125,1.1962890625,1,1.0,1.0,1.0,1.0,100.00
2021-04-20 22:29:40.070,0.33906782,0.75650495,0.7510084,0.4697029,0.016292457,0.29321724,0.40809,0.19509062,0.5503908,0.4679821,0.34659708,0.3552821,0.30343956,0.1272883,0.21871617,0.3295164,-0.23959708,-0.32535306,0.012814676,-0.16952907,801.8315,805.05493,801.4286,782.49084,578.20514,-0.2230224609375,0.05523681640625,0.97314453125,4.26177978515625,-4.015045166015625,0.73272705078125,1,1.0,1.0,1.0,1.0,100.00
2021-04-20 22:29:40.437,,,,,,,,,,,,,,,,,,,,,,,,,,,,,,,,,,,,,,/muse/elements/blink
2021-04-20 22:29:40.573,0.3088046,0.7720063,0.68735296,0.46124706,-0.048765875,0.29453602,0.46107057,0.26511338,0.48568887,0.46185106,0.44364494,0.35567114,0.24875996,0.06806931,0.17717183,0.27485326,-0.27258286,-0.2089721,-0.03422506,-0.21539778,822.7839,807.47253,798.60803,775.2381,605.6044,-0.224853515625,0.06353759765625,0.97711181640625,4.687957763671875,-4.732818603515625,1.128997802734375,1,1.0,1.0,1.0,1.0,100.00
2021-04-20 22:29:41.078,0.15847704,0.624924,0.6733346,0.54550266,-0.1007133,0.27041867,0.5826938,0.38868678,0.3477393,0.43341818,0.50002116,0.24998319,0.19738549,9.257217E-4,0.17736223,0.30966923,-0.27850896,-0.11883245,0.02837087,-0.2620711,811.50183,805.8608,801.02563,804.2491,781.685,-0.22198486328125,0.06341552734375,0.98095703125,4.388885498046875,-4.844970703125,0.770111083984375,1,1.0,1.0,1.0,1.0,100.00
2021-04-20 22:29:41.592,0.16984291,0.26803765,0.48084208,0.5390301,-0.1424229,0.03504761,0.44154254,0.41592735,0.33956578,0.007113051,0.49096677,0.19872658,0.21436732,0.011582128,0.24286915,0.30493614,-0.3055397,-0.1353,0.055797946,-0.29041895,806.26373,815.12823,805.8608,852.1978,834.87177,-0.22174072265625,0.05938720703125,0.9779052734375,4.493560791015625,-4.56085205078125,0.94207763671875,1,1.0,1.0,1.0,1.0,100.00
2021-04-20 22:29:42.099,0.09250255,0.38682353,0.49267662,0.5460295,-0.085941724,-0.0014690513,0.42105162,-0.33461732,0.42213255,0.1012017,0.44811776,0.16081443,-0.0047768154,0.013709691,0.23236412,0.1600086,-0.52462983,-0.22693565,0.1421303,-0.28974372,821.978,811.0989,793.7729,826.0073,751.8681,-0.2198486328125,0.06005859375,0.9813232421875,4.77020263671875,-5.001983642578125,1.495361328125,1,1.0,1.0,1.0,1.0,100.00
2021-04-20 22:29:42.586,,,,,,,,,,,,,,,,,,,,,,,,,,,,,,,,,,,,,,/muse/elements/blink
2021-04-20 22:29:42.601,0.10798473,0.6207968,0.45537862,0.56938255,-0.1194069,0.12986752,0.12414974,-0.14040492,0.4544895,0.4610798,0.09910162,0.6079736,0.02487681,0.13374259,0.26298922,0.16896124,-0.40823597,-0.25324485,0.16397731,-0.15715736,825.2015,813.5165,795.78754,825.6044,636.63007,-0.227294921875,0.05865478515625,0.9764404296875,4.658050537109375,-3.551483154296875,0.844879150390625,1,1.0,1.0,1.0,1.0,100.00
2021-04-20 22:29:43.104,0.085534126,0.65008247,0.6028042,0.5913866,-0.10243486,0.10637476,0.21247888,-0.12702587,0.44539094,0.49239933,0.16419877,0.59901553,0.046305813,0.18301669,0.31740615,0.16943002,-0.39873293,-0.21065405,0.15549359,-0.15209207,805.4579,808.2784,809.89014,760.32965,627.3626,-0.22833251953125,0.05767822265625,0.97845458984375,4.448699951171875,-4.725341796875,1.12152099609375,1,1.0,1.0,1.0,1.0,100.00
2021-04-20 22:29:43.608,0.08852842,0.61085653,0.6675375,0.59603155,-0.17558613,0.14026386,0.12386636,-0.0035837938,0.16544934,0.48185918,0.21420394,0.5876584,0.08096939,0.21832599,0.35469452,0.17922525,-0.27889115,-0.12474315,0.103006005,-0.022722475,798.20514,800.6227,798.20514,774.83514,754.2857,-0.22552490234375,0.05792236328125,0.97491455078125,4.912261962890625,-3.87298583984375,1.009368896484375,1,1.0,1.0,1.0,1.0,100.00
2021-04-20 22:29:44.130,0.5915803,0.2518589,0.5049749,-0.11084522,0.050245695,-0.22546805,0.11661591,0.22972974,-0.2698027,0.30306464,0.23742658,-0.2139739,0.15310794,0.1848373,0.32572037,0.22736867,-0.2898491,-0.09462097,0.0064080055,-0.14666691,802.6374,813.1135,799.81683,797.3993,813.1135,-0.221435546875,0.05908203125,0.97674560546875,4.628143310546875,-4.314117431640625,1.024322509765625,1,1.0,1.0,1.0,1.0,100.00
2021-04-20 22:29:44.642,0.52091014,0.2477003,0.39720908,-0.09476912,0.107964404,-0.17128628,0.14170402,0.14689514,-0.12767196,0.28386155,0.2663459,-0.1451019,0.12801829,0.16464883,0.27022633,0.32412708,-0.32423118,-0.123732805,-0.08835396,-0.20316525,809.4872,815.5311,797.3993,770.40295,593.1135,-0.22198486328125,0.06024169921875,0.97760009765625,4.134674072265625,-4.4561767578125,0.650482177734375,1,1.0,1.0,1.0,1.0,100.00
2021-04-20 22:29:45.167,0.40619862,0.055358708,0.14508568,-0.12184301,0.13010892,-0.22960912,0.11858501,0.08983064,0.3450736,0.26761764,0.21421993,0.065206446,0.14210115,0.1094288,0.29270652,0.31762692,-0.27675426,-0.21982983,-0.10418537,-0.17980696,808.68134,822.381,801.4286,748.24176,637.4359,-0.22686767578125,0.057861328125,0.9759521484375,4.44122314453125,-4.605712890625,1.517791748046875,1,1.0,1.0,1.0,1.0,100.00
2021-04-20 22:29:45.693,0.15452684,0.049081463,0.163195,-0.23697586,0.11682205,-0.10443095,-0.006020319,0.26755264,0.38039646,0.30960062,0.2078685,0.2125059,0.20454621,0.1793549,0.3112621,0.3602439,-0.31153798,-0.20009577,-0.10962621,-0.086147,813.1135,820.3663,805.4579,806.6667,782.0879,-0.21209716796875,0.0628662109375,0.980224609375,4.957122802734375,-5.9814453125,1.353302001953125,1,1.0,1.0,1.0,1.0,100.00
2021-04-20 22:29:46.025,,,,,,,,,,,,,,,,,,,,,,,,,,,,,,,,,,,,,,/muse/elements/blink
2021-04-20 22:29:46.200,-0.09934785,0.05344149,-7.00068E-4,-0.33940542,0.088719405,-0.1182296,-0.11983358,0.35961625,0.38039646,0.2908991,0.060925767,0.21996276,0.23579086,0.14869972,0.38257444,0.3265115,-0.3152986,-0.1354617,-0.120609716,-0.038793366,807.0696,798.60803,804.2491,767.1795,759.5238,-0.21051025390625,0.06689453125,0.979736328125,4.538421630859375,-4.134674072265625,0.64300537109375,1,1.0,1.0,1.0,1.0,100.00
2021-04-20 22:29:46.701,-0.20838036,0.11115739,0.069182925,-0.53662616,0.0054555605,-0.037273306,0.054554123,0.5389757,0.18790802,0.29800442,0.06771499,0.19210918,0.2845611,0.14534003,0.32195503,0.34417024,-0.4495746,-0.014564824,-0.06760274,0.028637538,788.93774,808.68134,807.8755,812.3077,707.1429,-0.21441650390625,0.0623779296875,0.98077392578125,4.792633056640625,-4.807586669921875,1.7645263671875,1,1.0,1.0,1.0,1.0,100.00
2021-04-20 22:29:47.202,-0.1061043,0.13826966,-0.0071820277,-0.48442602,0.022976035,-0.046156105,0.1317304,0.5954527,-0.027637336,0.30085897,0.0796029,0.14555152,0.2600653,0.07383132,0.33132568,0.32984644,-0.4995599,-0.060930654,-0.062221576,-0.109647,802.6374,802.6374,805.05493,768.3883,599.5604,-0.2171630859375,0.06439208984375,0.97479248046875,4.508514404296875,-4.0972900390625,1.443023681640625,1,1.0,1.0,1.0,1.0,100.00
2021-04-20 22:29:47.713,0.29341152,0.13415587,-0.047000863,0.22326331,0.298685,0.012948824,0.06710219,0.31433958,0.5341951,0.28255945,0.10577523,0.3741733,0.27793872,0.09723256,0.19120249,0.18904008,-0.17021891,-0.14341065,-0.06725093,-0.06298402,806.26373,803.44324,815.12823,772.4176,676.52014,-0.208984375,0.0633544921875,0.9794921875,4.299163818359375,-4.5758056640625,1.263580322265625,1,1.0,1.0,1.0,1.0,100.00
2021-04-20 22:29:48.246,0.24371344,0.1711507,-0.22607128,0.15832384,0.3761621,-0.035748225,-0.15012658,0.3415238,0.63061154,0.23629208,0.045560572,0.5529012,0.23210002,0.12638922,0.24922231,0.19060065,-0.17208624,-0.21041997,-0.1599883,-0.102494195,801.4286,811.9048,817.9487,826.8132,688.20514,-0.20233154296875,0.06463623046875,0.9794921875,4.149627685546875,-4.643096923828125,0.9869384765625,1,1.0,1.0,1.0,1.0,100.00
2021-04-20 22:29:48.749,0.15628807,0.12122643,-0.04744163,0.050357193,0.26340577,-0.090239145,-0.2799265,0.3116241,0.6471806,0.28058097,0.24372293,0.65330064,0.24152422,0.15318002,0.24529672,0.23823784,-0.15694498,-0.16485833,-0.0945551,-0.13503812,808.68134,802.23444,805.05493,864.2857,903.36993,-0.19964599609375,0.0672607421875,0.98114013671875,4.493560791015625,-4.17205810546875,0.83740234375,1,1.0,1.0,1.0,1.0,100.00
2021-04-20 22:29:49.267,-0.06993987,0.42361155,0.46368673,0.24682248,0.13343886,0.19040015,-0.063308,0.2463915,0.56014645,0.33970886,0.26486808,0.65121263,0.24730209,0.22025575,0.33197623,0.2987641,-0.13911752,-0.15035266,-0.10703357,-0.13631338,809.4872,794.57874,802.23444,767.98535,1015.38464,-0.1978759765625,0.06524658203125,0.978759765625,4.882354736328125,-3.1402587890625,0.2691650390625,1,1.0,1.0,1.0,1.0,100.00
2021-04-20 22:29:49.772,-0.21308774,0.47137928,0.4863757,0.3046099,-0.17281413,0.20237823,0.0175061,0.041190732,0.43301964,0.33791775,0.26240674,0.6021929,0.29681924,0.27133343,0.2520505,0.34047213,-0.17446867,-0.18337423,-0.120804615,-0.07147637,813.91943,818.7546,812.3077,774.0293,561.685,-0.185302734375,0.0894775390625,0.9857177734375,4.59075927734375,-5.5029296875,1.30096435546875,1,1.0,1.0,1.0,1.0,100.00
2021-04-20 22:29:50.302,-0.22957979,0.39124063,0.4047605,0.31151497,-0.045015372,0.13785206,-0.098024175,-0.08398789,0.25261262,0.33094063,0.13237117,0.13302772,0.25270212,0.2695516,0.19551443,0.31567377,-0.23749533,-0.11706565,-0.17218277,-0.07650325,686.99634,784.5055,827.2161,654.7619,819.15753,-0.18560791015625,0.08526611328125,0.9803466796875,5.203857421875,-7.245025634765625,2.3626708984375,1,1.0,1.0,1.0,1.0,100.00
2021-04-20 22:29:50.504,,,,,,,,,,,,,,,,,,,,,,,,,,,,,,,,,,,,,,/muse/elements/blink
2021-04-20 22:29:50.829,-0.12621872,0.30038008,0.43541887,0.07594841,0.08743722,0.13638304,0.18005495,-0.13667,0.23806112,0.19010767,-0.022663368,0.11720394,0.23208137,0.27305162,0.11196672,0.31464612,-0.28023076,-0.11143931,0.03719509,-0.089188226,802.23444,810.696,797.3993,837.28937,832.8571,-0.18450927734375,0.0865478515625,0.9808349609375,4.44122314453125,-3.84307861328125,-0.2691650390625,1,1.0,1.0,1.0,1.0,100.00
2021-04-20 22:29:51.357,-0.14559898,0.60693836,0.70303947,-0.06366097,0.1779214,0.4369313,0.40368557,-0.091651455,0.20204535,0.48295507,0.25444144,0.041254338,0.06042531,0.25200704,0.20786177,0.21878317,-0.27044222,-0.1352479,0.11357777,-0.2197254,792.1612,803.8461,804.2491,834.4689,742.6007,-0.1761474609375,0.0887451171875,0.98193359375,4.373931884765625,-4.94964599609375,1.697235107421875,1,1.0,1.0,1.0,1.0,100.00
2021-04-20 22:29:51.889,-0.14559898,0.86176777,0.80490625,-0.06366097,0.1779214,0.6272155,0.5136913,-0.091651455,0.20204535,0.4936825,0.29842228,0.041254338,0.06042531,0.23257829,0.27173626,0.21878317,-0.27044222,-0.29778972,0.10417154,-0.2197254,801.8315,807.8755,799.81683,794.9817,689.011,-0.1785888671875,0.08807373046875,0.98785400390625,4.717864990234375,-3.805694580078125,1.45050048828125,1,1.0,1.0,1.0,1.0,100.00
2021-04-20 22:29:52.409,0.69790953,0.8421547,0.6101788,0.16098027,0.20845118,0.57302475,0.33840635,0.15532552,0.20518689,0.48859146,0.30542064,0.32664263,0.41256675,0.20890693,0.23868084,0.33228463,-0.35196507,-0.2512894,0.00774973,-0.12048355,799.41394,812.71063,805.8608,820.7692,723.2601,-0.1785888671875,0.0865478515625,0.98675537109375,4.762725830078125,-4.074859619140625,0.55328369140625,1,1.0,1.0,1.0,1.0,100.00
2021-04-20 22:29:52.912,0.73061186,0.68719065,0.29978114,0.59542227,0.2193218,0.4008034,0.032452855,0.19710729,0.22686228,0.41191807,0.30625913,0.3754263,0.32556763,0.26396012,0.17273642,0.2516887,-0.319428,-0.2314667,-0.012904847,-0.11698899,810.696,805.8608,795.78754,774.0293,615.2747,-0.17706298828125,0.088134765625,0.9852294921875,4.8150634765625,-4.732818603515625,1.727142333984375,1,1.0,1.0,1.0,1.0,100.00
2021-04-20 22:29:53.316,,,,,,,,,,,,,,,,,,,,,,,,,,,,,,,,,,,,,,/muse/elements/blink
2021-04-20 22:29:53.428,0.7826697,0.28208378,0.11998543,0.7179606,0.30817783,0.09853677,-0.3153856,0.28932276,0.17202093,0.23326303,0.08155013,0.22218733,0.24752502,0.25261316,0.18435636,0.16730827,-0.2896615,-0.11870252,-0.017727189,-0.11898232,826.0073,813.91943,805.8608,869.92676,929.5604,-0.16876220703125,0.0867919921875,0.98272705078125,4.269256591796875,-4.71038818359375,1.622467041015625,1,1.0,1.0,1.0,1.0,100.00
2021-04-20 22:29:53.945,0.9225561,0.32816774,0.398188,0.9584278,0.4308673,-0.021464452,-0.27888682,0.3289348,-0.03315483,0.1433958,0.20300607,0.15635586,0.10113123,0.19772965,0.28918284,0.07459666,-0.17792863,-0.09587877,-0.057712898,-0.16744849,805.8608,809.89014,815.12823,815.9341,752.674,-0.16546630859375,0.08953857421875,0.98541259765625,4.50103759765625,-3.760833740234375,0.530853271484375,1,1.0,1.0,1.0,1.0,100.00
2021-04-20 22:29:54.457,1.0378335,0.683867,0.5482177,1.0157231,0.53519106,0.24039125,-0.043800797,0.372561,-0.14578573,0.1475332,0.30542606,0.03095901,0.080469884,0.064100675,0.33304778,0.072078794,-0.11929903,-0.10736673,-0.09599683,-0.21097495,803.8461,805.8608,807.47253,851.79486,887.6557,-0.16729736328125,0.09112548828125,0.987060546875,4.6954345703125,-4.78515625,1.1065673828125,1,1.0,1.0,1.0,1.0,100.00
2021-04-20 22:29:54.963,0.120234236,0.6711991,0.41479418,-0.057399437,-0.14493996,0.24109845,-0.027508644,0.26053396,-0.0576467,0.11312179,0.30542606,0.19440855,0.13179938,0.15680267,0.30049518,0.4327759,-0.11502911,-0.14253101,-0.101363376,-0.15420762,830.0366,810.696,802.23444,848.97437,695.8608,-0.159423828125,0.0909423828125,0.98583984375,4.598236083984375,-5.06927490234375,1.1065673828125,1,1.0,1.0,1.0,1.0,100.00
2021-04-20 22:29:55.081,,,,,,,,,,,,,,,,,,,,,,,,,,,,,,,,,,,,,,/muse/elements/blink
2021-04-20 22:29:55.478,0.120234236,0.6116976,0.39362243,-0.057399437,-0.14493996,0.3226929,0.22257183,0.26053396,-0.0576467,0.20583838,0.26731384,0.19440855,0.13179938,0.20376131,0.28400218,0.4327759,-0.11502911,-0.13776818,-0.04213359,-0.15420762,811.9048,815.12823,811.0989,808.68134,703.5165,-0.155029296875,0.092529296875,0.98675537109375,4.6356201171875,-3.805694580078125,0.770111083984375,1,1.0,1.0,1.0,1.0,100.00
2021-04-20 22:29:55.990,0.120234236,0.19653691,0.30326736,-0.057399437,-0.14493996,0.24085791,0.2603104,0.26053396,-0.0576467,0.20179604,0.07263103,0.19440855,0.13179938,0.29169747,0.27369162,0.4327759,-0.11502911,-0.10102594,-0.0974578,-0.15420762,812.3077,809.0842,807.0696,853.8095,945.2747,-0.1553955078125,0.0931396484375,0.989990234375,4.463653564453125,-4.299163818359375,0.52337646484375,1,1.0,1.0,1.0,1.0,100.00
2021-04-20 22:29:56.497,0.112058945,0.29118827,0.4637964,0.73168623,0.39690462,0.36587372,0.33399656,0.19913717,0.3686278,0.2792424,0.07541653,0.49971217,0.044312973,0.23419963,0.31587082,0.27147025,-0.20664622,-0.058521446,-0.02361108,-0.10120848,799.81683,811.50183,805.05493,816.337,742.1978,-0.157958984375,0.09423828125,0.9869384765625,4.127197265625,-4.254302978515625,1.1962890625,1,1.0,1.0,1.0,1.0,100.00
2021-04-20 22:29:57.007,-0.025158435,0.43802392,0.35793006,0.5759671,0.20957546,0.27656427,0.07894714,0.23941182,0.38991722,0.33598763,0.030399522,0.5171127,0.08405257,0.239165,0.27176306,0.23393434,-0.34379578,-0.08734284,-0.10883956,0.14496046,785.7143,818.3516,801.8315,828.8278,907.8022,-0.15423583984375,0.09600830078125,0.98492431640625,4.5758056640625,-4.972076416015625,1.03179931640625,1,1.0,1.0,1.0,1.0,100.00
2021-04-20 22:29:57.514,0.01550454,0.61677533,0.607889,0.57652986,0.19964698,0.4414261,0.11930719,0.24473289,0.5693789,0.58308613,0.104756415,0.5415296,0.107353635,0.26534557,0.20583874,0.3296729,-0.3165697,-0.08042228,-0.030649861,0.44734862,811.0989,808.2784,813.91943,842.52747,780.4762,-0.1549072265625,0.093994140625,0.98919677734375,4.433746337890625,-4.0374755859375,0.889739990234375,1,1.0,1.0,1.0,1.0,100.00
2021-04-20 22:29:58.022,-0.006651538,0.5775056,0.5525969,0.3577372,0.11461932,0.3735984,-0.029939331,0.22744703,0.5216013,0.57812464,0.23414157,0.34576502,0.08914529,0.26717696,0.11326211,0.29598936,-0.37752125,-0.117118254,0.04307962,0.45613652,803.8461,801.8315,807.8755,782.8938,696.26373,-0.157958984375,0.0955810546875,0.9847412109375,4.9945068359375,-5.2935791015625,1.55517578125,1,1.0,1.0,1.0,1.0,100.00
2021-04-20 22:29:58.547,-0.01058109,0.5046834,0.57260525,0.3094453,0.20080252,0.3627226,-0.059923075,0.23710863,0.5354678,0.5718321,0.24273197,0.3021956,0.07190275,0.2613037,0.103821926,0.33723435,-0.27803877,-0.13271008,0.087795444,0.43607062,793.36993,807.47253,800.6227,833.2601,842.9304,-0.16009521484375,0.08819580078125,0.9886474609375,4.47113037109375,-3.925323486328125,1.054229736328125,1,1.0,1.0,1.0,1.0,100.00
2021-04-20 22:29:58.808,,,,,,,,,,,,,,,,,,,,,,,,,,,,,,,,,,,,,,/muse/elements/blink
2021-04-20 22:29:59.072,0.017163409,0.44394428,0.37213695,0.06568373,0.228185,0.08236265,-0.15547775,0.22639078,0.5030585,0.28764275,0.4231726,0.16665769,0.035641927,0.19444814,0.17090659,0.22860849,-0.25432894,-0.24243262,0.14162993,-0.02290447,813.1135,801.8315,808.68134,850.18317,781.28204,-0.150390625,0.09576416015625,0.98602294921875,4.448699951171875,-5.689849853515625,0.95703125,1,1.0,1.0,1.0,1.0,100.00
2021-04-20 22:29:59.598,-0.17980273,0.5832829,0.3658511,0.019462276,0.21573634,0.15571676,0.070106626,0.28386346,0.24485014,0.071557775,0.35350078,-0.13585794,0.0799529,0.1850206,0.23577276,0.30310613,-0.1649527,-0.1870528,0.14476082,-0.10695545,811.0989,809.89014,803.44324,794.17584,710.3663,-0.1513671875,0.09423828125,0.9886474609375,4.538421630859375,-4.20196533203125,0.590667724609375,1,1.0,1.0,1.0,1.0,100.00
2021-04-20 22:30:00.111,-0.18172815,0.6314942,0.26145545,0.053685214,0.17224225,0.16235714,0.09144136,0.2876583,0.1555588,0.06335459,0.3089342,-0.14651577,0.0937688,0.13543786,0.27219123,0.32237315,-0.14484802,-0.0287522,0.070567526,-0.109897755,802.6374,803.8461,810.293,830.84247,711.1722,-0.15655517578125,0.0958251953125,0.98834228515625,4.844970703125,-4.5758056640625,0.979461669921875,1,1.0,1.0,1.0,1.0,100.00
2021-04-20 22:30:00.629,0.047013197,0.42545566,-0.010785541,-0.044109385,-0.12683904,0.055178694,-0.08298337,0.3417798,0.07185827,0.14651185,0.12144355,0.056510624,0.19217491,0.13030215,0.21010594,0.3565566,-0.87825584,-0.0210605,-0.061239667,-0.42306966,831.2454,794.17584,792.5641,819.9634,893.69965,-0.1522216796875,0.08819580078125,0.986083984375,4.299163818359375,-4.179534912109375,0.829925537109375,1,1.0,1.0,1.0,1.0,100.00
2021-04-20 22:30:00.634,,,,,,,,,,,,,,,,,,,,,,,,,,,,,,,,,,,,,,/muse/elements/blink
2021-04-20 22:30:01.140,0.047013197,0.15777889,-0.06505455,-0.044109385,-0.12683904,-0.12514332,-0.0095022535,0.3417798,0.07185827,0.19167814,0.136315,0.056510624,0.19217491,0.096092254,0.15462159,0.3565566,-0.87825584,-0.046352807,-0.08498449,-0.42306966,807.47253,826.0073,808.2784,759.5238,668.0586,-0.1558837890625,0.09368896484375,0.986328125,4.71038818359375,-4.732818603515625,1.15142822265625,1,1.0,1.0,1.0,1.0,100.00
2021-04-20 22:30:01.674,0.07641172,0.6820785,0.4070514,-0.086142495,-0.17389375,0.2133583,0.27394187,0.29925323,0.055249352,0.26156706,0.37781537,0.029104238,0.18713018,0.08353552,0.15443495,0.3392994,-0.88891405,-0.149635,0.053328957,-0.40008104,807.0696,800.6227,804.2491,815.9341,875.56775,-0.1502685546875,0.09332275390625,0.98919677734375,4.329071044921875,-4.882354736328125,0.76263427734375,1,1.0,1.0,1.0,1.0,100.00
2021-04-20 22:30:02.196,0.07641172,0.84053975,0.5638261,-0.086142495,-0.17389375,0.3265933,0.37294084,0.29925323,0.055249352,0.269782,0.37925154,0.029104238,0.18713018,0.11546513,0.19868028,0.3392994,-0.88891405,-0.09199755,0.079080954,-0.40008104,780.07324,822.381,788.93774,808.68134,853.00366,-0.15167236328125,0.09197998046875,0.98297119140625,4.18701171875,-3.925323486328125,0.79254150390625,1,1.0,1.0,1.0,1.0,100.00
2021-04-20 22:30:02.298,,,,,,,,,,,,,,,,,,,,,,,,,,,,,,,,,,,,,,/muse/elements/blink
2021-04-20 22:30:02.712,0.07641172,0.98726434,0.6551738,-0.086142495,-0.17389375,0.43711922,0.40248644,0.29925323,0.055249352,0.1503835,0.3683673,0.029104238,0.18713018,0.13738893,0.24226142,0.3392994,-0.88891405,-0.017772805,0.030840036,-0.40008104,810.696,805.4579,803.8461,846.1539,887.6557,-0.13043212890625,0.103759765625,0.9886474609375,3.790740966796875,-5.495452880859375,0.9271240234375,1,1.0,1.0,1.0,1.0,100.00
2021-04-20 22:30:03.097,,,,,,,,,,,,,,,,,,,,,,,,,,,,,,,,,,,,,,/muse/elements/blink
2021-04-20 22:30:03.234,0.07641172,0.72125834,0.4074082,-0.086142495,-0.17389375,0.2616719,0.18442902,0.29925323,0.055249352,-0.115822285,0.2079371,0.029104238,0.18713018,0.123983264,0.22209594,0.3392994,-0.88891405,0.042486425,-0.094424896,-0.40008104,827.2161,807.0696,796.99634,780.87915,785.7143,-0.17974853515625,0.08636474609375,0.99005126953125,0.657958984375,-0.829925537109375,-3.970184326171875,1,2.0,1.0,1.0,2.0,100.00
2021-04-20 22:30:03.761,0.07641172,0.6844802,0.78193307,-0.086142495,-0.17389375,0.3126658,0.60356444,0.29925323,0.055249352,-0.19386862,0.3132157,0.029104238,0.18713018,0.09838945,0.2837114,0.3392994,-0.88891405,0.08754374,-0.16546248,-0.40008104,810.293,812.71063,805.05493,788.1319,712.7839,-0.2633056640625,-0.0843505859375,0.95062255859375,-6.452484130859375,0.874786376953125,-5.8319091796875,1,2.0,1.0,1.0,2.0,100.00
2021-04-20 22:30:04.286,0.07641172,0.32345527,0.6433127,-0.086142495,-0.17389375,-0.3758474,0.40074548,0.29925323,0.055249352,-0.14740643,0.32596675,0.029104238,0.18713018,0.25807977,0.4672479,0.3392994,-0.88891405,-0.1640094,-0.1338774,-0.40008104,807.8755,817.1429,804.65204,767.1795,680.14655,-0.272705078125,-0.09234619140625,0.96197509765625,3.521575927734375,-2.459869384765625,2.452392578125,1,2.0,1.0,1.0,2.0,100.00
2021-04-20 22:30:04.814,0.42410502,0.3734445,0.5403398,0.39549583,0.16784056,-0.44872174,0.2761578,-0.2974904,0.08887272,0.079983406,0.34126082,0.063944906,0.026596662,0.1821141,0.4292516,0.06712035,-0.066809125,-0.049927443,-0.1428831,-0.21871248,731.31866,812.71063,817.1429,736.9597,888.86444,-0.27313232421875,-0.064697265625,0.963623046875,5.659942626953125,-5.84686279296875,7.40203857421875,1,1.0,1.0,1.0,1.0,100.00
2021-04-20 22:30:04.818,,,,,,,,,,,,,,,,,,,,,,,,,,,,,,,,,,,,,,/muse/elements/blink
2021-04-20 22:30:04.997,,,,,,,,,,,,,,,,,,,,,,,,,,,,,,,,,,,,,,/muse/elements/blink
2021-04-20 22:30:05.316,0.42410502,0.41515568,0.46779612,0.39549583,0.16784056,-0.09895686,0.26086172,-0.2974904,0.08887272,0.21690914,0.22467162,0.063944906,0.026596662,0.22686832,0.43609366,0.06712035,-0.066809125,-0.039697938,-0.05183274,-0.21871248,815.9341,811.50183,808.68134,854.61536,832.8571,-0.27117919921875,-0.0587158203125,0.9620361328125,3.775787353515625,-1.98883056640625,-0.067291259765625,1,1.0,1.0,1.0,1.0,100.00
2021-04-20 22:30:05.820,0.42410502,0.43942693,0.47768438,0.39549583,0.16784056,-0.081233256,0.3217316,-0.2974904,0.08887272,0.24975115,0.3284634,0.063944906,0.026596662,0.18214057,0.27683058,0.06712035,-0.066809125,0.026281755,0.122228324,-0.21871248,806.6667,809.0842,811.9048,817.5458,742.6007,-0.27423095703125,-0.05328369140625,0.96990966796875,4.78515625,-6.20574951171875,0.777587890625,1,1.0,1.0,1.0,1.0,100.00
2021-04-20 22:30:06.342,0.42410502,0.39800993,0.48321,0.39549583,0.16784056,0.020468669,0.3545126,-0.2974904,0.08887272,0.24783283,0.4163024,0.063944906,0.026596662,0.21728906,0.22075365,0.06712035,-0.066809125,-0.033691566,0.17617047,-0.21871248,814.7253,818.3516,809.89014,770.0,718.4249,-0.27288818359375,-0.056396484375,0.96502685546875,4.628143310546875,-4.29168701171875,1.00189208984375,1,1.0,1.0,1.0,1.0,100.00
2021-04-20 22:30:06.848,-0.011959793,0.5658629,0.42386705,0.5482993,-0.14338751,0.25043595,0.20770675,0.39043078,0.25602734,0.2099219,0.4642488,0.3525472,0.051662657,0.23331495,0.13664193,0.27433604,-0.46705472,-0.117173485,0.21876025,-0.1893999,804.2491,817.9487,805.8608,768.7912,651.13556,-0.2635498046875,-0.05267333984375,0.9674072265625,4.867401123046875,-6.17584228515625,1.39068603515625,1,1.0,1.0,1.0,1.0,100.00
2021-04-20 22:30:07.361,-0.03371437,0.525181,0.38231993,0.37467855,0.06223428,0.27334103,0.21223192,0.43137527,0.29539987,0.16760658,0.52253497,0.403988,0.11478434,0.24717456,0.19598086,0.27234027,-0.41020873,-0.22022527,0.1258978,-0.06404753,795.78754,805.05493,806.26373,835.6777,846.55676,-0.25848388671875,-0.0552978515625,0.96978759765625,4.403839111328125,-4.583282470703125,1.12152099609375,1,1.0,1.0,1.0,1.0,100.00
2021-04-20 22:30:07.864,-0.096279755,0.52315897,0.31649882,0.31067413,0.16357288,0.32010114,0.14884256,0.45221612,0.39703384,0.18687882,0.52253497,0.38328806,0.081775054,0.22837687,0.25871357,0.25600138,-0.30846918,-0.15051351,0.10282788,0.0072372938,822.7839,813.91943,809.0842,794.57874,637.03296,-0.25592041015625,-0.0537109375,0.9649658203125,4.65057373046875,-3.96270751953125,1.278533935546875,1,1.0,1.0,1.0,1.0,100.00
2021-04-20 22:30:07.949,,,,,,,,,,,,,,,,,,,,,,,,,,,,,,,,,,,,,,/muse/elements/blink
2021-04-20 22:30:08.376,-0.1504569,0.24605347,0.20528136,-0.45384082,0.26599997,0.18667898,0.055133346,0.4057356,0.281279,0.13192396,0.4923385,0.19253436,0.14810689,0.12933269,0.3142937,0.23761128,-0.25230527,-0.113335274,0.0051207896,0.08752829,798.60803,815.9341,797.3993,778.86444,703.1135,-0.255126953125,-0.05194091796875,0.97027587890625,4.717864990234375,-4.007568359375,1.637420654296875,1,1.0,1.0,1.0,1.0,100.00
2021-04-20 22:30:08.883,-0.17073216,0.32285404,0.3412237,-0.47899038,0.30395472,0.15137938,0.01581006,0.37130946,0.24997173,0.18503831,0.2415902,0.1913158,0.096837565,0.1515233,0.27586302,0.24982934,-0.11089452,-0.11727031,0.0411531,0.1286601,815.9341,806.6667,812.3077,850.58606,873.1502,-0.258056640625,-0.05072021484375,0.96978759765625,4.508514404296875,-4.643096923828125,1.30096435546875,1,1.0,1.0,1.0,1.0,100.00
2021-04-20 22:30:09.388,-0.17073216,0.3132109,0.34514874,-0.47899038,0.30395472,0.032656178,0.008478819,0.37130946,0.24997173,0.23754105,0.17104496,0.1913158,0.096837565,0.16714828,0.1935516,0.24982934,-0.11089452,-0.21985564,0.03142426,0.1286601,812.71063,812.3077,799.81683,836.8865,708.3516,-0.2459716796875,-0.05242919921875,0.97406005859375,5.016937255859375,-4.837493896484375,1.54022216796875,1,1.0,1.0,1.0,1.0,100.00
2021-04-20 22:30:09.902,-0.026480652,0.21090282,-0.029789798,-0.10526337,0.18562888,-0.22416486,-0.3023013,0.20687836,0.10690905,0.30500734,-0.10796337,0.22260857,0.19706093,0.15935421,0.16163933,0.17077824,-0.22977507,-0.22698781,0.011583981,-0.021462606,805.05493,798.60803,805.8608,784.5055,690.2198,-0.2440185546875,-0.01947021484375,0.9757080078125,7.409515380859375,-4.643096923828125,4.179534912109375,1,1.0,1.0,1.0,1.0,100.00
2021-04-20 22:30:10.415,0.16652721,0.49683324,0.27302083,0.051862586,0.09890738,0.022941494,-0.00958466,0.18040286,0.14339307,0.29674405,0.26363915,0.43258697,0.16188927,0.10458371,0.23218124,0.15178235,-0.25536442,-0.22081947,-0.021688165,-0.077103406,815.12823,794.57874,805.4579,784.90845,1071.7949,-0.34539794921875,-0.0086669921875,0.95440673828125,-2.58697509765625,12.284393310546875,0.814971923828125,1,1.0,1.0,1.0,1.0,100.00
2021-04-20 22:30:10.931,0.25750303,0.69301075,0.5209347,0.21212935,0.057029784,0.13637002,0.19881688,0.14152186,-0.02723984,0.28569236,0.28543046,0.42981815,0.16038872,0.06400434,0.3023759,0.21293984,-0.31041893,-0.16317406,-0.02202892,-0.08989778,799.81683,809.89014,815.12823,830.84247,839.707,-0.35845947265625,-0.05267333984375,0.93157958984375,6.1309814453125,-10.863800048828125,4.269256591796875,1,1.0,1.0,1.0,1.0,100.00
2021-04-20 22:30:11.437,0.37454122,0.6846677,0.5826682,0.46764392,-0.057295397,0.13564225,0.27180907,0.052679207,0.33821136,0.31969208,0.28148142,0.41914245,0.13080686,0.13909096,0.3466232,0.22551017,-0.29445288,-0.14354633,-0.07053914,-0.22443187,796.99634,795.78754,808.68134,844.1392,865.4945,-0.319091796875,-0.0289306640625,0.96099853515625,2.773895263671875,-5.66741943359375,3.431854248046875,1,1.0,1.0,1.0,1.0,100.00
2021-04-20 22:30:11.952,0.38666368,0.5993175,0.53224754,0.5203645,0.061744347,0.17230472,0.16011466,0.02261604,0.3344319,0.33239263,0.24702737,0.375601,0.18143703,0.13194697,0.3646138,0.2702282,-0.28093365,-0.16280432,-0.047578834,-0.17064519,792.1612,804.65204,799.41394,755.4945,674.5055,-0.295166015625,-0.05255126953125,0.95684814453125,5.465545654296875,-1.024322509765625,2.093505859375,1,1.0,1.0,1.0,1.0,100.00
2021-04-20 22:30:12.454,0.28586718,0.4735623,0.31425065,0.5875158,0.034353357,0.09018077,-0.023025852,0.10483723,0.4131332,0.3586591,0.19170226,0.24903846,0.1002393,0.19289193,0.37313607,0.28101474,-0.2130408,-0.18452121,0.0010276699,-0.1607529,792.96704,805.4579,796.1905,818.7546,800.6227,-0.30474853515625,-0.016845703125,0.9654541015625,5.316009521484375,-7.77587890625,2.624359130859375,1,1.0,1.0,1.0,1.0,100.00
2021-04-20 22:30:12.835,,,,,,,,,,,,,,,,,,,,,,,,,,,,,,,,,,,,,,/muse/elements/blink
2021-04-20 22:30:12.968,0.21766701,0.64055467,0.4007255,0.5279691,0.10886077,0.39754885,-0.020606656,0.23270047,0.40102553,0.48801816,0.1816082,0.30189592,0.102974474,0.24653868,0.33725157,0.3010603,-0.19390863,-0.1604211,0.04680018,-0.08174673,801.4286,805.8608,792.96704,789.7436,892.49084,-0.2994384765625,-0.03302001953125,0.9571533203125,4.7552490234375,-5.839385986328125,3.013153076171875,1,1.0,1.0,1.0,1.0,100.00
2021-04-20 22:30:13.475,0.0137819555,1.1072615,0.46347022,0.5629912,-0.026140064,0.8726788,0.108615905,0.35215855,0.2782052,0.5624295,0.1816082,0.16465463,-0.0447822,0.27436963,0.31007916,0.325263,-0.1502814,-0.034341767,-0.0090422155,-0.101092435,793.36993,803.44324,813.1135,786.52014,872.3443,-0.29241943359375,-0.0189208984375,0.96099853515625,6.23565673828125,-2.99072265625,3.970184326171875,1,1.0,1.0,1.0,1.0,100.00
2021-04-20 22:30:14.006,0.05402208,1.0688257,0.48009166,0.50338763,0.01008538,0.8780604,0.0787248,0.3832764,0.1404417,0.53175586,-0.033502124,0.14466326,-0.00897734,0.20809706,0.11117932,0.31886607,-0.13114825,-0.069178194,-0.13427182,-0.12066622,797.8022,812.71063,801.4286,753.0769,565.31134,-0.28399658203125,-0.00921630859375,0.9664306640625,4.59075927734375,-4.628143310546875,3.626251220703125,1,1.0,1.0,1.0,1.0,100.00
2021-04-20 22:30:14.537,0.2563326,1.0213082,0.29782018,0.084026866,0.26759154,0.7886272,0.044057436,-0.03176282,-0.3379176,0.5128295,-0.05944017,-0.029260216,-0.086166695,0.11269608,0.0459122,0.2688972,-0.28330734,-0.1542406,-0.16528912,-0.11832534,805.4579,804.65204,802.23444,769.59705,584.2491,-0.26708984375,-0.0107421875,0.968505859375,4.344024658203125,-5.14404296875,-0.31402587890625,1,1.0,1.0,1.0,1.0,100.00
2021-04-20 22:30:15.038,0.153077,0.17805353,0.3226484,-0.0114322845,0.33316267,-0.12766667,-0.10635161,-0.04573763,0.1228547,0.06839275,0.077362634,0.29869458,0.07596545,0.17780618,0.082760155,0.2635773,-0.34504586,-0.25798246,-0.15746114,-0.18061325,805.05493,822.381,796.1905,766.77655,645.4945,-0.27459716796875,-0.02288818359375,0.96075439453125,4.1571044921875,-4.80010986328125,0.40374755859375,1,1.0,1.0,1.0,1.0,100.00
2021-04-20 22:30:15.556,0.15003271,0.5233405,0.4819827,0.4063357,0.33398017,0.21146087,0.06831452,0.42293534,0.26520047,0.25580838,0.22784963,0.7319466,0.17746158,0.2413766,0.19960248,0.29609773,-0.26052415,-0.18906243,-0.08551027,-0.18743856,688.20514,797.8022,812.3077,693.0403,689.41394,-0.26904296875,-0.023193359375,0.9647216796875,4.23187255859375,-3.9776611328125,0.0897216796875,1,1.0,1.0,1.0,1.0,100.00
2021-04-20 22:30:15.690,,,,,,,,,,,,,,,,,,,,,,,,,,,,,,,,,,,,,,/muse/elements/blink
2021-04-20 22:30:16.082,0.09896956,0.59829515,0.52729815,0.50015944,0.35793266,0.22323203,0.12856074,0.5427276,0.26520047,0.25706625,0.23183128,0.7319466,0.25008363,0.25500837,0.2539174,0.31175312,-0.2517353,-0.11384901,-0.0057575894,-0.21060456,809.4872,805.8608,809.4872,772.01465,719.2308,-0.27752685546875,-0.02947998046875,0.96343994140625,4.732818603515625,-3.66363525390625,-0.201873779296875,1,1.0,1.0,1.0,1.0,100.00
2021-04-20 22:30:16.595,0.18283351,0.5683686,0.46310863,0.8265972,0.37842837,0.15999013,0.25397995,0.8523161,0.22630031,0.24727546,0.24553493,0.7319466,0.30351612,0.16018054,0.31256476,0.33857688,-0.11823868,-0.111986294,0.14395237,-0.13047762,807.8755,806.6667,799.81683,775.2381,693.44324,-0.30987548828125,-0.10888671875,0.92669677734375,-14.75921630859375,-2.908477783203125,-3.54400634765625,1,1.0,1.0,1.0,1.0,100.00
2021-04-20 22:30:17.116,0.41247803,0.12253432,0.08424635,0.12921038,-0.27316275,-0.119757205,0.13688466,0.08653023,0.22136596,0.23163746,0.07579075,0.33340484,0.1338455,0.16359346,0.31655857,0.6520614,-0.4443169,-0.045587763,0.121727765,-0.052381508,813.91943,793.7729,811.50183,757.50916,785.31134,-0.24700927734375,-0.04779052734375,0.97308349609375,0.418701171875,-13.50311279296875,-0.306549072265625,1,1.0,1.0,1.0,1.0,100.00
2021-04-20 22:30:17.643,0.25364578,-0.009969212,-0.04342144,0.20260936,-0.08763663,-0.13783397,0.06174267,-0.040778175,0.25303003,0.24550891,0.0068167783,0.33771732,0.1345618,0.118313015,0.34249088,0.5416933,-0.327357,0.025768405,0.10380032,-0.15929267,797.3993,803.0403,807.47253,843.3333,867.50916,-0.26220703125,-0.08062744140625,0.966796875,3.970184326171875,-3.6187744140625,-0.777587890625,1,1.0,1.0,1.0,1.0,100.00
2021-04-20 22:30:17.942,,,,,,,,,,,,,,,,,,,,,,,,,,,,,,,,,,,,,,/muse/elements/blink
2021-04-20 22:30:18.166,0.21848008,0.1721814,-0.02320202,0.17848718,-0.08727125,-0.15535331,0.013795258,-0.06922329,0.25303003,0.25763616,-0.0444764,0.33771732,0.12326613,0.17153694,0.32911816,0.5052894,-0.33956927,0.1173092,-0.057897847,-0.17345074,821.1722,807.0696,814.7253,871.9414,794.57874,-0.272216796875,-0.06024169921875,0.96307373046875,5.1141357421875,-2.729034423828125,2.594451904296875,1,1.0,1.0,1.0,1.0,100.00
2021-04-20 22:30:18.682,-0.041561842,0.2538964,0.038701136,0.2142414,0.019452251,-0.30910826,0.036590543,-0.25304845,-0.010753247,0.23705958,-0.09003121,0.19108231,0.114613086,0.12024813,0.31966394,0.33673543,-0.27084687,0.15425272,-0.047997776,-0.3025818,805.05493,808.68134,801.4286,818.3516,676.52014,-0.26776123046875,-0.05059814453125,0.9647216796875,4.673004150390625,-6.602020263671875,0.5084228515625,1,1.0,1.0,1.0,1.0,100.00
2021-04-20 22:30:19.195,-0.12348966,0.80054754,0.5966612,0.16384816,0.04126034,0.48872444,0.26530197,-0.33283633,-0.11592663,0.3890537,0.051509604,0.029927662,0.112260446,0.20111614,0.26190346,0.22520654,-0.28773472,-0.12024729,-0.18542221,-0.34110573,796.1905,817.1429,805.4579,826.8132,752.27106,-0.267822265625,-0.04681396484375,0.963623046875,5.3533935546875,-4.94964599609375,1.547698974609375,1,1.0,1.0,1.0,1.0,100.00
2021-04-20 22:30:19.700,-0.037132442,0.6403922,0.43445036,0.25220796,0.28737992,0.4167686,0.023503125,-0.1307179,0.36316916,0.37145406,0.027280133,0.1385964,0.13016455,0.28244588,0.25648794,0.3350642,-0.45254076,-0.40370312,-0.04716536,-0.1710928,809.89014,801.8315,808.2784,774.0293,737.3626,-0.27105712890625,-0.04638671875,0.96551513671875,4.1571044921875,-3.72344970703125,0.657958984375,1,1.0,1.0,1.0,1.0,100.00
2021-04-20 22:30:20.202,-0.067080714,0.47778726,0.33038214,0.1398767,0.16014527,0.25266838,-0.13956194,0.08220987,0.43227205,0.37145406,0.042705216,0.47339997,0.15403597,0.27569664,0.29662493,0.31039748,-0.23772363,-0.31802908,-0.09132624,-0.16217294,709.9634,795.78754,830.84247,773.6264,932.381,-0.2626953125,-0.0386962890625,0.96856689453125,4.658050537109375,-5.6524658203125,1.68975830078125,1,1.0,1.0,1.0,1.0,100.00
2021-04-20 22:30:20.397,,,,,,,,,,,,,,,,,,,,,,,,,,,,,,,,,,,,,,/muse/elements/blink
2021-04-20 22:30:20.714,-0.044935912,0.32241255,0.6060847,0.058290336,0.16594873,0.27596027,0.2127337,0.0830204,0.41871434,0.06974749,0.23426078,0.46945414,0.15644486,0.28047723,0.3085303,0.28688496,-0.21560878,-0.2495234,0.026077291,-0.14108892,815.9341,810.293,807.0696,767.5824,578.60803,-0.26092529296875,-0.04779052734375,0.9678955078125,4.7552490234375,-3.686065673828125,0.91217041015625,1,1.0,1.0,1.0,1.0,100.00
2021-04-20 22:30:21.222,-0.11627182,0.60515654,0.84877807,-0.11409284,-0.1501918,0.43225053,0.44437495,0.2812301,0.20297271,0.08224973,0.2832157,0.46696556,0.18754977,0.27979508,0.33199236,0.27055335,-0.037609555,-0.21848375,0.122191176,-0.14912751,822.381,819.15753,803.8461,781.28204,707.1429,-0.25628662109375,-0.046142578125,0.96368408203125,5.480499267578125,-3.51409912109375,1.861724853515625,1,1.0,1.0,1.0,1.0,100.00
2021-04-20 22:30:21.724,-0.11627182,0.84027565,0.9656796,-0.11409284,-0.1501918,0.5178579,0.5663814,0.2812301,0.20297271,0.4748427,0.27628744,0.46696556,0.18754977,0.2727851,0.24193858,0.27055335,-0.037609555,-0.16155614,0.15239222,-0.14912751,805.8608,813.91943,811.9048,859.85345,906.1905,-0.2686767578125,-0.04827880859375,0.964599609375,4.463653564453125,-3.06549072265625,1.278533935546875,1,1.0,1.0,1.0,1.0,100.00
2021-04-20 22:30:22.243,-0.012998848,0.804334,0.85098344,0.45639902,-0.1945901,0.30774736,0.41811466,0.6861912,0.55752206,0.5040643,0.320566,0.61357445,0.24477725,0.308281,0.18528825,0.42839405,-0.16237049,-0.17126812,0.11103481,-0.083895355,806.6667,820.7692,815.12823,832.8571,724.87177,-0.27392578125,-0.04132080078125,0.9688720703125,5.203857421875,-4.658050537109375,1.607513427734375,1,1.0,1.0,1.0,1.0,100.00
2021-04-20 22:30:22.493,,,,,,,,,,,,,,,,,,,,,,,,,,,,,,,,,,,,,,/muse/elements/blink
2021-04-20 22:30:22.755,-0.012998848,0.8196862,0.7291323,0.45639902,-0.1945901,0.30539882,0.2427285,0.6861912,0.55752206,0.566146,0.22952904,0.61357445,0.24477725,0.32790798,0.12871341,0.42839405,-0.16237049,-0.14248475,0.0374805,-0.083895355,812.71063,796.5934,796.99634,804.2491,789.7436,-0.2598876953125,-0.037109375,0.9713134765625,4.553375244140625,-4.74029541015625,-0.441131591796875,1,1.0,1.0,1.0,1.0,100.00
2021-04-20 22:30:23.272,0.053427674,0.71111834,0.56216305,0.35533872,-0.09564055,0.29832333,-0.034422714,0.51853794,0.2787322,0.478242,0.12216988,0.47665563,0.21605979,0.3695794,0.19135821,0.46280965,-0.28630966,-0.20333754,0.0735885,-0.13655159,804.65204,814.7253,809.4872,767.98535,735.7509,-0.2611083984375,-0.02593994140625,0.9664306640625,5.944061279296875,-4.179534912109375,1.00189208984375,1,1.0,1.0,1.0,1.0,100.00
2021-04-20 22:30:23.804,0.078607336,0.7004303,0.52668417,0.30577528,-0.043067534,0.41856155,0.1075017,0.38680163,0.13035098,0.36941478,-0.11846092,0.41019043,0.23047902,0.25043866,0.30450046,0.49877837,-0.30597833,-0.022359775,-0.017289728,-0.13485128,801.02563,801.8315,801.4286,747.8388,633.4066,-0.27545166015625,-0.029541015625,0.96435546875,4.942169189453125,-3.730926513671875,2.175750732421875,1,1.0,1.0,1.0,1.0,100.00
2021-04-20 22:30:24.314,0.37788942,0.1917847,0.20608692,0.25010636,0.329556,-0.026148885,0.053212993,0.10199357,0.23406841,0.26707917,0.032604877,0.24701811,0.15554306,0.127248,0.24523471,0.42222074,-0.22272852,-0.015412074,-0.025031157,-0.14748017,799.011,816.337,802.23444,841.31866,750.65936,-0.2828369140625,-0.01422119140625,0.96527099609375,3.476715087890625,-6.392669677734375,7.117919921875,1,1.0,1.0,1.0,1.0,100.00
2021-04-20 22:30:24.660,,,,,,,,,,,,,,,,,,,,,,,,,,,,,,,,,,,,,,/muse/elements/blink
2021-04-20 22:30:24.818,0.41247076,0.41147393,0.33867353,0.26661938,0.36674964,0.299629,0.08813744,0.08213704,0.38624382,0.5810494,0.28162363,0.30353704,0.16572374,0.2022441,0.34693497,0.41702092,-0.24681348,-0.060719486,-0.026402919,-0.1618542,817.5458,800.6227,815.12823,795.38464,573.7729,-0.2723388671875,-0.01776123046875,0.96820068359375,6.77398681640625,-4.418792724609375,3.18511962890625,1,1.0,1.0,1.0,1.0,100.00
2021-04-20 22:30:25.328,0.36116427,0.5764651,0.6923681,0.17553006,0.35529822,0.56176096,0.48395222,0.008857961,0.3683455,0.7278572,0.60036355,0.25985244,0.17618483,0.18602586,0.3873209,0.41757253,-0.26884177,-0.07701333,0.04986723,-0.19323862,809.0842,812.3077,807.47253,844.5421,808.2784,-0.27801513671875,-0.0225830078125,0.96307373046875,4.717864990234375,-4.97955322265625,1.323394775390625,1,1.0,1.0,1.0,1.0,100.00
2021-04-20 22:30:25.842,0.40044326,0.5432233,0.7124979,0.19061802,0.3932184,0.5675099,0.4859781,-0.08780614,0.3683455,0.7296414,0.60036355,0.2035043,0.2120011,0.2328541,0.40913546,0.41087225,-0.3444675,-0.099101685,0.03056148,-0.2660739,803.44324,830.84247,782.8938,783.69965,801.8315,-0.26678466796875,-0.0313720703125,0.972412109375,2.85614013671875,-5.076751708984375,-2.639312744140625,1,1.0,1.0,1.0,1.0,100.00
2021-04-20 22:30:26.353,0.11530266,0.61817604,0.6894191,0.27947795,0.10305481,0.49678376,0.43569186,0.2596507,0.063227005,0.72076905,0.5966892,0.32742882,0.13780746,0.23034152,0.2800226,0.21968962,-0.087195374,-0.18141082,-0.0058715236,0.09842571,803.44324,809.89014,808.68134,861.8681,838.9011,-0.26202392578125,-0.0267333984375,0.97406005859375,4.314117431640625,-4.942169189453125,0.949554443359375,1,1.0,1.0,1.0,1.0,100.00
2021-04-20 22:30:26.747,,,,,,,,,,,,,,,,,,,,,,,,,,,,,,,,,,,,,,/muse/elements/blink
2021-04-20 22:30:26.860,0.14237364,0.66316426,0.58484083,0.30692127,0.10066052,0.32586017,0.10551371,0.24078135,0.21009329,0.44740292,0.31202924,0.32742882,0.14794892,0.2680691,0.13689797,0.21802,-0.08098922,-0.3275122,-0.07939442,0.08555583,827.2161,809.0842,812.3077,843.73627,717.619,-0.24267578125,-0.03106689453125,0.97552490234375,5.1739501953125,-5.48797607421875,1.495361328125,1,1.0,1.0,1.0,1.0,100.00
2021-04-20 22:30:27.386,0.12795517,0.82007074,0.94651484,0.4016009,0.09270516,0.52246314,0.4903769,0.29581496,0.20610623,0.4842285,0.6279395,0.31501606,0.168826,0.23565112,0.22675845,0.23747501,-0.08617175,-0.22934905,-0.03174116,0.054356858,811.0989,805.4579,800.6227,769.19415,602.7839,-0.2412109375,-0.0284423828125,0.97271728515625,4.104766845703125,-3.925323486328125,-0.31402587890625,1,1.0,1.0,1.0,1.0,100.00
2021-04-20 22:30:27.895,0.1488043,0.6951207,0.8802412,0.48954684,0.054641508,0.42871428,0.44101116,0.30231872,0.19435793,0.4921718,0.6279395,0.23088329,0.21148552,0.16799018,0.271493,0.25940493,-0.091269426,-0.22818393,0.017790895,0.025022594,805.05493,812.71063,805.8608,780.07324,627.76556,-0.25726318359375,-0.0296630859375,0.97296142578125,3.84307861328125,-3.701019287109375,0.740203857421875,1,1.0,1.0,1.0,1.0,100.00
2021-04-20 22:30:28.403,-0.068480246,0.53717774,0.7767949,0.34938556,-0.19058159,0.35907724,0.4026517,0.32012904,0.26449838,0.5078804,0.6338493,0.44034153,-0.019753406,0.15106113,0.37871554,0.1902093,-0.33739153,-0.23642066,0.0025059409,0.031620175,803.0403,808.68134,809.4872,847.76556,927.9487,-0.25115966796875,-0.0245361328125,0.9736328125,4.673004150390625,-4.844970703125,1.71966552734375,1,1.0,1.0,1.0,1.0,100.00
2021-04-20 22:30:28.924,0.21159023,0.11383695,0.0074284347,0.6523774,-0.09477504,-0.012888817,-0.17633376,0.23377728,0.35328922,0.22635622,0.20011982,0.5190363,0.07419,0.13730079,0.350525,0.2175737,-0.3318334,-0.29698014,0.01517419,-0.06543256,678.1319,779.67035,819.5604,714.7985,715.6044,-0.2528076171875,-0.03009033203125,0.9736328125,1.532745361328125,-2.953338623046875,2.01873779296875,1,1.0,1.0,1.0,1.0,100.00
2021-04-20 22:30:29.097,,,,,,,,,,,,,,,,,,,,,,,,,,,,,,,,,,,,,,/muse/elements/blink
2021-04-20 22:30:29.445,0.21159023,0.33370638,0.7002623,0.69116926,-0.09477504,0.20907438,0.39400035,0.25908905,0.35328922,0.29125392,0.29207674,0.50433856,0.07419,0.22062263,0.38605356,0.22772576,-0.3318334,-0.29343557,-0.02343462,-0.0980368,815.5311,814.3223,797.8022,783.69965,732.52747,-0.257080078125,-0.04608154296875,0.96661376953125,5.076751708984375,-4.314117431640625,-0.605621337890625,1,1.0,1.0,1.0,1.0,100.00
2021-04-20 22:30:29.968,0.414105,0.66517913,0.8883594,0.8962536,0.0012501704,0.44658503,0.5730947,0.059874106,0.21571293,0.3540906,0.31189933,0.4370931,0.16871205,0.20091215,0.39255512,0.25563616,-0.32498428,-0.18359,0.022956496,-0.26998103,814.3223,815.9341,806.26373,755.89746,727.6923,-0.260009765625,-0.04443359375,0.96295166015625,5.323486328125,-3.648681640625,0.306549072265625,1,1.0,1.0,1.0,1.0,100.00
2021-04-20 22:30:30.421,,,,,,,,,,,,,,,,,,,,,,,,,,,,,,,,,,,,,,/muse/elements/blink
2021-04-20 22:30:30.469,0.414105,0.8102204,0.91032153,0.8962536,0.0012501704,0.5184055,0.61859655,0.059874106,0.21571293,0.388834,0.30215025,0.4370931,0.16871205,0.22006695,0.3840087,0.25563616,-0.32498428,-0.11211568,0.07200389,-0.26998103,829.6337,811.0989,799.41394,851.79486,784.90845,-0.2615966796875,-0.046142578125,0.96929931640625,5.345916748046875,-3.536529541015625,2.519683837890625,1,1.0,1.0,1.0,1.0,100.00
2021-04-20 22:30:30.977,0.414105,0.6426605,0.6979535,0.8962536,0.0012501704,0.4343153,0.4235144,0.059874106,0.21571293,0.47671953,0.42988414,0.4370931,0.16871205,0.18164128,0.3812788,0.25563616,-0.32498428,0.0060551194,0.14767791,-0.26998103,808.68134,795.78754,808.2784,868.315,946.08057,-0.2720947265625,-0.0328369140625,0.96734619140625,5.12908935546875,-4.8150634765625,1.757049560546875,1,1.0,1.0,1.0,1.0,100.00
2021-04-20 22:30:31.490,0.414105,0.43601322,0.4417766,0.8962536,0.0012501704,0.26917955,0.20901273,0.059874106,0.21571293,0.47671953,0.36435422,0.4370931,0.16871205,0.2364563,0.36609024,0.25563616,-0.32498428,-0.017637756,0.06863367,-0.26998103,806.6667,815.5311,811.50183,798.20514,666.8498,-0.25848388671875,-0.0289306640625,0.9730224609375,4.486083984375,-4.50103759765625,0.276641845703125,1,1.0,1.0,1.0,1.0,100.00
2021-04-20 22:30:32.009,-0.023123316,0.40069774,0.387984,0.23116067,0.30977413,0.28213954,0.06709577,0.38209203,0.36473364,0.42891896,0.3786135,0.46780443,0.30683026,0.25951737,0.39264587,0.30373406,-0.35993025,-0.01301482,-0.012909546,-0.11528984,801.02563,802.6374,816.337,832.4542,803.0403,-0.25439453125,-0.02862548828125,0.9783935546875,4.358978271484375,-5.0244140625,1.353302001953125,1,1.0,1.0,1.0,1.0,100.00
2021-04-20 22:30:32.510,0.11119162,0.41710025,0.054355863,0.18666172,0.2543155,0.15689449,-0.20302044,0.34408116,0.45941806,0.1499903,0.3054689,0.48278672,0.21249464,0.2187329,0.35238037,0.3278095,-0.32378596,-0.06912845,-0.053069796,-0.123566546,804.2491,802.6374,804.65204,855.0183,810.293,-0.25732421875,-0.0242919921875,0.97332763671875,3.656158447265625,-3.529052734375,-0.01495361328125,1,1.0,1.0,1.0,1.0,100.00
2021-04-20 22:30:33.018,0.020628259,0.33168966,-0.04316815,0.10412785,0.15998574,0.06131864,-0.32310614,0.19145891,0.50062233,0.14441064,0.3032462,0.48278672,0.12452834,0.14624031,0.2773689,0.2571542,-0.27972084,-0.026480056,0.033261403,-0.09458455,803.44324,813.1135,805.8608,795.38464,640.2564,-0.26507568359375,-0.03619384765625,0.97021484375,4.74029541015625,-4.029998779296875,1.293487548828125,1,1.0,1.0,1.0,1.0,100.00
2021-04-20 22:30:33.530,0.14555903,0.14740467,-0.08695813,0.11732508,0.010306001,-0.0115597965,-0.280381,-0.008704448,0.51390797,0.29092464,0.20930578,0.51974654,-0.0023550778,0.052129034,0.26878518,0.20100059,-0.2549044,-0.09623603,0.1483565,-0.051131457,818.3516,813.5165,808.2784,760.7326,596.7399,-0.2568359375,-0.03302001953125,0.97137451171875,4.493560791015625,-4.538421630859375,1.136474609375,1,1.0,1.0,1.0,1.0,100.00
2021-04-20 22:30:34.043,0.3187517,0.41131344,0.0181703,0.15559411,-0.001701756,0.052412536,-0.018057315,-0.017737785,0.50126827,0.35925132,0.32827002,0.559607,0.06491771,0.15993682,0.30432582,0.20614803,-0.25618753,-0.18476842,0.1152395,-0.04175327,819.5604,800.6227,789.7436,821.1722,807.0696,-0.25286865234375,-0.0394287109375,0.9688720703125,3.940277099609375,-3.96270751953125,0.321502685546875,1,1.0,1.0,1.0,1.0,100.00
2021-04-20 22:30:34.165,,,,,,,,,,,,,,,,,,,,,,,,,,,,,,,,,,,,,,/muse/elements/blink
2021-04-20 22:30:34.560,0.4666109,0.81015944,0.28068614,0.2589364,0.055409916,0.33073524,0.3953618,0.1325966,0.50126827,0.5785615,0.6055779,0.559607,0.14570105,0.22986722,0.33141842,0.26742378,-0.28875607,-0.34056225,0.14716722,-0.041700725,801.8315,809.0842,802.23444,859.0476,919.89014,-0.25860595703125,-0.03851318359375,0.96392822265625,4.463653564453125,-3.90289306640625,1.45050048828125,1,1.0,1.0,1.0,1.0,100.00
2021-04-20 22:30:35.084,0.6120108,0.84842,0.30769303,0.25738427,0.20016846,0.34289145,0.43498662,0.34091297,0.32036912,0.5785615,0.63511777,0.49216244,0.27389196,0.34657794,0.28596056,0.39297003,-0.30477324,-0.30465344,0.1353991,-0.11460817,801.8315,803.0403,804.2491,810.696,763.95605,-0.25616455078125,-0.03192138671875,0.97418212890625,3.985137939453125,-6.1309814453125,1.428070068359375,1,1.0,1.0,1.0,1.0,100.00
2021-04-20 22:30:35.586,0.6120108,0.74750185,0.29006818,0.25738427,0.20016846,0.27952072,0.39992285,0.34091297,0.32036912,0.5582938,0.63818365,0.49216244,0.27389196,0.36765113,0.22043957,0.39297003,-0.30477324,-0.23410265,0.20519698,-0.11460817,808.2784,823.1868,793.7729,760.7326,653.95605,-0.24505615234375,-0.03057861328125,0.97430419921875,4.628143310546875,-4.8150634765625,1.0467529296875,1,1.0,1.0,1.0,1.0,100.00
2021-04-20 22:30:36.101,-0.16050172,0.6825557,0.37900314,0.24786232,0.22877142,0.12290265,0.11097095,0.40422437,0.3658362,0.40405646,0.47033048,0.12610924,0.15302944,0.37213376,0.25613976,0.28838402,-0.31946826,-0.252455,0.17740868,-0.08724956,805.8608,814.7253,809.0842,774.83514,753.0769,-0.2437744140625,-0.0377197265625,0.97149658203125,4.299163818359375,-3.7982177734375,0.022430419921875,1,1.0,1.0,1.0,1.0,100.00
2021-04-20 22:30:36.603,-0.12909876,0.7623336,0.44333133,0.2309255,0.22904737,0.15855682,0.17183504,0.43350714,0.48431426,0.4400872,0.29418826,0.252894,0.17746599,0.27989247,0.23079103,0.32311642,-0.1932967,-0.25235742,0.1284845,-0.013206787,796.1905,805.05493,817.1429,798.20514,648.315,-0.2591552734375,-0.03472900390625,0.9686279296875,4.02252197265625,-3.4991455078125,0.70281982421875,1,1.0,1.0,1.0,1.0,100.00
2021-04-20 22:30:37.129,0.048307277,0.82654333,0.48166993,0.27735022,0.22705542,0.20296271,0.16320956,0.41894078,0.39774495,0.4440056,0.30185828,0.42879227,0.19918244,0.20923023,0.2581781,0.33376074,-0.09492431,-0.2733916,0.07002181,0.020271061,811.0989,794.17584,799.41394,758.315,676.1172,-0.255859375,-0.03692626953125,0.97369384765625,4.807586669921875,-4.83001708984375,1.51031494140625,1,1.0,1.0,1.0,1.0,100.00
2021-04-20 22:30:37.630,0.123526074,0.65032446,0.38993624,0.26057348,0.14108177,0.17403468,0.13593002,0.3446485,0.42213732,0.526708,0.34846133,0.45386833,0.16076583,0.20599557,0.20749728,0.2558621,-0.065343566,-0.120751336,-0.0030030112,0.018418396,752.674,812.3077,813.91943,721.2454,558.0586,-0.252685546875,-0.03558349609375,0.97052001953125,4.478607177734375,-3.93280029296875,0.97198486328125,1,1.0,1.0,1.0,1.0,100.00
2021-04-20 22:30:37.806,,,,,,,,,,,,,,,,,,,,,,,,,,,,,,,,,,,,,,/muse/elements/blink
2021-04-20 22:30:38.141,0.19271418,0.6796898,0.54270583,0.28761807,0.110456534,0.26631504,0.30128592,0.28500184,0.31439522,0.53983194,0.35963577,0.4501022,0.10306899,0.26160753,0.3062637,0.16506538,-0.09587293,-0.09395335,-0.014385323,-0.03266802,820.7692,788.5348,809.89014,774.0293,917.47253,-0.245849609375,-0.03631591796875,0.97015380859375,4.42626953125,-4.1571044921875,0.321502685546875,1,1.0,1.0,1.0,1.0,100.00
2021-04-20 22:30:38.671,0.051710628,0.61783236,0.519579,0.28621614,0.13072772,0.24140562,0.33365828,0.42161193,0.30410868,0.5319346,0.32189906,0.43221247,0.0640217,0.21882363,0.3500489,0.07115663,-0.18735847,6.2256114E-4,0.012610136,0.015964426,813.91943,820.3663,807.0696,832.8571,696.6667,-0.24969482421875,-0.0391845703125,0.971923828125,4.41131591796875,-4.762725830078125,1.173858642578125,1,1.0,1.0,1.0,1.0,100.00
2021-04-20 22:30:39.172,0.04213203,0.4632062,0.3710473,-0.36351115,0.088077135,0.19013038,0.22775571,-0.10259249,0.3026359,0.49794555,0.20971845,0.42837894,0.08563201,0.15270483,0.32382333,0.42872316,-0.24321975,-0.04561454,0.100290544,-0.20569961,807.0696,808.2784,807.0696,763.1502,595.9341,-0.24560546875,-0.03558349609375,0.97271728515625,3.9178466796875,-4.553375244140625,1.4056396484375,1,1.0,1.0,1.0,1.0,100.00
2021-04-20 22:30:39.697,0.10369082,0.06375867,-0.09711051,-0.28695038,-0.15598659,9.657861E-4,-0.18380915,-0.0535527,0.5136432,0.19496596,0.059135564,0.47465852,0.20565201,0.22625254,0.2549038,0.4591623,-0.27662385,-0.017446648,0.15712906,-0.091196865,823.9927,796.1905,810.696,798.20514,903.7729,-0.23870849609375,-0.03271484375,0.9720458984375,4.53094482421875,-4.80010986328125,0.64300537109375,1,1.0,1.0,1.0,1.0,100.00
2021-04-20 22:30:40.221,0.0030409307,0.19280322,0.102880575,-0.16662158,-0.20505421,0.02884382,-0.34953582,0.027767988,0.54816276,0.22220096,0.06390599,0.5564542,0.2808251,0.32845387,0.3447851,0.52856874,-0.25002995,-0.0841809,0.1819419,-0.07922766,791.75824,799.011,818.7546,839.304,761.53845,-0.24322509765625,-0.02777099609375,0.97088623046875,3.7982177734375,-4.08233642578125,-0.067291259765625,1,1.0,1.0,1.0,1.0,100.00
2021-04-20 22:30:40.726,0.083764836,0.21592534,0.22151254,0.031850994,-0.113099664,-0.047551982,-0.18221793,0.08460209,0.43851164,0.21719168,0.33498603,0.5625315,0.34254634,0.3796558,0.4104734,0.49539825,-0.18945625,-0.07414186,0.16834502,-0.022725599,816.7399,818.3516,799.011,821.978,799.81683,-0.24078369140625,-0.02099609375,0.97882080078125,5.689849853515625,-6.213226318359375,-1.682281494140625,1,1.0,1.0,1.0,1.0,100.00
2021-04-20 22:30:41.241,0.12870623,0.67309755,0.61069065,0.53154856,0.17219819,0.29389048,0.2014978,0.3649284,0.43756118,0.67107916,0.44594797,0.4276716,0.34767786,0.38499907,0.45443627,0.47752225,-0.17758252,-0.07376883,0.12467786,0.048380364,809.0842,806.26373,814.7253,853.00366,827.619,-0.23883056640625,-0.0379638671875,0.9818115234375,4.59075927734375,-4.17205810546875,1.9439697265625,1,1.0,1.0,1.0,1.0,100.00
2021-04-20 22:30:41.765,0.3004961,0.89998984,0.6577087,0.6249539,0.305579,0.43438295,0.28258666,0.509,0.5254885,0.67107916,0.45222157,0.7387058,0.29507536,0.3416872,0.38337997,0.37081835,-0.18784334,-0.09755147,0.18811181,0.12576841,813.1135,820.7692,809.89014,767.5824,637.4359,-0.22174072265625,-0.0225830078125,0.97381591796875,5.689849853515625,-1.024322509765625,1.667327880859375,1,1.0,1.0,1.0,1.0,100.00
2021-04-20 22:30:42.287,0.2698702,0.91951156,0.61700886,0.66134346,0.3292291,0.44982484,0.24137796,0.6116831,0.5343536,0.67107916,0.43785012,0.719644,0.22415024,0.2711615,0.32563558,0.35187715,-0.23595189,-0.1564536,0.28497523,0.12915005,848.97437,807.0696,789.7436,791.75824,714.3956,-0.23260498046875,0.00323486328125,0.9805908203125,5.27862548828125,-2.97576904296875,1.2860107421875,1,1.0,1.0,1.0,1.0,100.00
2021-04-20 22:30:42.328,,,,,,,,,,,,,,,,,,,,,,,,,,,,,,,,,,,,,,/muse/elements/blink
2021-04-20 22:30:42.798,0.21999092,0.9034896,0.8214259,0.26663533,0.23145917,0.53298265,0.50165546,0.5667941,0.49873325,0.3429427,0.39750853,0.703494,0.19451044,0.21814835,0.20484015,0.3052449,-0.26798284,-0.27910858,0.2815556,0.085155986,728.9011,784.90845,834.87177,725.6777,795.78754,-0.2681884765625,0.0367431640625,0.9671630859375,6.497344970703125,-1.697235107421875,19.133148193359375,1,1.0,1.0,1.0,1.0,100.00
2021-04-20 22:30:42.942,,,,,,,,,,,,,,,,,,,,,,,,,,,,,,,,,,,,,,/muse/elements/blink
2021-04-20 22:30:43.308,-0.00918181,0.8680174,0.90696365,0.13587582,0.18730327,0.5835378,0.59451365,0.5885426,0.47835195,0.1554782,0.3245184,0.65060365,0.18417071,0.23091678,0.12833682,0.2404032,-0.2851682,-0.30863973,0.2424096,-0.021688133,809.89014,807.47253,800.6227,794.57874,589.0842,-0.24163818359375,0.0633544921875,0.9730224609375,4.14215087890625,-10.16845703125,1.2261962890625,1,1.0,1.0,1.0,1.0,100.00
2021-04-20 22:30:43.837,-0.00918181,1.2023076,1.1734047,0.13587582,0.18730327,0.8373123,0.8359352,0.5885426,0.47835195,0.42205217,0.31043592,0.65060365,0.18417071,0.27651012,0.08013504,0.2404032,-0.2851682,-0.2186798,0.042159826,-0.021688133,796.99634,803.44324,800.2198,818.7546,800.6227,-0.2255859375,0.04803466796875,0.97442626953125,4.388885498046875,-3.476715087890625,-2.938385009765625,1,1.0,1.0,1.0,1.0,100.00
2021-04-20 22:30:44.363,-0.00918181,0.90348166,0.48583153,0.13587582,0.18730327,0.38883352,0.22358514,0.5885426,0.47835195,0.43679753,0.27092984,0.65060365,0.18417071,0.20272136,0.2886033,0.2404032,-0.2851682,-0.20320535,0.07379659,-0.021688133,811.50183,811.50183,804.2491,756.7033,634.61536,-0.24224853515625,0.03143310546875,0.97198486328125,4.2169189453125,-3.715972900390625,1.861724853515625,1,1.0,1.0,1.0,1.0,100.00
2021-04-20 22:30:44.864,0.14427722,0.73081285,0.38181692,0.38208848,-0.020342266,0.29725012,0.19748846,0.07295681,0.435004,0.45774883,0.27456775,0.3942271,0.09040914,0.20933,0.29780322,0.22444533,-0.31401423,-0.15559505,0.034936354,0.0683189,809.89014,810.696,790.9524,773.22345,754.2857,-0.2357177734375,0.0235595703125,0.978271484375,3.431854248046875,-5.809478759765625,0.97198486328125,1,1.0,1.0,1.0,1.0,100.00
2021-04-20 22:30:45.373,0.09307462,0.42843848,0.30762598,0.27029282,0.14271435,0.11084379,0.16859725,-0.02983387,0.45578265,0.32598576,0.33429125,0.45336327,0.12640959,0.21831815,0.28401408,0.2641577,-0.26414016,-0.17211235,0.0033415211,0.029579815,796.99634,796.1905,800.2198,808.68134,905.78754,-0.235595703125,0.0247802734375,0.98388671875,4.598236083984375,-4.0972900390625,0.4486083984375,1,1.0,1.0,1.0,1.0,100.00
2021-04-20 22:30:45.884,-0.15005095,0.07890563,0.16598979,0.20955521,0.093557216,0.041552857,0.022926677,-0.25605574,0.41651803,0.13693617,0.45300046,0.3946116,0.15969302,0.33097914,0.3878969,0.3405399,-0.26579723,-0.123479486,0.06760816,-0.059596375,796.1905,806.6667,799.41394,830.4396,683.36993,-0.2332763671875,0.01898193359375,0.9715576171875,3.461761474609375,-5.03936767578125,-0.11962890625,1,1.0,1.0,1.0,1.0,100.00
2021-04-20 22:30:46.341,,,,,,,,,,,,,,,,,,,,,,,,,,,,,,,,,,,,,,/muse/elements/blink
2021-04-20 22:30:46.402,-0.2082566,0.52519566,0.3384325,0.03829109,0.11831559,0.12218655,0.10435489,-0.2191582,0.35284737,0.42505595,0.5096523,0.4386846,0.17174192,0.30639106,0.40876555,0.34404984,-0.2455627,-0.060446937,0.06139424,-0.18856722,838.0952,808.2784,792.96704,815.9341,728.49817,-0.23968505859375,0.0228271484375,0.97412109375,4.523468017578125,-4.388885498046875,1.308441162109375,1,1.0,1.0,1.0,1.0,100.00
2021-04-20 22:30:46.913,-0.3619352,0.64381355,0.6848442,0.12932594,-0.06523953,0.2141168,0.34651276,-0.15170638,-0.002699056,0.44964105,0.4914462,0.25262105,0.15405388,0.22907706,0.44560456,0.33064723,-0.28107774,-0.061842985,0.1541684,-0.2538526,815.9341,814.7253,799.41394,761.53845,689.81683,-0.24481201171875,0.01739501953125,0.9764404296875,5.001983642578125,-4.000091552734375,1.502838134765625,1,1.0,1.0,1.0,1.0,100.00
2021-04-20 22:30:47.419,-0.2385909,0.6458606,0.6861939,0.15087765,-0.13820784,0.21959695,0.34283832,0.047144115,-0.15251398,0.4406873,0.34326762,0.12113427,0.13512532,0.12667108,0.38425446,0.23839289,-0.20862287,-0.060915638,0.08225995,-0.15188397,801.8315,809.0842,805.8608,824.3956,758.315,-0.23968505859375,0.0247802734375,0.97625732421875,4.673004150390625,-5.151519775390625,1.435546875,1,1.0,1.0,1.0,1.0,100.00
2021-04-20 22:30:47.950,0.42367175,0.3224047,0.6252957,0.7095286,0.15336798,0.059852198,0.22236255,0.22868648,-0.016016724,0.23745063,0.08057767,-0.042323507,0.15280633,0.17009021,0.39834598,0.41217542,-0.57499766,-0.09761199,0.075079486,-0.14311962,794.9817,796.1905,803.0403,844.5421,1066.1538,-0.2374267578125,0.01995849609375,0.97393798828125,5.18890380859375,-4.822540283203125,0.067291259765625,1,1.0,1.0,1.0,1.0,100.00
2021-04-20 22:30:48.456,0.2020771,0.018153956,0.21111351,0.5685716,0.087262414,-0.18395829,-0.14939004,0.19517055,0.1550275,-0.009047674,0.1583801,0.11955226,0.14758252,0.28985247,0.3555881,0.38907275,-0.4380071,-0.07656993,0.019848416,-0.20504825,808.68134,807.8755,806.6667,781.28204,685.38464,-0.235107421875,0.040283203125,0.9805908203125,5.540313720703125,-4.987030029296875,-0.590667724609375,1,1.0,1.0,1.0,1.0,100.00
2021-04-20 22:30:48.767,,,,,,,,,,,,,,,,,,,,,,,,,,,,,,,,,,,,,,/muse/elements/blink
2021-04-20 22:30:48.964,0.21775173,0.09838123,0.34939528,0.53200036,0.16586056,-0.2136473,-0.029187953,0.2246969,0.27131408,0.05477736,0.20081541,0.31441483,0.13419735,0.26146775,0.31231427,0.39067647,-0.43265495,-0.031219516,0.11254768,-0.20045793,832.8571,803.0403,807.8755,781.28204,740.58606,-0.233154296875,0.05010986328125,0.97723388671875,3.970184326171875,-4.583282470703125,-0.500946044921875,1,1.0,1.0,1.0,1.0,100.00
2021-04-20 22:30:49.475,0.04843363,0.59914875,0.7947288,0.30932015,0.2126776,0.4044638,0.534086,0.26948527,0.22476783,0.42102396,0.61480194,0.30562928,0.119632244,0.1776626,0.2764018,0.39361697,-0.35719,0.06170184,0.18868715,-0.2407757,803.8461,806.26373,810.293,800.2198,904.9817,-0.16973876953125,0.06512451171875,0.987060546875,4.66552734375,-6.527252197265625,1.786956787109375,1,1.0,1.0,1.0,1.0,100.00
2021-04-20 22:30:49.980,0.16667452,0.7220631,0.800849,0.29552844,0.33974242,0.47392783,0.5366843,0.37925074,0.20886797,0.44362617,0.6080991,0.30562928,0.08939259,0.049677607,0.2903733,0.41751823,-0.35367623,0.049667712,0.19362573,-0.22183219,799.41394,805.8608,807.0696,784.5055,674.90845,-0.1778564453125,0.05572509765625,0.9864501953125,4.433746337890625,-3.170166015625,1.71966552734375,1,1.0,1.0,1.0,1.0,100.00
2021-04-20 22:30:50.496,0.23126173,0.74172395,0.7263697,0.028034614,-0.02607491,0.4847009,0.5102561,-1.713447E-5,0.19461197,0.44682512,0.6080991,0.51562643,0.14692438,0.058095545,0.35152388,0.34508285,-0.3413223,0.0010640243,0.14500289,-0.116212346,818.7546,806.6667,813.91943,766.3736,613.2601,-0.19580078125,0.04296875,0.98480224609375,3.828125,-2.669219970703125,-0.650482177734375,1,1.0,1.0,1.0,1.0,100.00
2021-04-20 22:30:51.011,0.33403674,0.49140418,-0.011735012,0.3041438,0.025770415,0.12920788,-0.035355963,-0.062194344,0.35429022,0.31129295,0.2914492,0.51858324,0.13324519,0.17494145,0.36011273,0.49778205,-0.29359213,-0.17117177,0.079382025,-0.119099304,792.1612,796.99634,812.71063,848.5714,907.3993,-0.20782470703125,0.01409912109375,0.978515625,4.2169189453125,-3.312225341796875,-1.016845703125,1,1.0,1.0,1.0,1.0,100.00
2021-04-20 22:30:51.518,0.50050735,0.13607673,-0.020007689,0.68866014,0.1443233,-0.0404378,0.048566416,0.32840624,0.74979717,0.1300876,0.1409661,0.6421621,0.18877451,0.18732888,0.28405386,0.58038473,-0.30619234,-0.24550445,0.0070044585,-0.036127742,796.5934,802.23444,817.1429,852.1978,823.9927,-0.22540283203125,0.03436279296875,0.9793701171875,4.3963623046875,-5.93658447265625,5.1141357421875,1,1.0,1.0,1.0,1.0,100.00
2021-04-20 22:30:52.045,0.69703996,0.15362802,0.22218385,0.8831883,0.30126554,-0.06931265,0.0986077,0.4872214,0.8008482,0.33210516,0.23611768,0.72836584,0.34288847,0.17558098,0.2364387,0.7385488,-0.020954981,-0.30258164,-0.07626527,0.07604925,782.8938,805.4579,790.14655,789.34064,742.1978,-0.2138671875,0.02081298828125,0.98345947265625,5.166473388671875,-2.624359130859375,0.79254150390625,1,1.0,1.0,1.0,1.0,100.00
2021-04-20 22:30:52.146,,,,,,,,,,,,,,,,,,,,,,,,,,,,,,,,,,,,,,/muse/elements/blink
2021-04-20 22:30:52.562,0.8255461,0.26672798,0.4858227,1.0659915,0.40383735,-0.044616833,0.5519748,0.7174761,0.77991027,0.30141366,0.59089905,0.7105672,0.44666412,0.07067504,0.46509364,0.8331488,0.09019016,-0.3291646,0.08045014,0.20440476,819.15753,810.293,798.20514,770.40295,569.34064,-0.20635986328125,0.02581787109375,0.9796142578125,4.224395751953125,-5.06927490234375,1.62994384765625,1,1.0,1.0,1.0,1.0,100.00
2021-04-20 22:30:53.080,0.7711579,0.44060326,0.4832984,1.0891789,0.37388563,-0.036182135,0.53100973,0.75323784,0.69643104,0.2757011,0.6322256,0.6547835,0.5265331,0.012252298,0.5185272,0.92059505,0.33039123,-0.25110468,0.16347758,0.2722629,807.47253,818.3516,798.20514,770.40295,718.8278,-0.212890625,0.0289306640625,0.9820556640625,4.9945068359375,-3.96270751953125,1.263580322265625,1,1.0,1.0,1.0,1.0,100.00
2021-04-20 22:30:53.583,,,,,,,,,,,,,,,,,,,,,,,,,,,,,,,,,,,,,,/muse/elements/blink
2021-04-20 22:30:53.584,0.7711579,0.07782912,0.4621976,1.0891789,0.37388563,0.027737109,0.5141135,0.75323784,0.69643104,0.4745009,0.6351593,0.6547835,0.5265331,0.30981147,0.53567195,0.92059505,0.33039123,-0.1694592,0.15591802,0.2722629,812.71063,786.52014,797.8022,777.25275,947.28937,-0.21844482421875,0.02239990234375,0.984130859375,4.987030029296875,-4.373931884765625,2.026214599609375,1,1.0,1.0,1.0,1.0,100.00
2021-04-20 22:30:54.088,0.7711579,0.17267895,0.52470046,1.0891789,0.37388563,0.33713064,0.18976974,0.75323784,0.69643104,0.71654516,0.59482133,0.6547835,0.5265331,0.29439375,0.3832365,0.92059505,0.33039123,-0.13494386,0.021058403,0.2722629,802.23444,801.8315,803.8461,833.663,774.83514,-0.2208251953125,0.0303955078125,0.9788818359375,4.91973876953125,-4.0673828125,1.652374267578125,1,1.0,1.0,1.0,1.0,100.00
2021-04-20 22:30:54.600,0.7711579,0.2843979,0.554,1.0891789,0.37388563,0.33757642,0.1914109,0.75323784,0.69643104,0.7225138,0.5604794,0.6547835,0.5265331,0.29343987,0.36245254,0.92059505,0.33039123,-0.14756815,-0.14595652,0.2722629,808.2784,801.02563,803.0403,765.56775,633.8095,-0.2113037109375,0.02532958984375,0.981201171875,4.74029541015625,-4.366455078125,0.605621337890625,1,1.0,1.0,1.0,1.0,100.00
2021-04-20 22:30:55.123,-0.31589174,0.61911416,0.6896193,0.68468046,0.15249023,0.44268963,0.46260726,0.5112126,0.18409465,0.696418,0.6787358,0.36052898,0.25043276,0.3367537,0.2746263,0.28417364,-0.13945158,-0.1204242,-0.1677217,0.10689863,792.5641,793.36993,817.9487,839.707,945.6777,-0.21722412109375,0.02679443359375,0.97808837890625,4.6954345703125,-4.23187255859375,1.024322509765625,1,2.0,1.0,1.0,2.0,100.00
2021-04-20 22:30:55.646,-0.27147138,0.6418089,0.5388434,0.57509923,-0.038065802,0.3233292,0.3667538,0.36370784,0.24213041,0.603235,0.6810147,0.3612414,0.18185344,0.29603222,0.19429535,0.28405932,-0.2026695,-0.1523262,0.026526652,-0.046255782,789.34064,804.65204,800.6227,819.9634,932.381,-0.21380615234375,0.02703857421875,0.9810791015625,4.94964599609375,-4.5458984375,1.016845703125,1,1.0,1.0,1.0,1.0,100.00
2021-04-20 22:30:56.159,-0.29959902,0.58657223,0.4519948,0.47389498,-0.06198734,0.27586883,0.30655754,0.41088116,0.28338453,0.45507818,0.6859053,0.44802845,0.14122999,0.28735942,0.25639966,0.28710768,-0.22898354,-0.14145061,0.21368022,0.0049942737,799.011,806.26373,808.68134,858.24176,859.45056,-0.20001220703125,0.03314208984375,0.98797607421875,3.648681640625,-4.942169189453125,-2.968292236328125,1,1.0,1.0,1.0,1.0,100.00
2021-04-20 22:30:56.662,-0.020128934,0.4972421,0.2114922,0.41226542,-0.085213505,0.441994,0.0013489692,0.54969317,0.6073965,0.33459494,0.5625266,0.55452764,0.09220297,0.23766547,0.3014154,0.3552521,-0.32883123,-0.18090051,0.2713809,-0.0734673,792.96704,811.9048,799.81683,772.01465,686.99634,-0.24468994140625,-0.04541015625,0.9749755859375,6.287994384765625,3.536529541015625,-2.22808837890625,1,1.0,1.0,1.0,1.0,100.00
2021-04-20 22:30:57.182,0.3600043,0.6587854,0.48325604,0.4196111,0.3523105,0.4628254,0.23165011,0.5846179,0.6792798,0.32490745,0.54318184,0.68825686,0.14931513,0.31323197,0.26608044,0.37980393,-0.3616364,-0.18317258,0.13746688,-0.05505474,799.011,805.8608,806.26373,752.27106,608.4249,-0.3359375,-0.0108642578125,0.94793701171875,10.175933837890625,1.443023681640625,-8.00018310546875,1,1.0,1.0,1.0,1.0,100.00
2021-04-20 22:30:57.702,0.57908845,0.6699221,0.5062656,0.56750846,0.34645852,0.4295668,0.20587122,0.48923227,0.66985345,0.33109435,0.54318184,0.7011859,0.22198492,0.27779615,0.23640129,0.37343064,-0.41024268,-0.22724771,-0.06864064,-0.16779627,803.0403,810.293,795.78754,799.011,895.7143,-0.33990478515625,-0.05322265625,0.9342041015625,6.377716064453125,-1.278533935546875,-9.308624267578125,1,1.0,1.0,1.0,1.0,100.00
2021-04-20 22:30:58.220,0.5775728,0.5220978,0.45354077,0.5181429,0.33582675,0.105301484,0.06085968,0.1929698,0.6654057,0.14520322,0.25710517,0.6462444,0.24890274,0.26242372,0.29500538,0.28160107,-0.1733456,-0.21295229,-0.100108966,-0.054001465,821.1722,813.1135,815.9341,822.7839,821.1722,-0.29132080078125,-0.013671875,0.97747802734375,13.41339111328125,-5.360870361328125,-10.415191650390625,1,1.0,1.0,1.0,1.0,100.00
2021-04-20 22:30:58.741,0.49801472,0.26618645,0.17800657,0.46218404,-0.03426693,-0.014470875,-0.2714498,0.0043075406,0.48154712,0.145403,-0.05204421,0.56600744,0.20997341,0.2141955,0.31177244,0.18764542,-0.13840789,-0.25836325,-0.034201972,-0.055390794,805.8608,797.8022,803.8461,811.50183,751.4652,-0.27056884765625,0.030517578125,0.95794677734375,14.415283203125,-2.265472412109375,-15.888214111328125,1,1.0,1.0,1.0,1.0,100.00
2021-04-20 22:30:59.251,0.30987152,0.23535427,0.16799863,0.2191139,-0.048708607,-0.11666539,-0.10143762,0.04254314,0.4806495,0.2389654,-0.11022024,0.51918226,0.15321049,0.22090323,0.3237337,0.118775554,-0.13417314,-0.21351083,-0.010031183,-0.08402464,774.0293,792.96704,803.44324,786.52014,914.2491,-0.20159912109375,0.0433349609375,0.99322509765625,8.112335205078125,-14.811553955078125,-19.8583984375,1,1.0,1.0,1.0,1.0,100.00
2021-04-20 22:30:59.757,0.3571373,0.39855155,0.29399773,0.17990254,-0.025173277,-0.2536897,0.066751145,0.08346561,0.49084955,0.26014742,-0.07924325,0.48061422,0.2717224,0.15205584,0.33529478,0.07783455,-0.30621374,-0.123876154,-0.042672023,-0.16517214,786.9231,820.3663,813.5165,787.326,672.0879,-0.17584228515625,0.02740478515625,0.9886474609375,3.506622314453125,-8.74786376953125,-9.383392333984375,1,1.0,1.0,1.0,1.0,100.00
2021-04-20 22:31:00.267,0.5583045,0.62503827,0.5645551,0.30477113,0.07735149,-0.18175659,0.31349266,0.05027185,0.3290353,0.31387964,0.41397044,0.42570552,0.3673816,0.09448553,0.31176817,0.24480619,-0.32627353,-0.09131789,7.2913227E-4,-0.08806858,693.8461,775.2381,848.5714,696.26373,788.5348,-0.1396484375,0.05694580078125,0.98858642578125,8.3740234375,-5.794525146484375,-7.708587646484375,1,1.0,1.0,1.0,1.0,100.00
2021-04-20 22:31:00.473,,,,,,,,,,,,,,,,,,,,,,,,,,,,,,,,,,,,,,/muse/elements/blink
2021-04-20 22:31:00.782,0.63623023,0.6965059,0.7102008,0.38121414,0.15485634,0.17596027,0.49130917,0.07718332,0.21632388,0.35007674,0.4259092,0.3791493,0.43643412,0.18225554,0.29709604,0.2904779,-0.3325983,-0.114800796,0.052865658,-0.019696789,767.1795,802.23444,812.71063,780.4762,737.3626,-0.101318359375,0.10467529296875,0.998291015625,5.51788330078125,-5.824432373046875,12.389068603515625,1,1.0,1.0,1.0,1.0,100.00
2021-04-20 22:31:01.286,0.85780245,0.77174795,0.8511483,0.57237583,0.292305,0.44201255,0.637421,-0.07111977,0.1963219,0.48639825,0.6230398,0.3743852,0.4751377,0.35261655,0.39285085,0.54435617,-0.19294983,-0.18190442,-0.0015656529,0.05842093,776.04395,811.9048,799.81683,792.96704,689.41394,-0.12060546875,0.08477783203125,0.97845458984375,-2.19818115234375,-18.9013671875,-4.059906005859375,1,1.0,1.0,1.0,1.0,100.00
2021-04-20 22:31:01.817,0.85780245,0.6956976,0.8339477,0.57237583,0.292305,0.44290376,0.57799685,-0.07111977,0.1963219,0.50772446,0.6118898,0.3743852,0.4751377,0.3757951,0.48465657,0.54435617,-0.19294983,-0.19705707,-0.053189766,0.05842093,830.84247,809.0842,799.41394,815.5311,787.326,-0.094970703125,0.0623779296875,0.9981689453125,2.220611572265625,-12.84515380859375,-10.953521728515625,1,1.0,1.0,1.0,1.0,100.00
2021-04-20 22:31:02.344,-0.0063056354,0.5273253,0.6289633,0.43224874,0.5837745,0.35871053,0.30463898,0.5780327,0.6655428,0.5305019,0.60396034,0.74382526,0.43010917,0.32335243,0.5019641,0.5151572,-0.39790472,-0.19562139,-0.15768775,-0.15495268,832.0513,811.9048,809.4872,820.3663,820.7692,-0.01922607421875,0.0574951171875,0.9957275390625,1.15142822265625,-6.57958984375,6.497344970703125,1,1.0,1.0,1.0,1.0,100.00
2021-04-20 22:31:02.610,,,,,,,,,,,,,,,,,,,,,,,,,,,,,,,,,,,,,,/muse/elements/blink
2021-04-20 22:31:02.873,-0.0063056354,0.13771947,0.5267809,0.43224874,0.5837745,0.2906654,0.13747779,0.5780327,0.6655428,0.51470137,0.36680406,0.74382526,0.43010917,0.2471658,0.40168962,0.5151572,-0.39790472,-0.18492025,-0.05692202,-0.15495268,861.8681,816.7399,812.3077,839.304,775.2381,0.009521484375,0.04827880859375,0.95306396484375,2.07855224609375,-15.768585205078125,7.117919921875,1,1.0,1.0,1.0,1.0,100.00
2021-04-20 22:31:03.397,0.099982604,-0.02003739,0.6709788,0.4552287,0.66893965,0.40078998,0.35383788,0.6210943,0.49123725,0.3856274,0.2541395,0.6249312,0.45610937,0.23872054,0.2591935,0.50162166,-0.5003106,-0.18515787,0.04038101,-0.18488963,798.60803,805.8608,813.5165,813.91943,724.0659,0.01031494140625,0.0653076171875,1.012939453125,5.14404296875,-13.1890869140625,0.814971923828125,1,1.0,1.0,1.0,1.0,100.00
2021-04-20 22:31:03.923,0.16947775,0.20695096,0.6596446,0.46641997,0.6784495,0.33312812,0.34128392,0.6393296,0.48049903,0.37004894,0.1983678,0.59512997,0.44499648,0.2542783,0.23621464,0.5034856,-0.5274357,-0.1516568,0.0071567628,-0.21598141,770.0,791.75824,810.696,773.6264,694.2491,0.0880126953125,0.02410888671875,1.0035400390625,-0.22430419921875,-7.25250244140625,-0.710296630859375,1,1.0,1.0,1.0,1.0,100.00
2021-04-20 22:31:04.426,0.2460336,0.4904841,0.5354501,0.33228427,-0.08109977,0.30003613,0.25159684,0.21902047,0.4175625,0.3670154,0.113826334,0.37644547,0.26383048,0.2730054,0.25765604,0.060097322,-0.17874248,-0.102696136,-0.08768566,-0.12529287,784.90845,788.5348,799.41394,794.17584,741.39197,0.16070556640625,0.002197265625,0.99578857421875,2.1832275390625,-2.818756103515625,-6.6094970703125,1,1.0,1.0,1.0,1.0,100.00
2021-04-20 22:31:04.931,0.12818553,0.5723439,-0.05184353,0.24908565,0.006589517,0.1258526,-0.14045656,0.14633343,0.5269811,-0.04492557,0.042387165,0.46518362,0.4079591,0.31603786,0.32893154,0.16646998,-0.21464504,-0.13625541,-0.28386748,-0.15379609,846.9597,811.9048,811.0989,823.1868,793.36993,0.11590576171875,-0.0096435546875,0.9996337890625,3.476715087890625,0.478515625,-2.76641845703125,1,1.0,1.0,1.0,1.0,100.00
2021-04-20 22:31:05.439,0.04807827,0.6447751,-0.061869126,0.2711274,-0.048678294,0.0064463643,-0.087156534,-0.07671826,0.5269811,-0.08070574,0.1011853,0.473737,0.4158777,0.30323663,0.29845545,0.21786092,-0.19301477,-0.15615712,-0.19234093,-0.14231987,766.3736,804.2491,810.293,793.36993,605.6044,0.124755859375,0.00665283203125,0.99169921875,3.289794921875,-8.800201416015625,-0.37384033203125,1,1.0,1.0,1.0,1.0,100.00
2021-04-20 22:31:05.773,,,,,,,,,,,,,,,,,,,,,,,,,,,,,,,,,,,,,,/muse/elements/blink
2021-04-20 22:31:05.964,0.039831065,0.6399685,-0.08825169,0.30505994,-0.021879325,0.09202394,-0.073130354,-0.2213344,0.40714574,0.44940045,0.28828683,0.3538007,0.4504901,0.33449295,0.22563589,0.3129237,-0.23262861,-0.1531889,-0.17404366,-0.123544194,792.96704,795.38464,804.2491,799.41394,714.7985,0.1505126953125,-0.01470947265625,0.99078369140625,5.286102294921875,-0.0,-0.919647216796875,1,1.0,1.0,1.0,1.0,100.00
2021-04-20 22:31:06.469,0.17015982,0.7887845,-0.020720623,0.41934785,-0.15353438,0.29468727,0.07218264,-0.50592387,0.08573913,0.48401114,0.42682862,0.28988272,0.3960995,0.33325604,0.20172384,0.3803667,-0.13954456,-0.024614982,-0.07244068,-0.033473462,765.56775,807.0696,810.293,791.3553,665.64105,0.1387939453125,0.00592041015625,0.99932861328125,5.659942626953125,-1.861724853515625,0.95703125,1,1.0,1.0,1.0,1.0,100.00
2021-04-20 22:31:06.982,0.21661763,0.73163253,-0.057798624,0.43412888,-0.14007658,0.22257522,0.046979476,-0.484094,0.04257794,0.48401114,0.42682862,0.28131136,0.44529426,0.3673706,0.106148444,0.42690083,-0.10597908,-0.047248896,-0.065670885,0.0035510303,842.9304,814.7253,809.4872,823.1868,755.09155,0.16864013671875,0.0113525390625,1.029541015625,-2.04864501953125,-0.979461669921875,25.58563232421875,1,1.0,1.0,1.0,1.0,100.00
2021-04-20 22:31:07.486,0.3403742,0.66570294,-0.085498326,-0.26424226,-0.06462921,0.10846447,0.0066682864,-0.11198147,0.54712576,0.48393974,0.4213397,0.44035575,0.2025181,0.39037716,0.08592849,0.09657758,-0.46866438,-0.09751831,-0.0060500284,-0.31902182,785.7143,807.8755,807.0696,801.8315,756.30035,0.02783203125,-0.07098388671875,1.00189208984375,7.40203857421875,-5.689849853515625,8.00018310546875,1,1.0,1.0,1.0,1.0,100.00
2021-04-20 22:31:07.996,0.433953,0.4802932,0.3083116,-0.19171716,0.0751412,-0.06421103,0.14536226,-0.053387783,0.55929404,0.3707128,0.13813938,0.52045697,0.23771301,0.367531,-0.033974968,0.19936933,-0.4040599,-0.21411279,-0.11572983,-0.2739012,766.77655,804.65204,817.5458,773.22345,686.1905,0.03857421875,-0.03814697265625,1.006103515625,6.542205810546875,-3.06549072265625,7.932891845703125,1,1.0,1.0,1.0,1.0,100.00
2021-04-20 22:31:08.506,0.41358265,0.3891228,0.35318625,0.12934537,0.0032873778,-0.0067784116,0.1807518,-0.04850382,0.55581397,0.36822444,0.18104585,0.49720275,0.20861061,0.2681524,-2.0307536E-5,0.16510518,-0.39976415,-0.18586048,-0.22276524,-0.2924148,811.50183,795.38464,805.05493,799.81683,853.8095,0.07427978515625,-0.0426025390625,1.001220703125,4.605712890625,-3.3197021484375,-3.207550048828125,1,1.0,1.0,1.0,1.0,100.00
2021-04-20 22:31:09.011,0.5023754,0.38193,0.364726,0.38752013,0.0208868,0.084736235,0.20650657,0.1648972,0.3267545,0.39285773,0.28849575,0.4840805,0.17117998,0.17433248,-0.061846618,0.19262516,-0.368432,-0.23102908,-0.38341326,-0.21113315,842.52747,809.0842,817.1429,844.5421,834.0659,0.09954833984375,-0.01422119140625,1.0010986328125,12.39654541015625,-7.873077392578125,1.60003662109375,1,1.0,1.0,1.0,1.0,100.00
2021-04-20 22:31:09.537,0.73857564,0.29498354,0.17107199,0.54967076,0.114099555,0.057688605,0.12325541,0.25031945,0.23858032,0.34361035,0.33629802,0.48049802,0.18694545,0.1754524,-0.09751111,0.21764114,-0.3581637,-0.2254831,-0.40258905,-0.21174596,763.5531,811.50183,812.71063,776.8498,641.4652,0.12115478515625,3.662109375E-4,0.9927978515625,4.822540283203125,-6.29547119140625,-7.245025634765625,1,1.0,1.0,1.0,1.0,100.00
2021-04-20 22:31:10.061,0.7275725,0.32214388,0.10795592,0.5188613,0.1282891,0.05828788,0.05329109,0.24497111,0.39900866,0.34361035,0.3918923,0.5420372,0.26251602,0.2100139,-0.10075696,0.30692953,-0.37440693,-0.2910085,-0.45443812,-0.17459811,828.022,807.47253,807.0696,820.7692,761.13556,0.114013671875,-0.02337646484375,0.99444580078125,4.2767333984375,-3.81317138671875,-2.534637451171875,1,1.0,1.0,1.0,1.0,100.00
2021-04-20 22:31:10.548,,,,,,,,,,,,,,,,,,,,,,,,,,,,,,,,,,,,,,/muse/elements/blink
2021-04-20 22:31:10.562,0.7017347,0.5874278,0.48800123,0.44644055,0.13033782,0.13712564,0.14967375,0.10241972,0.4388557,0.35604227,0.33936363,0.44539514,0.28568858,0.17530118,-0.030193573,0.30144492,-0.3615052,-0.26817045,-0.37027487,-0.20096612,903.7729,838.0952,781.685,886.8498,686.5934,0.111572265625,-0.0264892578125,1.01251220703125,2.026214599609375,-5.510406494140625,-4.08233642578125,1,1.0,1.0,1.0,1.0,100.00
2021-04-20 22:31:10.718,,,,,,,,,,,,,,,,,,,,,,,,,,,,,,,,,,,,,,/muse/elements/blink
2021-04-20 22:31:11.093,0.12496138,0.60459167,0.5437694,0.18528046,-0.12868917,0.10222518,0.02180572,-0.20748647,0.34675506,0.21508732,0.25905854,0.2115432,0.23569776,0.14567925,0.020252198,0.21474732,-0.37347534,-0.29600266,-0.3012011,-0.18854515,843.3333,810.696,816.7399,830.84247,785.31134,0.16448974609375,-0.01025390625,0.98736572265625,1.68975830078125,-11.013336181640625,-8.89739990234375,1,1.0,1.0,1.0,1.0,100.00
2021-04-20 22:31:11.625,0.12641406,0.7536229,0.83040607,0.07071261,-0.1402546,0.21384986,0.24246077,-0.4115149,0.32405844,0.19955005,0.044604577,0.054959726,0.08161799,0.1047366,0.03966926,0.04630783,-0.32734117,-0.36383584,-0.23660573,-0.25646743,827.619,808.2784,813.5165,813.5165,830.84247,0.26776123046875,-0.0142822265625,0.93719482421875,1.383209228515625,-13.794708251953125,-7.603912353515625,1,1.0,1.0,1.0,1.0,100.00
2021-04-20 22:31:12.127,0.12641406,0.32474095,0.026038151,0.07071261,-0.1402546,-0.019971607,0.075892955,-0.4115149,0.32405844,-0.2529236,-0.23902367,0.054959726,0.08161799,0.17030485,0.09727151,0.04630783,-0.32734117,-0.26717228,-0.4187984,-0.25646743,826.0073,811.0989,806.26373,816.7399,691.02563,0.361328125,-0.01904296875,0.9774169921875,3.805694580078125,-19.237823486328125,6.38519287109375,1,1.0,1.0,1.0,1.0,100.00
2021-04-20 22:31:12.645,0.5230858,0.67536885,-0.0085459985,0.36588022,-0.099779114,0.0803766,0.015429175,0.33446804,0.4131504,-0.08785763,-0.21874934,0.3292179,0.049724415,0.18647817,0.02834316,0.101462364,-0.16267182,-0.28392795,-0.33306795,-0.13246438,794.57874,790.54944,807.8755,798.20514,712.381,0.49365234375,-0.0584716796875,0.89874267578125,1.42059326171875,-7.65625,-0.306549072265625,1,1.0,1.0,1.0,1.0,100.00
2021-04-20 22:31:13.173,0.39982128,0.77257323,0.13559425,0.3712158,-0.14889118,0.0335003,-0.043195534,0.37129015,0.494954,0.066921994,-0.17245786,0.46148396,-0.015028331,0.23704603,0.010118881,0.12974194,-0.23528007,-0.28426805,-0.30900604,-0.14216952,813.5165,797.3993,810.293,807.0696,790.14655,0.48260498046875,-0.0552978515625,0.90234375,2.624359130859375,-7.873077392578125,-0.777587890625,1,1.0,1.0,1.0,1.0,100.00
2021-04-20 22:31:13.680,0.21238562,0.75954485,0.09129901,0.2956757,-0.015107539,-0.06838116,-0.21322256,0.21594569,0.8169261,0.20594439,-0.10619369,0.5777682,0.010248488,0.25215647,-0.10851775,0.11517964,-0.37989086,-0.3142444,-0.31295946,-0.16740789,809.4872,807.0696,815.5311,803.44324,657.98535,0.461669921875,-0.065673828125,0.8773193359375,4.44122314453125,-5.360870361328125,1.2860107421875,1,1.0,1.0,1.0,1.0,100.00
2021-04-20 22:31:14.208,-0.012712168,0.58504003,0.06895212,0.16207825,-0.01697202,-0.16246049,-0.2563299,0.18519884,0.81711644,0.20540036,0.15045232,0.5777682,0.0020250212,0.19960901,-0.1563867,0.14671737,-0.44461718,-0.2908527,-0.38357309,-0.118034124,805.4579,801.8315,807.8755,811.50183,786.52014,0.47418212890625,-0.06402587890625,0.87518310546875,3.33465576171875,-5.600128173828125,-0.740203857421875,1,1.0,1.0,1.0,1.0,100.00
2021-04-20 22:31:14.732,0.04448558,0.12782706,0.14409967,0.07487357,-0.032482445,-0.07681084,-0.23901282,0.017074991,0.827011,0.12948103,0.15486681,0.46480826,0.0018067779,0.17275839,-0.1709306,0.09208407,-0.50276464,-0.21955861,-0.51884246,-0.1404199,808.68134,817.5458,806.26373,818.7546,800.2198,0.47515869140625,-0.05072021484375,0.8868408203125,4.747772216796875,-4.90478515625,2.87109375,1,1.0,1.0,1.0,1.0,100.00
2021-04-20 22:31:15.081,,,,,,,,,,,,,,,,,,,,,,,,,,,,,,,,,,,,,,/muse/elements/blink
2021-04-20 22:31:15.243,0.09573244,0.12529202,0.280773,0.12697363,-0.13155156,0.06149898,0.05863928,0.06513028,0.39413574,0.3389071,0.1949622,0.28858188,-0.03295327,0.19696727,-0.17589058,0.10231795,-0.47581905,-0.15988357,-0.5034988,-0.14220256,799.81683,801.4286,814.3223,800.6227,756.7033,0.4798583984375,-0.03814697265625,0.88470458984375,4.074859619140625,-5.2935791015625,1.846771240234375,1,1.0,1.0,1.0,1.0,100.00
2021-04-20 22:31:15.771,0.13429973,0.49667174,0.45836473,0.24055657,-0.10323783,0.3807465,0.45398194,-0.052029364,0.23223856,0.46575865,0.073130436,0.28858188,9.49102E-5,0.25590518,-0.06250506,0.08534644,-0.45749465,-0.11993186,-0.39738426,-0.25032032,801.8315,807.8755,810.293,805.4579,855.82416,0.48614501953125,-0.05340576171875,0.880615234375,5.151519775390625,-4.47113037109375,1.51031494140625,1,1.0,1.0,1.0,1.0,100.00
2021-04-20 22:31:16.272,-0.020468656,0.53091866,0.36561987,0.26270372,0.0026517727,0.32040632,0.476505,-0.14907463,0.18282162,0.46575865,0.15018038,0.2443364,0.08967185,0.16207491,-0.054961726,0.12659964,-0.4284242,-0.12911232,-0.2856191,-0.26120174,826.0073,823.1868,808.68134,819.5604,700.293,0.4852294921875,-0.05767822265625,0.87420654296875,2.213134765625,-4.942169189453125,0.40374755859375,1,1.0,1.0,1.0,1.0,100.00
2021-04-20 22:31:16.777,0.0650299,0.48611474,0.2303435,-0.14108972,-0.23455058,0.24951647,0.37933734,-0.045561064,0.3894345,0.4412511,0.1507113,0.50329643,0.119257644,0.06371606,0.0045472905,0.2480998,-0.6439999,-0.1304915,-0.27213705,-0.44000474,816.7399,805.4579,805.4579,823.9927,727.6923,0.49359130859375,-0.0452880859375,0.87701416015625,5.555267333984375,-5.555267333984375,2.691650390625,1,1.0,1.0,1.0,1.0,100.00
