TimeStamp,Delta_TP9,Delta_AF7,Delta_AF8,Delta_TP10,Theta_TP9,Theta_AF7,Theta_AF8,Theta_TP10,Alpha_TP9,Alpha_AF7,Alpha_AF8,Alpha_TP10,Beta_TP9,Beta_AF7,Beta_AF8,Beta_TP10,Gamma_TP9,Gamma_AF7,Gamma_AF8,Gamma_TP10,RAW_TP9,RAW_AF7,RAW_AF8,RAW_TP10,AUX_RIGHT,Accelerometer_X,Accelerometer_Y,Accelerometer_Z,Gyro_X,Gyro_Y,Gyro_Z,HeadBandOn,HSI_TP9,HSI_AF7,HSI_AF8,HSI_TP10,Battery,Elements
2021-04-10 22:13:22.214,0.6819221,0.40461153,0.3838815,0.6810156,0.49692568,0.17001446,-0.065974,0.41613993,0.54255587,0.20273261,0.32816446,0.6853754,0.8276129,0.004185884,0.65824,0.88512874,0.40113395,-0.4344955,0.19031529,0.46258974,723.663,767.5824,765.56775,728.9011,842.9304,0.0689697265625,0.03753662109375,0.9986572265625,5.14404296875,-6.0711669921875,1.614990234375,1,1.0,1.0,1.0,1.0,75.00
2021-04-10 22:13:22.364,,,,,,,,,,,,,,,,,,,,,,,,,,,,,,,,,,,,,,/muse/elements/blink
2021-04-10 22:13:22.725,0.73350614,0.39003518,0.41609192,0.6078039,0.549868,0.18096563,0.11614114,0.46027237,0.35814887,0.1614866,0.13537687,0.4843744,0.6708643,0.09676517,0.5879883,0.85363233,0.48700756,-0.42640305,0.2612037,0.60544896,809.89014,783.69965,773.22345,819.5604,703.1135,0.0772705078125,0.0416259765625,0.9974365234375,8.052520751953125,-7.020721435546875,9.1217041015625,1,1.0,1.0,1.0,1.0,75.00
2021-04-10 22:13:23.234,0.7524913,0.5563937,0.20775801,0.6078039,0.5100124,0.27419066,0.117551416,0.46027237,0.35442606,0.52422,0.16007231,0.4843744,0.6479483,0.25480637,0.55060655,0.85363233,0.5086697,-0.41440699,0.24945591,0.60544896,769.59705,770.80585,743.00366,761.13556,769.59705,0.099853515625,0.03790283203125,1.0037841796875,3.581390380859375,-9.271240234375,42.729949951171875,1,1.0,1.0,1.0,1.0,75.00
2021-04-10 22:13:23.711,,,,,,,,,,,,,,,,,,,,,,,,,,,,,,,,,,,,,,/muse/elements/blink
2021-04-10 22:13:23.757,0.7524913,0.58929867,0.18838648,0.6078039,0.5100124,0.22933404,0.23196654,0.46027237,0.35442606,0.59931153,0.38485774,0.4843744,0.6479483,0.32350838,0.53233737,0.85363233,0.5086697,-0.4033194,0.32410622,0.60544896,786.52014,726.8865,780.4762,803.44324,869.12085,0.18212890625,0.03643798828125,0.96551513671875,16.815338134765625,-12.523651123046875,11.192779541015625,1,1.0,1.0,1.0,1.0,75.00
2021-04-10 22:13:24.282,0.7524913,0.7123782,0.28803146,0.6078039,0.5100124,0.25257593,0.29895,0.46027237,0.35442606,0.59931153,0.48968333,0.4843744,0.6479483,0.3505829,0.63077074,0.85363233,0.5086697,-0.39919293,0.2948388,0.60544896,753.8828,913.8461,1205.1648,804.2491,753.47986,0.42633056640625,0.1405029296875,0.9434814453125,7.005767822265625,-16.396636962890625,8.605804443359375,1,1.0,1.0,1.0,1.0,75.00
2021-04-10 22:13:24.786,0.7524913,0.74514055,0.4004471,0.6078039,0.5100124,0.13301098,0.36788914,0.46027237,0.35442606,0.47032955,0.48195884,0.4843744,0.6479483,0.29864258,0.6818404,0.85363233,0.5086697,-0.3720978,0.31610873,0.60544896,811.0989,870.32965,751.8681,800.2198,724.4689,0.374755859375,0.10394287109375,0.92694091796875,8.01513671875,-7.1478271484375,2.9010009765625,1,2.0,1.0,1.0,2.0,75.00
2021-04-10 22:13:25.294,0.84551156,0.7344025,0.53074133,0.6078039,0.64956546,0.06813977,0.48869652,0.46027237,1.1831471,0.4008935,0.46474257,0.4843744,0.75751054,0.23070799,0.7098684,0.85363233,0.49289152,-0.3630131,0.25077593,0.60544896,790.14655,783.2967,718.4249,789.7436,909.011,0.38629150390625,0.11016845703125,0.9295654296875,5.54779052734375,-5.33843994140625,2.519683837890625,1,1.0,1.0,1.0,1.0,75.00
2021-04-10 22:13:25.807,0.7380776,0.7344025,0.5869286,0.6078039,0.6239578,0.06813977,0.50724524,0.46027237,1.221349,0.4008935,0.42351297,0.4843744,0.7612075,0.23070799,0.6952181,0.85363233,0.6098104,-0.3630131,0.2543472,0.60544896,754.2857,776.04395,720.0366,773.22345,861.8681,0.39007568359375,0.07684326171875,0.917724609375,4.80010986328125,-3.671112060546875,0.306549072265625,1,1.0,1.0,1.0,1.0,75.00
2021-04-10 22:13:26.315,0.6764297,0.7344025,0.5869286,0.6078039,0.53979033,0.06813977,0.50724524,0.46027237,1.221349,0.4008935,0.42351297,0.4843744,0.77842337,0.23070799,0.6952181,0.85363233,0.64933527,-0.3630131,0.2543472,0.60544896,846.1539,817.1429,747.03296,853.4066,751.8681,0.3367919921875,0.094482421875,0.92376708984375,-0.35888671875,-1.95892333984375,-10.7965087890625,1,1.0,1.0,1.0,1.0,75.00
2021-04-10 22:13:26.830,0.5230819,0.67245895,0.5869286,0.6078039,0.45374227,0.59062123,0.50724524,0.46027237,1.1973068,0.23982286,0.42351297,0.4843744,0.79100025,0.12094735,0.6952181,0.85363233,0.7245356,-0.24965297,0.2543472,0.60544896,768.3883,765.56775,741.79486,803.8461,907.8022,0.35394287109375,0.1295166015625,0.9202880859375,2.3028564453125,-8.433837890625,-21.90704345703125,1,1.0,1.0,1.0,1.0,70.00
2021-04-10 22:13:27.335,0.3601893,0.67245895,0.97097105,0.6078039,0.037745673,0.59062123,0.5959166,0.46027237,0.44563484,0.23982286,0.44997245,0.4843744,0.84522337,0.12094735,0.3570466,0.85363233,0.7456944,-0.24965297,0.2952147,0.60544896,731.7216,765.56775,733.73627,763.95605,832.4542,0.3251953125,-0.0269775390625,0.9381103515625,-9.25628662109375,0.979461669921875,3.2000732421875,1,1.0,1.0,1.0,1.0,70.00
2021-04-10 22:13:27.352,,,,,,,,,,,,,,,,,,,,,,,,,,,,,,,,,,,,,,/muse/elements/blink
2021-04-10 22:13:27.851,0.3601893,0.67640996,0.97097105,0.6078039,0.037745673,0.5612305,0.5959166,0.46027237,0.44563484,0.18040246,0.44997245,0.4843744,0.84522337,0.14909694,0.3570466,0.85363233,0.7456944,-0.2183719,0.2952147,0.60544896,779.2674,851.39197,766.3736,793.7729,761.53845,0.33233642578125,-0.03570556640625,0.9500732421875,0.22430419921875,5.90667724609375,6.6094970703125,1,1.0,1.0,1.0,1.0,70.00
2021-04-10 22:13:28.109,,,,,,,,,,,,,,,,,,,,,,,,,,,,,,,,,,,,,,/muse/elements/blink
2021-04-10 22:13:28.362,0.3601893,0.67640996,0.99795544,0.6078039,0.037745673,0.5612305,0.6108242,0.46027237,0.44563484,0.18040246,0.43408775,0.4843744,0.84522337,0.14909694,0.3006677,0.85363233,0.7456944,-0.2183719,0.2919622,0.60544896,765.56775,786.52014,769.59705,784.5055,722.0513,0.325439453125,0.04791259765625,0.97613525390625,8.695526123046875,4.62066650390625,34.266204833984375,1,1.0,1.0,1.0,1.0,70.00
2021-04-10 22:13:28.869,0.3601893,0.67640996,0.99795544,0.6078039,0.037745673,0.5612305,0.6108242,0.46027237,0.44563484,0.18040246,0.43408775,0.4843744,0.84522337,0.14909694,0.3006677,0.85363233,0.7456944,-0.2183719,0.2919622,0.60544896,780.87915,830.84247,858.24176,750.2564,723.2601,0.03533935546875,-0.133544921875,1.0377197265625,4.074859619140625,0.231781005859375,25.712738037109375,1,2.0,1.0,1.0,2.0,70.00
2021-04-10 22:13:29.373,0.3601893,0.67640996,0.99795544,0.6078039,0.037745673,0.5612305,0.6108242,0.46027237,0.44563484,0.18040246,0.43408775,0.4843744,0.84522337,0.14909694,0.3006677,0.85363233,0.7456944,-0.2183719,0.2919622,0.60544896,802.6374,785.31134,859.45056,809.89014,915.4579,-0.04473876953125,-0.06854248046875,0.99920654296875,10.63201904296875,-3.461761474609375,24.26971435546875,1,2.0,1.0,1.0,2.0,70.00
2021-04-10 22:13:29.889,0.3601893,0.67640996,0.99795544,0.6078039,0.037745673,0.5612305,0.6108242,0.46027237,0.44563484,0.18040246,0.43408775,0.4843744,0.84522337,0.14909694,0.3006677,0.85363233,0.7456944,-0.2183719,0.2919622,0.60544896,776.04395,783.69965,771.2088,778.0586,691.8315,-0.0374755859375,0.084716796875,1.0130615234375,10.63201904296875,-16.4788818359375,2.400054931640625,1,2.0,1.0,1.0,2.0,70.00
2021-04-10 22:13:30.416,0.3601893,0.67640996,0.99795544,0.6078039,0.037745673,0.5612305,0.6108242,0.46027237,0.44563484,0.18040246,0.43408775,0.4843744,0.84522337,0.14909694,0.3006677,0.85363233,0.7456944,-0.2183719,0.2919622,0.60544896,771.6117,781.28204,759.5238,744.21246,621.31866,-0.0029296875,0.113525390625,0.998291015625,5.63751220703125,-8.53851318359375,-18.9013671875,1,2.0,1.0,1.0,2.0,70.00
2021-04-10 22:13:30.931,0.3601893,1.0001385,0.99795544,0.6078039,0.037745673,0.47967666,0.6108242,0.46027237,0.44563484,0.73693573,0.43408775,0.4843744,0.84522337,0.3075509,0.3006677,0.85363233,0.7456944,-0.38826686,0.2919622,0.60544896,826.8132,783.69965,781.28204,799.41394,810.293,0.15802001953125,0.04034423828125,0.97357177734375,4.179534912109375,-13.435821533203125,-9.79461669921875,1,2.0,1.0,1.0,2.0,70.00
2021-04-10 22:13:31.437,0.3601893,1.0297942,0.461025,0.64761204,0.037745673,0.61922735,0.022630123,0.03828882,0.44563484,0.84804696,-0.10364709,0.31945732,0.84522337,0.25529304,0.6059502,0.9443769,0.7456944,-0.32825035,0.01567329,0.19434594,765.56775,753.8828,762.3443,774.83514,841.31866,0.2593994140625,0.1446533203125,0.97979736328125,13.099365234375,-11.237640380859375,8.635711669921875,1,1.0,1.0,1.0,1.0,70.00
2021-04-10 22:13:31.940,0.3601893,1.057829,0.33004314,0.7037766,0.037745673,0.6563989,0.14211686,0.05025071,0.44563484,0.6520204,0.1170716,0.79023165,0.84522337,0.1388183,0.6398464,0.9610317,0.7456944,-0.26254568,0.046798546,0.23742005,799.011,813.91943,772.4176,790.9524,817.5458,0.20135498046875,0.03399658203125,0.94384765625,1.697235107421875,4.209442138671875,54.019927978515625,1,1.0,1.0,1.0,1.0,70.00
2021-04-10 22:13:32.448,0.3601893,1.1333017,0.46074608,0.7822512,0.037745673,0.79054695,0.22317447,0.100048415,0.44563484,0.5308555,0.28121585,0.80534697,0.84522337,0.17605396,0.6722656,0.95098007,0.7456944,-0.22171348,0.047962982,0.2528301,801.4286,780.87915,779.2674,791.75824,884.83514,0.17852783203125,0.03472900390625,0.95745849609375,9.308624267578125,8.41888427734375,23.148193359375,1,1.0,1.0,1.0,1.0,70.00
2021-04-10 22:13:32.978,1.0687683,1.3071665,0.46062207,0.9470832,0.71046275,0.9011995,0.28926554,0.65203315,0.7754962,0.53018886,0.26604939,0.8539239,0.7595385,0.22409184,0.6987735,0.91650355,0.3123821,-0.085237935,0.061577786,0.38172448,768.7912,813.5165,765.56775,778.46155,898.5348,-0.16265869140625,0.06005859375,0.971435546875,10.66192626953125,9.9591064453125,2.385101318359375,1,1.0,1.0,1.0,1.0,70.00
2021-04-10 22:13:32.981,,,,,,,,,,,,,,,,,,,,,,,,,,,,,,,,,,,,,,/muse/elements/blink
2021-04-10 22:13:33.342,,,,,,,,,,,,,,,,,,,,,,,,,,,,,,,,,,,,,,/muse/elements/blink
2021-04-10 22:13:33.506,1.0687683,1.3071665,0.7118344,1.1503452,0.71046275,0.9011995,0.29785588,0.9826092,0.7754962,0.53018886,0.2486308,0.5399091,0.7595385,0.22409184,0.6960944,0.78157616,0.3123821,-0.085237935,0.13151449,0.50772953,826.8132,848.1685,779.2674,826.8132,835.2747,-0.1773681640625,0.00421142578125,0.9735107421875,-3.386993408203125,7.813262939453125,13.525543212890625,1,1.0,1.0,1.0,1.0,70.00
2021-04-10 22:13:34.016,1.0687683,1.3071665,0.76465434,1.1503452,0.71046275,0.9011995,0.29455045,0.9826092,0.7754962,0.53018886,0.23429261,0.5399091,0.7595385,0.22409184,0.67001265,0.78157616,0.3123821,-0.085237935,0.1500099,0.50772953,754.68866,789.7436,778.46155,783.2967,844.94507,-0.2950439453125,0.16851806640625,1.00909423828125,16.14990234375,-5.914154052734375,16.688232421875,1,1.0,1.0,1.0,1.0,70.00
2021-04-10 22:13:34.174,,,,,,,,,,,,,,,,,,,,,,,,,,,,,,,,,,,,,,/muse/elements/jaw_clench
2021-04-10 22:13:34.524,1.0687683,1.3071665,0.5414361,1.1503452,0.71046275,0.9011995,-0.1731464,0.9826092,0.7754962,0.53018886,0.10906164,0.5399091,0.7595385,0.22409184,0.4883061,0.78157616,0.3123821,-0.085237935,0.2430971,0.50772953,790.14655,821.978,853.8095,801.02563,806.26373,-0.25531005859375,0.05316162109375,0.960693359375,0.934600830078125,-5.2935791015625,3.372039794921875,1,1.0,4.0,1.0,1.0,70.00
2021-04-10 22:13:35.051,1.0687683,1.3071665,0.39602318,0.60042405,0.71046275,0.9011995,-0.17431779,0.16921511,0.7754962,0.53018886,0.07784503,0.77251154,0.7595385,0.22409184,0.49162042,0.96118015,0.3123821,-0.085237935,0.20930038,0.66599435,785.7143,782.0879,753.0769,761.53845,719.6337,-0.1767578125,0.05499267578125,0.98858642578125,4.643096923828125,-7.678680419921875,2.04864501953125,1,1.0,4.0,1.0,1.0,70.00
2021-04-10 22:13:35.578,0.5091995,1.3071665,0.39602318,0.52531606,0.3638823,0.9011995,-0.17431779,0.3308372,0.5049768,0.53018886,0.07784503,0.8789051,0.77809787,0.22409184,0.49162042,0.90228343,0.525636,-0.085237935,0.20930038,0.53351885,891.685,823.9927,716.8132,888.0586,757.50916,-0.24298095703125,0.0650634765625,0.97650146484375,10.385284423828125,-2.071075439453125,-4.32159423828125,1,1.0,1.0,1.0,1.0,70.00
2021-04-10 22:13:35.611,,,,,,,,,,,,,,,,,,,,,,,,,,,,,,,,,,,,,,/muse/elements/blink
2021-04-10 22:13:36.100,0.5091995,1.3071665,0.39602318,0.52531606,0.3638823,0.9011995,-0.17431779,0.3308372,0.5049768,0.53018886,0.07784503,0.8789051,0.77809787,0.22409184,0.49162042,0.90228343,0.525636,-0.085237935,0.20930038,0.53351885,798.20514,765.16486,758.315,814.7253,915.05493,-0.107421875,0.1326904296875,1.009033203125,11.97784423828125,-11.387176513671875,8.9422607421875,1,1.0,1.0,1.0,1.0,70.00
2021-04-10 22:13:36.610,0.5037485,1.3071665,0.39602318,0.43444508,0.3848901,0.9011995,-0.17431779,0.44835645,0.5049768,0.53018886,0.07784503,0.68444073,0.7884358,0.22409184,0.49162042,0.83412737,0.4767682,-0.085237935,0.20930038,0.34194997,795.78754,793.36993,762.74725,819.9634,878.7912,-0.07403564453125,0.14794921875,0.9942626953125,6.0113525390625,-3.46923828125,-1.921539306640625,1,1.0,1.0,1.0,1.0,70.00
2021-04-10 22:13:37.137,0.5037485,1.3071665,0.39602318,0.43444508,0.3848901,0.9011995,-0.17431779,0.44835645,0.5049768,0.53018886,0.07784503,0.68444073,0.7884358,0.22409184,0.49162042,0.83412737,0.4767682,-0.085237935,0.20930038,0.34194997,782.0879,778.46155,756.30035,777.25275,633.4066,-0.08807373046875,0.142333984375,0.98895263671875,4.18701171875,-5.0244140625,-5.316009521484375,1,1.0,1.0,1.0,1.0,80.00
2021-04-10 22:13:37.641,0.5037485,1.3071665,0.5118735,0.43444508,0.3848901,0.9011995,0.42676383,0.44835645,0.5049768,0.53018886,0.47041383,0.68444073,0.7884358,0.22409184,0.46788982,0.83412737,0.4767682,-0.085237935,0.21981871,0.34194997,833.2601,786.1172,797.8022,813.91943,919.89014,-0.07806396484375,0.1136474609375,0.9879150390625,5.286102294921875,-5.824432373046875,-6.871185302734375,1,1.0,1.0,1.0,1.0,80.00
2021-04-10 22:13:38.157,0.5037485,0.679807,0.5341486,0.43444508,0.3848901,0.39628893,0.29894558,0.44835645,0.5049768,0.4004758,0.4898185,0.68444073,0.7884358,0.109130874,0.56965774,0.83412737,0.4767682,-0.20877299,0.31023398,0.34194997,770.40295,759.92676,760.32965,786.1172,948.9011,-0.0640869140625,0.137939453125,0.990234375,6.482391357421875,-6.68426513671875,1.7645263671875,1,2.0,1.0,1.0,2.0,80.00
2021-04-10 22:13:38.681,0.58555955,0.79877275,0.41853642,0.44128865,0.3844835,0.4844739,0.16928591,0.36392877,0.47286132,0.44036084,0.55631393,0.69488484,0.6532271,0.079222605,0.6247166,0.7539783,0.49465737,-0.24962099,0.37260807,0.550553,794.17584,774.83514,771.2088,811.9048,898.1319,-0.04766845703125,0.15093994140625,0.98846435546875,6.631927490234375,-5.151519775390625,2.0635986328125,1,1.0,1.0,1.0,1.0,80.00
2021-04-10 22:13:39.183,0.44034064,0.723826,0.27561182,0.5099731,0.21724421,0.42807183,0.07862474,0.34825513,0.4971222,0.5489133,0.41088003,0.69488484,0.6285924,0.12813495,0.62990767,0.73069173,0.41758502,-0.2500667,0.35750312,0.46383238,786.1172,749.0476,783.2967,803.8461,787.72894,-0.0198974609375,0.1695556640625,0.98883056640625,5.241241455078125,-8.20953369140625,1.55517578125,1,1.0,1.0,1.0,1.0,80.00
2021-04-10 22:13:39.690,0.5219624,0.87961835,0.11591164,0.46633765,0.1718861,0.49718845,0.10647624,0.3137566,0.49668875,0.52171075,0.25539932,0.4808405,0.6109571,0.14335755,0.5730207,0.67492545,0.3385499,-0.29415363,0.30964783,0.41425583,757.1062,836.8865,877.5824,747.8388,635.42126,-0.00933837890625,0.16021728515625,0.98809814453125,4.3365478515625,-4.68048095703125,0.19439697265625,1,1.0,1.0,1.0,1.0,80.00
2021-04-10 22:13:40.198,0.48328477,0.8705087,0.21849954,0.52739,-0.026325086,0.4481054,0.13903299,0.28009444,0.43218353,0.3959579,0.2165991,0.4288373,0.6181583,0.20102222,0.54024196,0.6657436,0.24379757,-0.293754,0.23600706,0.3418372,803.8461,792.1612,774.43225,800.2198,697.8755,-0.0198974609375,0.1544189453125,0.99114990234375,4.119720458984375,-3.1103515625,0.321502685546875,1,1.0,1.0,1.0,1.0,80.00
2021-04-10 22:13:40.723,0.702665,1.0574081,0.30842102,0.43374032,0.0857395,0.48224303,0.0988101,0.26093408,0.42985,0.29662195,-0.14375158,0.41584373,0.6431683,0.2089272,0.4763721,0.6150461,0.15736206,-0.4187095,0.23617588,0.36600557,798.60803,780.87915,768.7912,815.9341,922.3077,-0.02734375,0.15423583984375,0.98919677734375,4.807586669921875,-3.955230712890625,0.85235595703125,1,1.0,1.0,1.0,1.0,80.00
2021-04-10 22:13:41.245,0.80233765,1.0574081,0.30842102,0.43374032,0.3871329,0.48224303,0.0988101,0.26093408,0.723138,0.29662195,-0.14375158,0.41584373,0.73484474,0.2089272,0.4763721,0.6150461,0.26412055,-0.4187095,0.23617588,0.36600557,797.8022,776.4469,779.67035,820.7692,879.59705,-0.06658935546875,0.11212158203125,0.996337890625,-3.70849609375,0.157012939453125,-6.975860595703125,1,1.0,1.0,1.0,1.0,80.00
2021-04-10 22:13:41.760,0.80233765,1.0446681,0.30842102,1.0993682,0.3871329,0.8068432,0.0988101,0.9948264,0.723138,0.6410084,-0.14375158,0.9578891,0.73484474,0.18141639,0.4763721,0.7195927,0.26412055,-0.5732844,0.23617588,0.31268364,816.7399,770.0,788.93774,818.3516,927.1429,-0.04376220703125,-0.0286865234375,0.99493408203125,1.293487548828125,-9.37591552734375,-1.996307373046875,1,1.0,1.0,1.0,1.0,80.00
2021-04-10 22:13:42.266,0.80233765,0.9402928,0.21658422,1.0088073,0.3871329,0.6583476,-0.07649354,0.8828914,0.723138,0.64872414,0.19917382,0.9592145,0.73484474,0.06712545,0.57917094,0.729124,0.26412055,-0.46155122,0.2623649,0.39725122,771.2088,772.01465,763.5531,765.16486,660.40295,-0.0340576171875,-0.01153564453125,0.999267578125,5.375823974609375,-2.908477783203125,2.624359130859375,1,1.0,1.0,1.0,1.0,80.00
2021-04-10 22:13:42.402,,,,,,,,,,,,,,,,,,,,,,,,,,,,,,,,,,,,,,/muse/elements/blink
2021-04-10 22:13:42.770,0.80233765,0.86280257,0.43570653,1.0063202,0.3871329,0.6450051,0.220526,0.94654256,0.723138,0.6327017,0.57597136,0.92782515,0.73484474,0.027908076,0.5309465,0.7113482,0.26412055,-0.41339785,0.16641265,0.37965876,790.14655,772.4176,768.7912,786.9231,752.674,-0.01861572265625,0.01043701171875,1.000244140625,6.377716064453125,-9.398345947265625,10.175933837890625,1,1.0,1.0,1.0,1.0,80.00
2021-04-10 22:13:43.286,0.80233765,0.6742103,0.695522,0.7827746,0.3871329,0.39268562,0.5237575,0.56907743,0.723138,0.3716646,0.7965572,0.67207855,0.73484474,0.14693376,0.5517616,0.7453165,0.26412055,-0.36638457,0.12628984,0.5144038,790.9524,787.326,775.64105,805.8608,816.7399,-0.03082275390625,0.0478515625,0.99969482421875,6.138458251953125,-5.674896240234375,4.164581298828125,1,1.0,1.0,1.0,1.0,80.00
2021-04-10 22:13:43.813,0.49718997,0.6123061,0.7432698,0.7703934,0.11589027,0.287874,0.5667052,0.32058898,0.5369137,0.38269335,0.7965572,0.2565543,0.87292,0.23201793,0.5504451,0.8292909,0.041564483,-0.42125517,-0.008956037,0.27490297,647.50916,797.8022,759.92676,637.03296,674.5055,-0.0457763671875,0.0335693359375,0.99700927734375,3.805694580078125,-1.951446533203125,-7.424468994140625,1,1.0,1.0,1.0,1.0,80.00
2021-04-10 22:13:43.946,,,,,,,,,,,,,,,,,,,,,,,,,,,,,,,,,,,,,,/muse/elements/blink
2021-04-10 22:13:44.315,0.49718997,0.5563602,0.6716168,0.7703934,0.11589027,-0.111380994,0.4551561,0.32058898,0.5369137,0.22699575,0.78182894,0.2565543,0.87292,0.28828412,0.55006796,0.8292909,0.041564483,-0.48656887,-0.019168923,0.27490297,797.8022,775.64105,785.31134,805.05493,662.8205,-0.022705078125,0.040771484375,0.9947509765625,12.179718017578125,-13.458251953125,-10.1385498046875,1,1.0,1.0,1.0,1.0,80.00
2021-04-10 22:13:44.832,0.49718997,0.650328,0.15481438,0.7703934,0.11589027,-0.1079991,-0.24821588,0.32058898,0.5369137,0.39790657,0.07010677,0.2565543,0.87292,0.117866576,0.51357484,0.8292909,0.041564483,-0.5508736,-0.04733959,0.27490297,786.1172,772.01465,778.0586,783.2967,779.2674,7.9345703125E-4,0.08526611328125,0.9951171875,2.654266357421875,-4.366455078125,-4.119720458984375,1,1.0,1.0,1.0,1.0,80.00
2021-04-10 22:13:45.344,0.49718997,0.47903582,0.45391643,0.7703934,0.11589027,0.4288845,0.34070277,0.32058898,0.5369137,0.33574092,0.34605438,0.2565543,0.87292,0.22821274,0.41514325,0.8292909,0.041564483,-0.415927,-0.023848517,0.27490297,762.3443,794.57874,765.16486,771.6117,731.31866,-0.03448486328125,0.067138671875,1.00115966796875,4.74029541015625,-2.818756103515625,1.39068603515625,1,1.0,1.0,1.0,1.0,80.00
2021-04-10 22:13:45.868,0.49718997,0.7771576,0.46749446,0.7703934,0.11589027,0.6329177,0.41467267,0.32058898,0.5369137,0.3498623,0.5144661,0.2565543,0.87292,0.23410742,0.39964643,0.8292909,0.041564483,-0.44152117,-0.041294236,0.27490297,771.2088,761.53845,780.87915,785.31134,653.1502,-0.0509033203125,0.06256103515625,0.99700927734375,4.2169189453125,-2.64678955078125,2.1533203125,1,1.0,1.0,1.0,1.0,80.00
2021-04-10 22:13:45.871,,,,,,,,,,,,,,,,,,,,,,,,,,,,,,,,,,,,,,/muse/elements/blink
2021-04-10 22:13:46.392,0.49718997,0.9980735,0.52277,0.7703934,0.11589027,0.68477005,0.32285884,0.32058898,0.5369137,0.5739303,0.6278544,0.2565543,0.87292,0.2347069,0.42796636,0.8292909,0.041564483,-0.4074722,0.09386616,0.27490297,789.7436,784.90845,785.7143,793.36993,721.2454,-0.03826904296875,0.086181640625,0.9935302734375,8.59832763671875,-7.678680419921875,5.36834716796875,1,1.0,1.0,1.0,1.0,80.00
2021-04-10 22:13:46.919,0.49718997,1.1504458,0.41921318,0.5970153,0.11589027,0.7107606,0.22807512,0.46250603,0.5369137,0.5727947,0.6390298,0.8697215,0.87292,0.1950208,0.38122085,0.73943496,0.041564483,-0.3916072,0.07741944,0.18321624,762.3443,792.1612,758.315,763.1502,655.16486,-0.04095458984375,0.06524658203125,0.98858642578125,2.250518798828125,-0.11962890625,-3.043060302734375,1,2.0,1.0,1.0,2.0,80.00
2021-04-10 22:13:47.422,1.0187606,1.0492504,0.41429856,0.6885598,0.645328,0.49712375,0.16958259,0.49119398,0.762194,0.5727947,0.5956339,0.87153584,0.80358547,0.114456415,0.3527209,0.68428165,0.37968883,-0.3990135,0.08571926,0.36631617,787.72894,788.93774,792.1612,787.72894,736.55676,-0.05029296875,0.07269287109375,0.99432373046875,4.94964599609375,-4.80010986328125,6.422576904296875,1,1.0,1.0,1.0,1.0,80.00
2021-04-10 22:13:47.942,0.9955006,0.8437419,0.5633117,0.7536584,0.61191386,0.3168811,0.14897592,0.4482983,0.76746947,0.50114244,0.39813507,0.8920201,0.77521175,0.074916065,0.35984206,0.68312645,0.39127195,-0.48215342,-5.8745587E-4,0.34792572,762.3443,780.4762,758.315,778.86444,830.4396,-0.03961181640625,0.11004638671875,0.9979248046875,6.9085693359375,-4.80010986328125,3.9776611328125,1,1.0,1.0,1.0,1.0,80.00
2021-04-10 22:13:48.457,0.85669535,0.4850446,0.7034229,0.80751103,0.63948095,0.123744294,0.04673677,0.6101698,0.78877354,0.29634005,0.09007048,0.6779269,0.7241458,0.007870765,0.4240512,0.6754029,0.3500909,-0.46007574,0.02730887,0.2846056,772.4176,789.34064,767.98535,805.4579,884.0293,-0.1732177734375,0.16357421875,1.0537109375,6.6693115234375,6.796417236328125,16.0003662109375,1,1.0,1.0,1.0,1.0,80.00
2021-04-10 22:13:48.963,0.76608825,0.40478072,0.8405072,0.8904714,0.523044,0.34283018,-0.050928727,0.6602952,0.7426093,0.49834007,0.14182995,0.56061983,0.70011103,0.016888674,0.5123034,0.6889059,0.30104643,-0.45649394,0.04123227,0.22181581,772.01465,779.67035,772.8205,794.9817,677.72894,-0.15887451171875,0.0653076171875,1.014892578125,-7.259979248046875,-7.693634033203125,-3.887939453125,1,1.0,1.0,1.0,1.0,80.00
2021-04-10 22:13:49.467,0.8020734,0.68655,0.81633246,0.93449104,0.47935608,0.40136752,0.13401991,0.80524224,0.753326,0.58434856,0.2721872,0.39348814,0.7240921,0.016967582,0.55504256,0.69497925,0.3853213,-0.4070444,0.09838202,0.11761887,765.16486,775.64105,763.1502,786.9231,944.4689,-0.16241455078125,0.01971435546875,1.0166015625,2.684173583984375,6.482391357421875,14.6246337890625,1,1.0,1.0,1.0,1.0,80.00
2021-04-10 22:13:49.994,0.75787103,0.7089094,0.8250057,1.016422,0.49223527,0.44097513,0.2554484,0.82421505,0.73828906,0.5843458,0.53277004,0.26063704,0.7591516,0.091369264,0.5092805,0.67674285,0.45723605,-0.417486,0.21370018,0.109483674,780.87915,778.86444,759.92676,809.4872,842.52747,-0.2073974609375,0.0830078125,1.0660400390625,3.267364501953125,-1.33087158203125,-4.77020263671875,1,1.0,1.0,1.0,1.0,80.00
2021-04-10 22:13:50.425,,,,,,,,,,,,,,,,,,,,,,,,,,,,,,,,,,,,,,/muse/elements/blink
2021-04-10 22:13:50.516,0.65056866,0.8106729,0.7444946,1.016422,0.5295233,0.2619546,0.30994752,0.82421505,0.7797722,0.5573755,0.51564074,0.26063704,0.7858584,0.07939706,0.43412504,0.67674285,0.5070152,-0.36668137,0.2698747,0.109483674,850.58606,779.2674,780.4762,864.68866,880.80585,-0.23785400390625,0.02008056640625,0.9617919921875,3.207550048828125,6.078643798828125,-10.026397705078125,1,1.0,1.0,1.0,1.0,80.00
2021-04-10 22:13:51.044,0.21532087,0.72074986,0.69138557,1.016422,0.5963323,0.46162626,0.29170758,0.82421505,0.766347,0.66610444,0.51411855,0.26063704,0.80097264,0.012651283,0.34618935,0.67674285,0.40279487,-0.3754824,0.29670745,0.109483674,791.75824,788.1319,789.34064,820.7692,742.6007,-0.19903564453125,-0.01263427734375,0.98626708984375,4.523468017578125,-1.054229736328125,-3.641204833984375,1,1.0,1.0,1.0,1.0,80.00
2021-04-10 22:13:51.572,0.24898754,0.86135626,0.5634134,1.016422,0.50666946,0.587543,0.25562963,0.82421505,0.63663274,0.656729,-0.035039112,0.26063704,0.815975,0.014645095,0.26682338,0.67674285,0.3324731,-0.3779938,0.2550733,0.109483674,788.93774,780.87915,794.17584,797.3993,612.4542,-0.2308349609375,-0.02496337890625,0.97125244140625,4.94964599609375,-8.23944091796875,-1.5850830078125,1,1.0,1.0,1.0,1.0,80.00
2021-04-10 22:13:52.073,0.24898754,0.8320809,0.5634134,0.8029102,0.50666946,0.63834167,0.25562963,0.5148546,0.63663274,0.66484916,-0.035039112,0.7811297,0.815975,0.09393534,0.26682338,0.79581976,0.3324731,-0.36441317,0.2550733,0.37110525,749.45056,775.64105,799.011,773.6264,713.1868,-0.113525390625,0.0516357421875,0.99151611328125,23.110809326171875,-11.865692138671875,-50.789947509765625,1,1.0,1.0,1.0,1.0,80.00
2021-04-10 22:13:52.585,0.24898754,0.8710165,0.5634134,1.272455,0.50666946,0.5686855,0.25562963,0.8427985,0.63663274,0.42745265,-0.035039112,0.82736284,0.815975,0.19116183,0.26682338,0.75715643,0.3324731,-0.3415379,0.2550733,0.29236236,788.1319,780.87915,796.1905,812.3077,836.08057,-0.19781494140625,0.12567138671875,1.00018310546875,12.1722412109375,-5.78704833984375,12.69561767578125,1,1.0,1.0,1.0,1.0,80.00
2021-04-10 22:13:53.103,0.24898754,0.66655505,0.6256316,1.1721646,0.50666946,0.43028933,0.31396028,0.7454695,0.63663274,0.42745265,0.53975457,0.8273652,0.815975,0.2832806,0.44737747,0.7890007,0.3324731,-0.27811846,-0.030527335,0.25396472,776.4469,787.326,782.8938,793.7729,623.73627,-0.11773681640625,0.077880859375,0.98565673828125,-5.24871826171875,-8.35906982421875,-8.98712158203125,1,1.0,1.0,1.0,1.0,80.00
2021-04-10 22:13:53.607,0.4906298,0.85968894,-0.02815292,1.0919316,0.39888635,-0.32184213,0.042133026,0.63168436,0.64785886,0.21474102,0.29320893,0.78411543,0.7486337,-0.095289834,0.44962838,0.7547511,0.07361035,-0.3557175,-0.4197184,0.17557232,779.2674,775.2381,759.92676,775.64105,562.49084,-0.1778564453125,0.11492919921875,1.04156494140625,2.392578125,-4.269256591796875,5.600128173828125,1,1.0,1.0,1.0,1.0,80.00
2021-04-10 22:13:54.139,0.66458,0.86898345,0.23683076,0.58076596,0.5467534,-0.3584002,-0.07716806,0.13841073,1.1343287,0.33469668,0.36217844,0.66268563,0.7571375,0.02725687,0.43271035,0.7749577,0.15467617,-0.3352523,-0.32095876,0.18500307,831.2454,793.36993,803.44324,796.99634,597.1429,-0.1619873046875,0.09503173828125,1.00091552734375,7.828216552734375,7.94036865234375,2.22808837890625,1,1.0,1.0,1.0,1.0,80.00
2021-04-10 22:13:54.648,0.86119586,0.8258479,0.3561931,0.43329707,0.6529314,-0.083225645,-0.03670649,-0.0028552695,1.1369313,0.42593324,0.22979319,0.637662,0.7600862,0.026556129,0.4074294,0.74625355,0.18285197,-0.38770184,-0.2497023,0.1863951,796.5934,783.69965,796.1905,816.337,802.6374,-0.16058349609375,0.05230712890625,0.9715576171875,6.50482177734375,-3.93280029296875,-6.990814208984375,1,1.0,1.0,1.0,1.0,80.00
2021-04-10 22:13:55.159,1.0809283,0.66882026,0.4648331,0.49117994,0.70587754,0.07426397,0.0048040734,0.25976,1.1559563,0.3944117,0.2564979,0.5288467,0.77771765,0.08359431,0.36548808,0.7371078,0.2979158,-0.41749865,-0.1009835,0.32307246,776.8498,792.96704,773.22345,801.02563,830.0366,-0.10284423828125,0.043212890625,1.03411865234375,5.674896240234375,-7.858123779296875,2.205657958984375,1,1.0,1.0,1.0,1.0,80.00
2021-04-10 22:13:55.664,1.1656108,0.6009018,0.4901704,0.77001727,0.74910754,0.16663468,0.08122134,0.50464684,1.1216464,0.39417422,0.2276969,0.7283797,0.7963643,0.106474504,0.32453406,0.7516713,0.40522417,-0.47461647,0.04737981,0.44778007,808.2784,769.59705,784.5055,818.3516,915.8608,-0.1534423828125,0.11431884765625,0.991455078125,7.29736328125,-4.91973876953125,4.089813232421875,1,1.0,1.0,1.0,1.0,80.00
2021-04-10 22:13:56.166,1.0216327,0.73093915,0.4373155,0.79013413,0.6999589,0.15659222,0.039455384,0.6053679,1.0883144,0.46493423,0.41054606,0.90787417,0.78596514,0.16327202,0.36949196,0.82053787,0.39778823,-0.5037062,0.107106246,0.5029363,765.16486,765.9707,791.75824,799.011,907.8022,-0.14093017578125,0.14630126953125,0.9779052734375,3.70849609375,-9.338531494140625,-0.34393310546875,1,1.0,1.0,1.0,1.0,80.00
2021-04-10 22:13:56.679,0.98227566,1.0422602,0.5842667,0.7503877,0.6678961,0.39796647,-0.022454407,0.665324,1.2211719,0.5904079,0.45538285,0.952156,0.7440862,0.14165965,0.41751963,0.84550995,0.36401173,-0.5092116,0.072053775,0.43218094,651.13556,749.85345,822.381,719.6337,831.2454,-0.10107421875,0.13916015625,0.9873046875,-15.678863525390625,4.47113037109375,77.07839965820312,1,1.0,1.0,1.0,1.0,80.00
2021-04-10 22:13:56.815,,,,,,,,,,,,,,,,,,,,,,,,,,,,,,,,,,,,,,/muse/elements/blink
2021-04-10 22:13:57.208,0.97562003,1.1594815,0.60243034,0.44218105,0.6304935,0.517265,-0.033501577,0.63116276,1.2211719,0.5805734,0.44469184,0.94625,0.72003216,0.10275393,0.47246057,0.8560673,0.28805083,-0.54261845,-0.013185757,0.32921818,786.1172,788.1319,773.22345,807.0696,878.7912,-0.24072265625,0.027099609375,0.98724365234375,5.06927490234375,7.259979248046875,25.069732666015625,1,1.0,1.0,1.0,1.0,80.00
2021-04-10 22:13:57.719,1.1548704,1.3205792,0.7838936,0.29255608,0.446097,0.7167714,-0.10005945,0.70037377,1.153061,0.52824646,0.32806906,0.9034258,0.67308223,-0.043147955,0.47866744,0.7851102,0.2657434,-0.4886085,-0.09769735,0.2219956,782.8938,790.9524,769.59705,773.6264,615.2747,-0.18927001953125,0.10479736328125,0.9793701171875,4.366455078125,-11.82830810546875,9.4805908203125,1,1.0,1.0,1.0,1.0,75.00
2021-04-10 22:13:58.241,1.1548704,1.274061,0.59025437,0.33150256,0.446097,0.5009028,0.4641404,0.7155966,1.153061,0.3162679,0.0763519,0.8779961,0.67308223,0.31622165,0.44416794,0.779222,0.2657434,-0.32948437,0.21629624,0.20689762,794.17584,782.49084,784.90845,805.05493,629.7802,-0.237548828125,0.03570556640625,0.9876708984375,10.42266845703125,-2.220611572265625,1.173858642578125,1,1.0,1.0,1.0,1.0,75.00
2021-04-10 22:13:58.750,0.59147257,1.1055622,0.43170625,0.41058978,0.3955692,0.36645216,0.3477346,0.057918914,0.5330073,0.351209,0.15802029,0.60722953,0.61488116,0.31609178,0.44149143,0.7534483,0.21684645,-0.24880677,0.1617447,0.33197582,814.3223,757.50916,796.5934,800.6227,830.0366,-0.21295166015625,0.03521728515625,0.98004150390625,3.431854248046875,-1.951446533203125,1.338348388671875,1,1.0,1.0,1.0,1.0,75.00
2021-04-10 22:13:59.270,0.8352604,1.1348526,0.4191561,0.4784642,0.34830737,0.36401728,0.27767226,0.020896794,0.5466034,0.351209,0.39515552,0.6670632,0.6708014,0.30771604,0.39466307,0.79855275,0.18034385,-0.23322074,0.087443866,0.34406906,777.6557,808.2784,778.0586,789.34064,705.12823,-0.21270751953125,0.02886962890625,1.01123046875,0.171966552734375,2.3028564453125,-1.4056396484375,1,1.0,1.0,1.0,1.0,75.00
2021-04-10 22:13:59.779,0.93376005,1.0088043,0.313942,0.6287129,0.42517635,0.24080445,0.13540964,0.06527577,0.6725162,0.15253453,0.36720404,0.6452803,0.6841905,0.30195165,0.3681666,0.7986579,0.24383806,-0.1791676,0.03823558,0.37324777,807.47253,1629.0476,793.36993,815.9341,958.1685,-0.34613037109375,-0.03643798828125,0.93951416015625,8.082427978515625,4.59075927734375,1.83929443359375,1,1.0,1.0,1.0,1.0,75.00
2021-04-10 22:14:00.290,1.0556846,1.1012279,0.3855799,0.7603035,0.47557,0.19278999,0.15935327,0.2770123,0.62983954,0.027873436,0.5113691,0.5479903,0.7101419,0.25240532,0.34696484,0.7957967,0.2668926,-0.09511084,0.0019566347,0.40829012,773.22345,753.8828,787.72894,800.6227,839.707,-0.2662353515625,0.0281982421875,0.97137451171875,7.768402099609375,-12.99468994140625,-5.495452880859375,1,1.0,1.0,1.0,1.0,75.00
2021-04-10 22:14:00.778,,,,,,,,,,,,,,,,,,,,,,,,,,,,,,,,,,,,,,/muse/elements/blink
2021-04-10 22:14:00.805,1.1254671,1.1012279,0.70373875,0.84481555,0.6292962,0.19278999,0.27903557,0.38435993,0.6087673,0.027873436,0.5740534,0.3079936,0.69705373,0.25240532,0.44689918,0.7644108,0.386035,-0.09511084,0.082506955,0.43383187,811.9048,719.2308,775.2381,808.68134,706.7399,-0.23089599609375,-0.0137939453125,0.97540283203125,7.16278076171875,-5.203857421875,-5.63751220703125,1,1.0,4.0,1.0,1.0,75.00
2021-04-10 22:14:01.315,1.1254671,1.1012279,0.7151271,0.77650374,0.6292962,0.19278999,0.25557575,0.5098441,0.6087673,0.027873436,0.62635946,0.20176622,0.69705373,0.25240532,0.47148523,0.7223279,0.386035,-0.09511084,0.109860376,0.39566454,803.8461,772.01465,784.5055,805.4579,770.80585,-0.23187255859375,-0.018310546875,0.9727783203125,4.6356201171875,-2.818756103515625,-0.964508056640625,1,1.0,2.0,1.0,1.0,75.00
2021-04-10 22:14:01.823,1.1254671,1.1012279,0.64775103,0.81802255,0.6292962,0.19278999,0.1295329,0.56175965,0.6087673,0.027873436,0.6304842,0.16398835,0.69705373,0.25240532,0.41877973,0.71214205,0.386035,-0.09511084,0.09361642,0.39935037,750.2564,756.30035,751.8681,790.14655,891.685,-0.23345947265625,-0.01519775390625,0.97845458984375,5.42816162109375,-5.39825439453125,3.147735595703125,1,1.0,1.0,1.0,1.0,75.00
2021-04-10 22:14:02.059,,,,,,,,,,,,,,,,,,,,,,,,,,,,,,,,,,,,,,/muse/elements/blink
2021-04-10 22:14:02.350,1.1254671,1.0970742,0.5048394,0.81802255,0.6292962,0.75573426,-0.04105354,0.56175965,0.6087673,0.26134425,0.60841393,0.16398835,0.69705373,0.28882235,0.3037837,0.71214205,0.386035,-0.3319618,0.016643094,0.39935037,786.1172,782.49084,776.8498,786.52014,618.0952,-0.2396240234375,-0.00543212890625,0.975830078125,4.658050537109375,-3.536529541015625,11.005859375,1,1.0,1.0,1.0,1.0,75.00
2021-04-10 22:14:02.864,1.1254671,0.97255707,0.57286984,0.81802255,0.6292962,0.5713786,-0.017060164,0.56175965,0.6087673,0.35639408,0.611865,0.16398835,0.69705373,0.22249031,0.35165036,0.71214205,0.386035,-0.2545981,-0.09624604,0.39935037,786.52014,773.6264,777.6557,763.95605,692.23444,-0.2435302734375,-0.00457763671875,0.9708251953125,4.4561767578125,-3.790740966796875,1.854248046875,1,1.0,1.0,1.0,1.0,75.00
2021-04-10 22:14:03.369,1.1254671,1.0053674,0.61172,0.81802255,0.6292962,0.4235927,0.04543958,0.56175965,0.6087673,0.7261535,0.6157163,0.16398835,0.69705373,0.20367552,0.4484287,0.71214205,0.386035,-0.26620042,-0.033827838,0.39935037,793.36993,780.07324,772.4176,779.67035,740.989,-0.24310302734375,0.00262451171875,0.9774169921875,-4.844970703125,4.403839111328125,-4.62066650390625,1,2.0,1.0,1.0,2.0,75.00
2021-04-10 22:14:03.873,0.6386187,0.9180373,0.50244266,0.50009656,-0.013994165,0.05811713,0.09388249,0.30440784,0.6670066,0.7158482,0.39502385,0.3756214,0.6671832,0.1739663,0.48873287,0.8970282,0.41791415,-0.31215575,0.05726276,0.6160228,781.28204,781.685,778.46155,794.57874,849.3773,-0.2537841796875,-0.0191650390625,0.96990966796875,2.594451904296875,-10.415191650390625,8.4039306640625,1,1.0,1.0,1.0,1.0,75.00
2021-04-10 22:14:04.408,0.6386187,0.9873843,0.55824476,0.50009656,-0.013994165,-0.02496491,0.22486456,0.30440784,0.6670066,0.73419374,0.2993755,0.3756214,0.6671832,0.15963209,0.45136842,0.8970282,0.41791415,-0.39929688,0.1385614,0.6160228,785.31134,765.9707,793.7729,813.5165,944.4689,-0.24603271484375,-0.02239990234375,0.96917724609375,6.9384765625,-3.207550048828125,0.35888671875,1,1.0,1.0,1.0,1.0,75.00
2021-04-10 22:14:04.862,,,,,,,,,,,,,,,,,,,,,,,,,,,,,,,,,,,,,,/muse/elements/blink
2021-04-10 22:14:04.929,0.69533086,0.91899073,0.75293934,0.5513866,0.05704404,0.0993938,0.33756128,0.3228853,0.5550888,0.5771482,0.25076884,0.36433783,0.63642436,0.14694482,0.4390291,0.9093878,0.46759927,-0.536959,0.12917149,0.64949906,831.2454,747.4359,774.0293,836.8865,879.19415,-0.26348876953125,-0.01800537109375,0.96490478515625,1.951446533203125,-4.104766845703125,-0.1495361328125,1,1.0,1.0,1.0,1.0,75.00
2021-04-10 22:14:05.456,0.69533086,0.9510863,0.70886916,0.5513866,0.05704404,0.23174697,0.3452225,0.3228853,0.5550888,0.43847087,0.2907318,0.36433783,0.63642436,0.09895048,0.4144808,0.9093878,0.46759927,-0.5361392,0.09211893,0.64949906,796.99634,818.3516,429.92673,796.99634,741.79486,-0.26971435546875,-0.02667236328125,0.9656982421875,3.66363525390625,-6.557159423828125,3.581390380859375,1,1.0,1.0,1.0,1.0,75.00
2021-04-10 22:14:05.982,0.69533086,0.9510863,0.65711904,0.5513866,0.05704404,0.23174697,0.30627388,0.3228853,0.5550888,0.43847087,0.26738152,0.36433783,0.63642436,0.09895048,0.4175282,0.9093878,0.46759927,-0.5361392,0.08905513,0.64949906,800.6227,795.78754,806.26373,813.1135,915.4579,-0.2501220703125,-0.02471923828125,0.97076416015625,4.8150634765625,-5.7720947265625,2.9608154296875,1,1.0,4.0,1.0,1.0,75.00
2021-04-10 22:14:06.506,0.69533086,0.9510863,0.505162,0.5513866,0.05704404,0.23174697,0.29782513,0.3228853,0.5550888,0.43847087,0.1534587,0.36433783,0.63642436,0.09895048,0.33707583,0.9093878,0.46759927,-0.5361392,0.09679096,0.64949906,801.4286,782.8938,796.1905,790.9524,709.15753,-0.2347412109375,-0.02874755859375,0.969970703125,4.50103759765625,-5.899200439453125,0.037384033203125,1,2.0,1.0,1.0,2.0,75.00
2021-04-10 22:14:07.020,0.45818055,0.9510863,0.505162,0.9378799,0.55901355,0.23174697,0.29782513,0.5010938,0.16352881,0.43847087,0.1534587,0.41447872,0.771604,0.09895048,0.33707583,0.7416633,0.092409335,-0.5361392,0.09679096,0.18303661,784.10254,784.5055,788.1319,819.9634,888.86444,-0.24810791015625,-0.02484130859375,0.970458984375,5.2337646484375,-4.6954345703125,-0.0897216796875,1,1.0,1.0,1.0,1.0,75.00
2021-04-10 22:14:07.527,0.61701906,0.5026396,0.5405252,0.6911644,0.64729357,0.47327045,-0.0065078163,0.4487331,0.5408337,0.4524476,0.24023981,0.5403913,0.6581482,0.170806,0.47781697,0.73855096,0.1231078,-0.2550893,-0.027846208,0.12114931,592.71063,785.31134,788.5348,618.49817,777.6557,-0.24127197265625,-0.0166015625,0.96783447265625,5.570220947265625,-4.059906005859375,2.310333251953125,1,1.0,1.0,1.0,1.0,75.00
2021-04-10 22:14:07.725,,,,,,,,,,,,,,,,,,,,,,,,,,,,,,,,,,,,,,/muse/elements/blink
2021-04-10 22:14:08.029,0.61701906,0.4589689,0.6193922,0.6911644,0.64729357,0.46050367,0.36282903,0.4487331,0.5408337,0.52139527,0.4633219,0.5403913,0.6581482,0.17628643,0.56085736,0.73855096,0.1231078,-0.18067576,-0.07181424,0.12114931,817.9487,788.5348,813.1135,826.0073,784.90845,-0.25341796875,-7.9345703125E-4,0.9635009765625,6.2506103515625,-5.256195068359375,2.160797119140625,1,1.0,1.0,1.0,1.0,75.00
2021-04-10 22:14:08.548,0.7330674,0.39038506,0.654121,0.2801023,0.72062474,0.31790167,0.54449576,0.40176404,0.5374992,0.5187992,0.48632684,0.53243315,0.5041504,0.15077251,0.52392864,0.7360449,0.15177885,-0.1447573,-0.066249326,0.06438496,781.685,751.4652,786.9231,784.5055,722.0513,-0.2518310546875,-7.32421875E-4,0.97186279296875,5.151519775390625,-4.6356201171875,1.33087158203125,1,1.0,1.0,1.0,1.0,75.00
2021-04-10 22:14:09.060,0.7774933,0.3841604,0.8000734,0.16606022,0.7548235,0.39318842,0.61935735,0.3906958,0.53224117,0.47173643,0.419779,0.53243315,0.48873082,0.11037756,0.5060299,0.767951,0.1214286,-0.06291953,-0.02175897,0.02691173,788.5348,792.5641,785.31134,788.93774,772.8205,-0.25701904296875,-0.00604248046875,0.96697998046875,4.59075927734375,-3.491668701171875,-0.157012939453125,1,1.0,1.0,1.0,1.0,75.00
2021-04-10 22:14:09.573,0.7774933,0.564279,0.77236515,0.40293002,0.7548235,0.42475435,0.5173954,0.07734965,0.53224117,0.38019472,0.37848607,0.20849653,0.48873082,-0.04132342,0.4024974,0.6144675,0.1214286,-0.07883449,0.053356323,0.3326145,719.2308,794.57874,790.14655,743.8095,998.0586,-0.25164794921875,-0.01123046875,0.9638671875,4.388885498046875,-6.093597412109375,1.173858642578125,1,1.0,1.0,1.0,1.0,75.00
2021-04-10 22:14:09.813,,,,,,,,,,,,,,,,,,,,,,,,,,,,,,,,,,,,,,/muse/elements/blink
2021-04-10 22:14:10.090,0.7774933,0.7257086,0.6908263,0.40293002,0.7548235,0.5021694,0.21713291,0.07734965,0.53224117,0.4065208,0.25488964,0.20849653,0.48873082,-0.011892737,0.38983795,0.6144675,0.1214286,-0.21665828,0.10881008,0.3326145,805.05493,792.1612,786.9231,786.9231,644.2857,-0.25146484375,-0.01007080078125,0.9713134765625,4.85992431640625,-4.687957763671875,0.91217041015625,1,1.0,1.0,1.0,1.0,75.00
2021-04-10 22:14:10.614,0.7774933,0.7257086,0.47188765,0.454412,0.7548235,0.5021694,0.038286127,0.10033569,0.53224117,0.4065208,0.4426248,0.18345451,0.48873082,-0.011892737,0.38711473,0.57365376,0.1214286,-0.21665828,0.11750295,0.32339683,786.52014,783.2967,786.9231,792.5641,721.2454,-0.25653076171875,-0.011962890625,0.96795654296875,4.942169189453125,-4.373931884765625,1.353302001953125,1,1.0,1.0,1.0,1.0,75.00
2021-04-10 22:14:11.141,0.7774933,0.7257086,0.30190223,0.5220021,0.7548235,0.5021694,0.02906734,0.12207326,0.53224117,0.4065208,0.44329593,0.17766625,0.48873082,-0.011892737,0.31074142,0.5444446,0.1214286,-0.21665828,0.02946293,0.31114012,804.2491,789.7436,788.93774,795.38464,719.6337,-0.2535400390625,-0.0106201171875,0.96746826171875,4.26177978515625,-5.181427001953125,1.188812255859375,1,1.0,1.0,1.0,1.0,75.00
2021-04-10 22:14:11.668,0.69993424,0.7257086,0.1847573,0.30517983,0.30636883,0.5021694,0.12470196,0.045759153,0.7005285,0.4065208,0.44576892,0.3544143,0.6931186,-0.011892737,0.25741568,0.74170244,0.047566872,-0.21665828,-0.033023667,0.091469154,758.315,768.3883,772.4176,786.52014,747.4359,-0.260009765625,-0.0098876953125,0.96343994140625,4.3963623046875,-4.702911376953125,0.7476806640625,1,1.0,1.0,1.0,1.0,75.00
2021-04-10 22:14:12.188,0.7988914,0.87987304,-0.15762198,0.4498419,0.46369368,0.21125072,0.16633508,-0.03830448,0.75796455,-0.013007012,0.27150157,0.51628566,0.66546464,0.040953048,0.24083807,0.72558033,0.1150623,-0.633061,-0.092390254,0.23971406,780.07324,770.40295,784.10254,811.9048,925.5311,-0.2596435546875,-0.0167236328125,0.96575927734375,4.987030029296875,-4.0374755859375,1.2261962890625,1,1.0,1.0,1.0,1.0,75.00
2021-04-10 22:14:12.694,0.81131893,0.8572196,-0.1096978,0.48352396,0.4844136,0.20141053,0.22591737,-0.051936544,0.7659709,-0.00500633,0.28012055,0.51628566,0.6573429,0.03869507,0.2918046,0.7394688,0.1723996,-0.65436167,-0.00977211,0.29815906,716.0073,767.98535,769.19415,716.0073,701.0989,-0.26214599609375,-0.005126953125,0.967529296875,6.0113525390625,-4.74029541015625,2.16827392578125,1,1.0,1.0,1.0,1.0,75.00
2021-04-10 22:14:12.969,,,,,,,,,,,,,,,,,,,,,,,,,,,,,,,,,,,,,,/muse/elements/blink
2021-04-10 22:14:13.214,0.84354633,0.85033005,-0.010071279,0.57014483,0.55740696,0.11986633,0.14878431,-0.08216911,0.63420296,-0.18521962,0.26375234,0.44762057,0.6436084,0.07244989,0.3404631,0.7273874,0.24346162,-0.7387912,0.057649158,0.42723206,785.7143,706.337,784.90845,778.0586,629.7802,-0.2589111328125,0.001953125,0.96795654296875,6.033782958984375,-6.92352294921875,2.026214599609375,1,1.0,1.0,1.0,1.0,75.00
2021-04-10 22:14:13.738,0.82382643,0.8039282,0.04941894,0.6325315,0.56562245,0.110592164,0.11920961,-0.013460061,0.4745097,-0.29093224,0.09511113,0.37327123,0.64733946,0.06134454,0.32013753,0.7624804,0.330452,-0.7889133,0.15193625,0.5330836,804.2491,786.1172,807.47253,805.4579,766.77655,-0.25982666015625,0.0035400390625,0.97528076171875,3.551483154296875,-3.222503662109375,0.35888671875,1,1.0,1.0,1.0,1.0,75.00
2021-04-10 22:14:14.248,0.82382643,0.8039282,0.5541101,0.6325315,0.56562245,0.110592164,-0.09856428,-0.013460061,0.4745097,-0.29093224,0.4746936,0.37327123,0.64733946,0.06134454,0.32559454,0.7624804,0.330452,-0.7889133,-0.038688228,0.5330836,806.26373,780.07324,790.14655,824.3956,936.8132,-0.2412109375,0.010498046875,0.9698486328125,4.32159423828125,-5.81695556640625,1.697235107421875,1,1.0,1.0,1.0,1.0,75.00
2021-04-10 22:14:14.758,1.0593913,0.8039282,0.47613338,0.571995,0.89328337,0.110592164,0.09862447,0.61725557,0.69182694,-0.29093224,0.475146,0.1805944,0.5154971,0.06134454,0.4557814,0.6309506,0.011303525,-0.7889133,-0.12778969,0.16791141,801.4286,765.56775,791.75824,830.4396,856.2271,-0.26263427734375,0.00445556640625,0.9693603515625,5.196380615234375,-5.734710693359375,0.904693603515625,1,1.0,1.0,1.0,1.0,75.00
2021-04-10 22:14:15.282,1.0645074,0.80213904,0.5274657,0.52991265,0.7200937,0.31642586,0.15023151,0.46480095,0.7281796,0.4619321,0.44196418,0.21434894,0.5977429,0.15534416,0.4540437,0.6013861,0.10649934,-0.6002527,-0.16324209,0.2071318,799.011,781.28204,784.5055,794.9817,728.49817,-0.25152587890625,-0.01165771484375,0.96099853515625,3.895416259765625,-3.985137939453125,0.61309814453125,1,1.0,1.0,1.0,1.0,75.00
2021-04-10 22:14:15.704,,,,,,,,,,,,,,,,,,,,,,,,,,,,,,,,,,,,,,/muse/elements/blink
2021-04-10 22:14:15.790,1.0934554,0.88802475,0.7166179,0.52449924,0.64746106,0.94533235,0.45743236,0.33202085,0.72224253,0.7168429,0.51897997,0.17715715,0.6066567,0.12047984,0.45952362,0.5811884,0.10572357,-0.39399576,-0.24271643,0.20787139,809.89014,772.01465,776.8498,833.2601,712.381,-0.26336669921875,-6.103515625E-5,0.97125244140625,4.18701171875,-5.106658935546875,1.7047119140625,1,1.0,1.0,1.0,1.0,75.00
2021-04-10 22:14:16.319,1.069416,0.82474786,0.73307484,0.523721,0.423212,0.91323215,0.5081032,0.08170012,0.5888653,0.73161465,0.65045017,0.08239892,0.65903765,0.06914594,0.39422867,0.5270329,0.22435282,-0.35347757,-0.16964366,0.24270405,815.5311,792.96704,807.8755,823.5897,871.13556,-0.26593017578125,0.0045166015625,0.96197509765625,4.433746337890625,-5.12908935546875,0.949554443359375,1,1.0,1.0,1.0,1.0,75.00
2021-04-10 22:14:16.843,0.99606013,0.78617036,0.66328156,0.5731328,0.4901358,0.8964426,0.4773531,-0.09079525,0.44297665,0.73183966,0.65045017,0.037611455,0.62204206,-0.0057850364,0.33807012,0.48572746,0.30125767,-0.3773261,-0.13771398,0.26885065,777.25275,775.2381,785.7143,823.5897,1003.69965,-0.24847412109375,-0.00653076171875,0.97021484375,4.717864990234375,-5.405731201171875,1.973876953125,1,1.0,1.0,1.0,1.0,75.00
2021-04-10 22:14:17.347,0.69628,0.56374085,0.2124148,-0.26155666,0.2876296,0.3999826,0.27341542,0.60197216,0.3103159,0.5982745,0.6319,0.7269154,0.8015883,-0.054697324,0.28852496,0.69343483,0.11061113,-0.4890527,-0.106786214,0.19106524,774.0293,812.3077,770.40295,784.90845,681.75824,-0.24652099609375,-0.004638671875,0.96356201171875,4.344024658203125,-5.390777587890625,2.280426025390625,1,1.0,1.0,1.0,1.0,75.00
2021-04-10 22:14:17.880,0.5796569,0.65430176,0.15721978,-0.11995425,0.17290469,0.42994377,0.25108832,0.60035706,0.57822,0.4463682,0.58387464,0.8693548,0.77719706,-0.07301229,0.36811936,0.7153717,0.10554269,-0.5418239,-0.0879329,0.26844373,793.7729,782.49084,794.9817,770.0,741.79486,-0.23944091796875,-0.00189208984375,0.9765625,5.54779052734375,-5.600128173828125,1.1065673828125,1,1.0,1.0,1.0,1.0,75.00
2021-04-10 22:14:18.404,0.6136545,0.4238109,0.25033075,0.20901918,0.20625326,0.29279524,0.29046395,0.5500109,0.652366,0.42772403,0.66005987,0.8710203,0.7452791,-0.009160526,0.42921507,0.72202027,0.097504266,-0.50107586,-0.082147524,0.3335674,803.8461,797.8022,786.52014,815.9341,747.03296,-0.2349853515625,-0.0020751953125,0.97052001953125,3.925323486328125,-4.9346923828125,3.357086181640625,1,1.0,1.0,1.0,1.0,80.00
2021-04-10 22:14:18.441,,,,,,,,,,,,,,,,,,,,,,,,,,,,,,,,,,,,,,/muse/elements/blink
2021-04-10 22:14:18.933,0.4991703,1.0760895,0.6024938,0.34192178,0.16251379,0.20139624,0.3876104,0.5255581,0.64072585,0.4427902,0.58231264,0.8663276,0.68547636,0.41762874,0.40939793,0.7288596,0.10540111,-0.28643864,-0.07117022,0.3936999,830.84247,713.9927,767.5824,778.46155,623.73627,-0.234375,-0.00885009765625,0.974365234375,5.263671875,-4.299163818359375,-1.487884521484375,1,1.0,1.0,1.0,1.0,80.00
2021-04-10 22:14:19.439,0.6136602,1.0760895,0.7108034,0.56577086,0.31913137,0.20139624,0.39486578,0.4130059,0.5920701,0.4427902,0.4148057,0.3066604,0.5956155,0.41762874,0.31148392,0.7141057,0.11281027,-0.28643864,-0.097808085,0.4466703,799.011,818.3516,789.34064,793.36993,806.6667,-0.23468017578125,-0.0152587890625,0.977294921875,5.256195068359375,-4.837493896484375,0.560760498046875,1,1.0,1.0,1.0,1.0,80.00
2021-04-10 22:14:19.965,0.6136602,1.0760895,0.9768039,0.56577086,0.31913137,0.20139624,0.56600755,0.4130059,0.5920701,0.4427902,0.43691194,0.3066604,0.5956155,0.41762874,0.38138837,0.7141057,0.11281027,-0.28643864,-0.15300669,0.4466703,823.5897,787.326,781.685,856.2271,915.8608,-0.23785400390625,-0.0064697265625,0.97332763671875,5.084228515625,-5.084228515625,1.263580322265625,1,1.0,1.0,1.0,1.0,80.00
2021-04-10 22:14:19.968,,,,,,,,,,,,,,,,,,,,,,,,,,,,,,,,,,,,,,/muse/elements/blink
2021-04-10 22:14:20.494,0.6136602,1.0760895,0.8434777,0.56577086,0.31913137,0.20139624,0.39562643,0.4130059,0.5920701,0.4427902,0.34227476,0.3066604,0.5956155,0.41762874,0.41926983,0.7141057,0.11281027,-0.28643864,-0.08584532,0.4466703,801.02563,796.5934,790.54944,813.5165,786.9231,-0.23040771484375,-0.0078125,0.97412109375,4.613189697265625,-4.119720458984375,0.426177978515625,1,1.0,1.0,1.0,1.0,80.00
2021-04-10 22:14:20.994,0.6136602,0.36353818,0.6991362,0.56577086,0.31913137,0.3273605,0.2412398,0.4130059,0.5920701,0.09767043,0.31658167,0.3066604,0.5956155,0.18840294,0.3837048,0.7141057,0.11281027,-0.30331773,-0.025515964,0.4466703,789.34064,790.9524,780.87915,788.1319,617.28937,-0.2431640625,-0.00726318359375,0.9771728515625,5.375823974609375,-4.8150634765625,1.338348388671875,1,2.0,1.0,1.0,2.0,80.00
2021-04-10 22:14:21.507,0.6136602,0.31930953,0.36107212,0.56577086,0.31913137,0.28733304,-0.11358479,0.4130059,0.5920701,0.49249443,0.15718092,0.3066604,0.5956155,0.20177352,0.27108905,0.7141057,0.11281027,-0.32522336,0.046475925,0.4466703,793.7729,782.49084,783.2967,784.5055,726.08057,-0.23895263671875,-0.01129150390625,0.97271728515625,5.1739501953125,-4.91973876953125,1.801910400390625,1,2.0,1.0,1.0,2.0,80.00
2021-04-10 22:14:22.021,0.81169355,0.27837557,0.35808647,0.58949494,0.46180508,0.375931,-0.1447311,0.33292598,0.81508934,0.6305414,0.061988432,0.47777095,0.54436755,0.14240687,0.23858255,0.7108595,-4.2412226E-4,-0.31738368,0.06042801,0.21618877,778.46155,766.77655,786.52014,817.5458,902.96704,-0.34228515625,-0.02374267578125,0.97509765625,15.013427734375,-3.581390380859375,22.14630126953125,1,1.0,1.0,1.0,1.0,80.00
2021-04-10 22:14:22.532,0.958215,0.7010174,0.703978,0.6288711,0.5643089,0.5015606,-0.022979973,0.29704818,0.81508934,0.66966486,0.015577663,0.47777095,0.49707758,0.14248656,0.39934295,0.6862747,0.008482094,-0.34446156,-0.17916867,0.19343595,786.52014,767.98535,790.9524,806.26373,849.3773,-0.226318359375,0.03094482421875,0.9849853515625,4.42626953125,-7.394561767578125,6.377716064453125,1,1.0,1.0,1.0,1.0,80.00
2021-04-10 22:14:23.041,0.9327118,1.102934,0.76457876,0.5387116,0.5576728,0.6300746,0.41537926,0.3016362,0.7306282,0.7585327,0.31446066,0.6359125,0.4745339,0.068231404,0.4240767,0.6809656,0.03271324,-0.36499023,-0.14481984,0.21083654,772.8205,797.8022,793.36993,772.8205,760.7326,-0.23675537109375,-0.0115966796875,0.97442626953125,3.27484130859375,-4.17205810546875,2.6617431640625,1,1.0,1.0,1.0,1.0,80.00
2021-04-10 22:14:23.297,,,,,,,,,,,,,,,,,,,,,,,,,,,,,,,,,,,,,,/muse/elements/blink
2021-04-10 22:14:23.552,1.0869826,1.2330234,0.8257395,0.635315,0.5984078,0.72507226,0.57503325,0.2158032,0.4923735,0.7710583,0.39700657,0.60664016,0.35612285,0.046885367,0.4381784,0.652094,0.08042095,-0.35648298,-0.18491252,0.2756272,832.8571,782.0879,803.8461,811.0989,1037.1428,-0.22705078125,-0.00537109375,0.9910888671875,1.218719482421875,-8.889923095703125,1.891632080078125,1,1.0,1.0,1.0,1.0,80.00
2021-04-10 22:14:24.072,0.9689468,1.2333784,0.7654783,0.64198583,0.45527264,0.70024145,0.6300926,0.23596808,0.4706153,0.7669729,0.3931221,0.6013854,0.39801538,0.13299935,0.367989,0.66189367,0.0947489,-0.35141364,-0.13513112,0.31889352,767.5824,792.5641,787.326,789.7436,741.39197,-0.2108154296875,-0.026611328125,0.98150634765625,4.702911376953125,-4.792633056640625,3.3197021484375,1,1.0,1.0,1.0,1.0,80.00
2021-04-10 22:14:24.599,0.9239744,1.0133817,0.6206247,0.64198583,0.40633148,0.5585582,0.484528,0.23596808,0.45122066,0.76473856,0.3916731,0.6013854,0.4135173,0.15922786,0.32408166,0.66189367,0.07488714,-0.3566509,-0.17724153,0.31889352,809.89014,782.0879,794.9817,822.7839,986.77655,-0.20849609375,-0.0228271484375,0.98046875,5.81695556640625,-4.66552734375,3.701019287109375,1,1.0,1.0,1.0,1.0,80.00
2021-04-10 22:14:24.845,,,,,,,,,,,,,,,,,,,,,,,,,,,,,,,,,,,,,,/muse/elements/blink
2021-04-10 22:14:25.109,0.9239744,0.81504714,0.22491321,0.64198583,0.40633148,0.2533944,0.14436753,0.23596808,0.45122066,0.53607005,0.2799074,0.6013854,0.4135173,0.111369535,0.23272234,0.66189367,0.07488714,-0.50596195,-0.1474287,0.31889352,819.15753,787.72894,793.7729,822.7839,814.3223,-0.21051025390625,-0.01947021484375,0.9754638671875,5.921630859375,-4.717864990234375,1.682281494140625,1,1.0,1.0,1.0,1.0,80.00
2021-04-10 22:14:25.620,0.9239744,0.7558783,0.16160522,0.64198583,0.40633148,0.16687329,0.0428623,0.23596808,0.45122066,0.3245749,0.37709412,0.6013854,0.4135173,-0.009927991,0.233869,0.66189367,0.07488714,-0.49048126,-0.11502591,0.31889352,791.75824,783.2967,780.87915,776.8498,564.5055,-0.21258544921875,-0.01593017578125,0.97991943359375,5.450592041015625,-5.046844482421875,1.12152099609375,1,1.0,1.0,1.0,1.0,80.00
2021-04-10 22:14:26.127,0.9239744,0.7059092,0.34555224,0.64198583,0.40633148,0.1711612,0.14341496,0.23596808,0.45122066,0.1546838,0.38565612,0.6013854,0.4135173,0.017351963,0.26462978,0.66189367,0.07488714,-0.49219438,-0.08531934,0.31889352,808.68134,784.10254,793.7729,786.52014,718.022,-0.20452880859375,-0.01849365234375,0.97808837890625,4.852447509765625,-4.194488525390625,0.91217041015625,1,2.0,1.0,1.0,2.0,80.00
2021-04-10 22:14:26.629,0.9239744,0.8702536,0.43543968,-0.2003611,0.40633148,0.35719416,0.1255178,0.21785223,0.45122066,0.28864464,0.47585785,0.46817634,0.4135173,0.0911704,0.31585717,0.40194574,0.07488714,-0.42687094,-0.0972901,0.12416811,789.7436,767.5824,791.3553,785.7143,731.31866,-0.21539306640625,-0.01287841796875,0.98150634765625,5.87677001953125,-4.942169189453125,2.332763671875,1,2.0,1.0,1.0,2.0,80.00
2021-04-10 22:14:27.147,0.9239744,0.8865952,0.4209658,0.38746095,0.40633148,0.33671457,0.013594802,0.29755226,0.45122066,0.35968867,0.4608407,0.6243981,0.4135173,0.14136568,0.30264962,0.5804847,0.07488714,-0.43852714,-0.08424097,0.20427987,798.60803,774.43225,788.5348,780.07324,659.59705,-0.2135009765625,-0.00567626953125,0.97906494140625,4.957122802734375,-4.605712890625,1.502838134765625,1,1.0,1.0,1.0,1.0,80.00
2021-04-10 22:14:27.569,,,,,,,,,,,,,,,,,,,,,,,,,,,,,,,,,,,,,,/muse/elements/blink
2021-04-10 22:14:27.647,0.9239744,1.0453619,0.75085324,0.48437315,0.40633148,0.4422842,0.10862489,0.28898823,0.45122066,0.38232088,0.5291523,0.6243981,0.4135173,0.13776827,0.28673565,0.62808186,0.07488714,-0.43252695,-0.1401166,0.20752813,839.707,780.87915,808.2784,828.4249,708.7546,-0.20880126953125,-0.0103759765625,0.98614501953125,4.628143310546875,-5.2935791015625,1.33087158203125,1,1.0,1.0,1.0,1.0,80.00
2021-04-10 22:14:28.167,0.9239744,1.0410953,0.8680186,0.6687495,0.40633148,0.2944414,0.17040505,0.33066654,0.45122066,0.2611095,0.43403584,0.5717121,0.4135173,0.12260963,0.2233321,0.73208934,0.07488714,-0.42063597,-0.10107807,0.25536,788.93774,773.6264,792.1612,809.89014,857.03296,-0.21502685546875,-0.010498046875,0.9788818359375,4.53094482421875,-4.71038818359375,0.9869384765625,1,1.0,1.0,1.0,1.0,80.00
2021-04-10 22:14:28.669,0.9239744,0.6108412,1.0400718,0.8159006,0.40633148,0.22588202,0.21366018,0.32074448,0.45122066,0.2954678,0.393232,0.4767757,0.4135173,0.047887344,0.26640287,0.8211196,0.07488714,-0.42745206,-0.21598358,0.2674668,795.38464,784.90845,786.52014,809.89014,829.6337,-0.21240234375,-0.01251220703125,0.982421875,5.12908935546875,-4.927215576171875,1.27105712890625,1,1.0,1.0,1.0,1.0,75.00
2021-04-10 22:14:29.175,0.44839156,0.08562384,0.63154525,0.8159006,0.4546358,0.14909285,-0.1436784,0.32074448,0.5232311,0.20390898,-0.033329237,0.4767757,0.55908364,0.07109967,0.3049986,0.8211196,-0.039721042,-0.37810227,-0.054957207,0.2674668,826.4103,788.93774,791.75824,803.44324,712.7839,-0.21026611328125,-0.01025390625,0.98260498046875,5.121612548828125,-5.555267333984375,1.36077880859375,1,1.0,1.0,1.0,1.0,75.00
2021-04-10 22:14:29.697,0.5797266,0.030693246,0.49357548,0.46740708,0.46470702,0.2108914,0.0041266736,0.3610626,0.5713884,0.273978,0.17330074,0.41311428,0.55541724,0.13521269,0.35456795,0.5372535,-0.06404341,-0.43722177,-0.14675374,0.018434038,795.38464,800.2198,783.69965,805.4579,872.3443,-0.2069091796875,-0.0093994140625,0.97967529296875,5.06927490234375,-5.256195068359375,1.128997802734375,1,1.0,1.0,1.0,1.0,75.00
2021-04-10 22:14:30.224,0.5924524,0.16194028,0.36264357,0.3299412,0.32976365,0.17700164,0.08846922,0.2834478,0.7562038,0.3767066,0.2880089,0.7768342,0.60372,0.16136113,0.37512296,0.61089706,-0.05703686,-0.49461564,-0.14902344,0.05260247,833.663,812.3077,819.9634,826.8132,952.9304,-0.2049560546875,-0.0164794921875,0.98193359375,4.852447509765625,-4.3365478515625,0.321502685546875,1,1.0,1.0,1.0,1.0,75.00
2021-04-10 22:14:30.729,0.69803804,0.9896942,0.66640526,0.4026341,0.21294652,0.5218498,0.5084188,0.3975537,0.7266452,0.9391198,0.62556845,0.7801538,0.63388735,0.17234236,0.39792085,0.66407526,-0.015854333,-0.51885164,-0.20429519,0.06402992,795.38464,799.011,780.4762,824.3956,973.8828,-0.21221923828125,-0.01226806640625,0.9761962890625,4.8150634765625,-3.99261474609375,1.398162841796875,1,1.0,1.0,1.0,1.0,75.00
2021-04-10 22:14:31.233,0.67715937,1.0650032,0.8032321,0.42037275,-0.08364056,0.47756866,0.556688,0.42300728,0.687988,0.93851775,0.6259528,0.77664924,0.6674365,0.09411778,0.40441048,0.686982,0.010537445,-0.49505344,-0.06930291,0.1436544,796.1905,769.19415,791.3553,767.1795,632.1978,-0.21624755859375,-0.011962890625,0.974609375,4.882354736328125,-4.613189697265625,1.173858642578125,1,1.0,1.0,1.0,1.0,75.00
2021-04-10 22:14:31.745,1.2587639,1.1528515,0.92984325,0.7713778,0.47560474,0.47107583,0.6935093,0.48322114,0.75815064,0.93851775,0.63083017,0.6840785,0.6441084,0.05515403,0.41899377,0.6795512,0.039137244,-0.4450906,-0.06849222,0.1444982,825.2015,787.326,788.93774,770.80585,646.7033,-0.2127685546875,-0.01348876953125,0.9805908203125,4.927215576171875,-5.286102294921875,0.91217041015625,1,1.0,1.0,1.0,1.0,75.00
2021-04-10 22:14:32.254,1.2587639,0.9128015,0.7855492,0.8403914,0.47560474,0.0010597361,0.51144093,0.48821238,0.75815064,0.444299,0.47491175,0.4909864,0.6441084,-0.011522744,0.3636615,0.60615563,0.039137244,-0.4741214,-0.05178774,0.14287601,821.5751,795.78754,771.6117,785.7143,658.7912,-0.21282958984375,-0.0115966796875,0.9774169921875,4.66552734375,-4.90478515625,1.084136962890625,1,1.0,1.0,1.0,1.0,75.00
2021-04-10 22:14:32.768,1.2347249,1.0337132,0.87058115,0.84529984,0.51060116,0.3259523,0.47776943,0.46357563,0.6997119,0.6268472,0.5973153,0.44438207,0.5709859,0.012665384,0.33696023,0.58624864,0.057913046,-0.43963704,-0.13970952,0.05694999,801.4286,794.9817,789.34064,794.57874,651.53845,-0.20416259765625,-0.00872802734375,0.97705078125,12.718048095703125,-7.16278076171875,-0.979461669921875,1,1.0,1.0,1.0,1.0,75.00
2021-04-10 22:14:33.269,0.7994289,1.0566734,0.92594063,0.72565866,0.34068415,0.48142514,0.26106006,0.45765346,0.6690044,0.6129878,0.567425,0.30776644,0.59867835,0.027211117,0.24421763,0.52456105,0.14460823,-0.4793299,-0.16606086,0.04809173,853.4066,790.9524,789.34064,819.5604,653.1502,-0.19866943359375,0.033935546875,0.97821044921875,4.306640625,-4.000091552734375,-0.059814453125,1,1.0,1.0,1.0,1.0,75.00
2021-04-10 22:14:33.288,,,,,,,,,,,,,,,,,,,,,,,,,,,,,,,,,,,,,,/muse/elements/blink
2021-04-10 22:14:33.774,0.7994289,0.89933485,0.92791814,0.48869488,0.34068415,0.4943268,0.2738852,0.37623036,0.6690044,0.6061157,0.6162888,0.19353233,0.59867835,0.10394747,0.19645843,0.5397966,0.14460823,-0.41649437,-0.10566708,-0.0232297,824.3956,796.5934,794.17584,796.99634,846.1539,-0.21343994140625,0.0341796875,0.9805908203125,4.837493896484375,-3.970184326171875,1.383209228515625,1,1.0,1.0,1.0,1.0,75.00
2021-04-10 22:14:34.285,0.849242,0.5505862,0.67827886,0.29759973,0.37778553,0.36253333,0.21331508,0.2781173,0.66162616,0.5662843,0.4842084,0.10374728,0.62687874,0.1256106,0.2382725,0.58412385,0.15226874,-0.3576627,-0.116498195,0.03955283,798.60803,780.87915,795.78754,813.5165,943.2601,-0.20343017578125,0.0406494140625,0.97686767578125,5.1141357421875,-6.003875732421875,1.973876953125,1,1.0,1.0,1.0,1.0,75.00
2021-04-10 22:14:34.796,0.849242,0.71833915,0.6023773,0.7328004,0.37778553,0.5490483,0.37967315,0.42364964,0.66162616,0.69401526,0.56257474,0.42084634,0.62687874,0.15239221,0.2926783,0.29712138,0.15226874,-0.29766485,-0.093677334,0.21604331,784.5055,803.44324,794.17584,815.12823,879.59705,-0.20562744140625,0.0423583984375,0.98138427734375,4.987030029296875,-4.912261962890625,1.158905029296875,1,1.0,1.0,1.0,1.0,75.00
2021-04-10 22:14:35.314,0.849242,0.9967801,0.6593979,0.8639437,0.37778553,0.6121987,0.57419276,0.52844423,0.66162616,0.7654958,0.5401196,0.65025604,0.62687874,0.21486329,0.32171673,0.48311746,0.15226874,-0.25555032,-0.19531551,0.20157126,770.80585,791.3553,779.67035,773.22345,813.1135,-0.1943359375,0.04400634765625,0.9820556640625,4.613189697265625,-4.66552734375,1.57012939453125,1,1.0,1.0,1.0,1.0,75.00
2021-04-10 22:14:35.821,0.7287261,1.006688,0.8590468,0.8295337,0.552414,0.5864056,0.67165536,0.4851407,0.65841234,0.822499,0.63705,0.65025604,0.69160074,0.23290549,0.32901445,0.48589292,0.023631452,-0.2556112,-0.17005509,0.2019438,823.1868,780.07324,805.8608,792.1612,703.91943,-0.20867919921875,0.03863525390625,0.98248291015625,3.78326416015625,-5.046844482421875,3.058013916015625,1,1.0,1.0,1.0,1.0,75.00
2021-04-10 22:14:36.207,,,,,,,,,,,,,,,,,,,,,,,,,,,,,,,,,,,,,,/muse/elements/blink
2021-04-10 22:14:36.327,0.780777,0.8425304,0.8158017,0.848593,0.51050496,0.39720657,0.6109544,0.4758405,0.65841234,0.8305787,0.6273257,0.59613305,0.69481164,0.23001288,0.3671188,0.6222522,0.035810348,-0.29544133,-0.11805472,0.19800656,840.9158,787.72894,788.93774,828.4249,855.42126,-0.2100830078125,0.02752685546875,0.978759765625,5.084228515625,-5.106658935546875,0.022430419921875,1,1.0,1.0,1.0,1.0,75.00
2021-04-10 22:14:36.835,0.7389787,0.47626132,0.8256814,0.8363491,0.40430993,0.2714729,0.45393318,0.38570914,0.60778683,0.7862056,0.61578465,0.5917205,0.67738485,0.10466846,0.41003793,0.6125077,0.02076497,-0.34865943,-0.111986846,0.19779846,796.99634,782.8938,784.90845,784.5055,630.989,-0.20806884765625,0.01446533203125,0.980712890625,3.730926513671875,-4.68048095703125,-0.067291259765625,1,1.0,1.0,1.0,1.0,75.00
2021-04-10 22:14:37.356,0.797701,0.73573494,0.8535209,0.8363491,0.13088487,0.36289868,0.5198479,0.38570914,0.46219897,0.7852438,0.2588203,0.5917205,0.68821406,0.14401492,0.44255054,0.6125077,0.029950932,-0.4068754,-0.024208564,0.19779846,821.5751,774.43225,792.5641,789.34064,742.6007,-0.21826171875,0.0135498046875,0.9774169921875,4.613189697265625,-4.007568359375,1.009368896484375,1,1.0,1.0,1.0,1.0,75.00
2021-04-10 22:14:37.862,0.27462754,0.8173453,0.8551323,0.06461964,0.21290234,0.42381787,0.5506436,0.16356592,0.4874843,0.80490506,0.3126991,0.32428935,0.4360796,0.13863438,0.38005793,0.69213575,0.16331044,-0.42505044,-0.07485853,0.23085278,802.6374,771.6117,792.5641,812.71063,864.68866,-0.227294921875,0.01519775390625,0.97796630859375,4.987030029296875,-3.9178466796875,1.07666015625,1,1.0,1.0,1.0,1.0,75.00
2021-04-10 22:14:38.375,0.41754058,0.87472385,0.69306326,0.2784861,0.33084145,0.49973953,0.4093456,0.1567897,0.5781341,0.8000294,0.34748214,0.48582438,0.44798842,0.15843911,0.3049947,0.64950424,0.21249689,-0.47574493,-0.038294088,0.27321404,781.685,776.8498,781.28204,799.011,857.03296,-0.2362060546875,0.01519775390625,0.9735107421875,4.3963623046875,-5.57769775390625,1.786956787109375,1,1.0,1.0,1.0,1.0,75.00
2021-04-10 22:14:38.880,0.40525997,0.75535667,0.48808965,0.41540372,0.25401765,0.4458863,0.18517981,0.20456395,0.58848774,0.52659404,0.3804414,0.50730425,0.44722977,0.057774752,0.24042073,0.63327056,0.2155622,-0.5406255,-0.056806706,0.22273658,790.54944,792.1612,783.69965,805.05493,751.4652,-0.22637939453125,0.0140380859375,0.9761962890625,4.77020263671875,-5.06927490234375,1.00189208984375,1,1.0,1.0,1.0,1.0,75.00
2021-04-10 22:14:39.398,0.65202945,0.9281513,0.48805267,0.4979606,0.34443346,0.44653717,-0.016012715,0.15236871,0.55057055,0.4969135,0.39798513,0.46659786,0.4363772,0.036924507,0.25889906,0.5714869,0.16773619,-0.4728344,-0.096298926,0.19174308,797.8022,804.65204,790.14655,788.5348,725.6777,-0.2296142578125,0.01287841796875,0.96881103515625,4.53094482421875,-4.329071044921875,0.994415283203125,1,1.0,1.0,1.0,1.0,75.00
2021-04-10 22:14:39.916,0.7086016,0.9620615,0.62378657,0.5814861,0.48169658,0.3310868,0.060934544,0.29902637,0.47907323,0.45341903,0.4513306,0.4347623,0.51664555,-0.013493131,0.27350846,0.55602765,0.09103605,-0.41300222,-0.14571518,0.08205282,810.696,804.65204,797.3993,794.9817,769.19415,-0.22845458984375,0.0111083984375,0.97528076171875,5.196380615234375,-4.605712890625,1.308441162109375,1,1.0,1.0,1.0,1.0,75.00
2021-04-10 22:14:40.444,0.701108,0.9396836,0.6716887,0.5002641,0.4816208,0.28694546,0.22381958,0.25282624,0.48129535,0.42955685,0.39436656,0.5277672,0.4933734,0.012106449,0.3287604,0.5110536,0.019565122,-0.32943103,-0.16971667,0.10975362,803.0403,801.4286,803.8461,825.2015,952.52747,-0.227294921875,0.01220703125,0.9788818359375,5.2935791015625,-5.09918212890625,1.71966552734375,1,1.0,1.0,1.0,1.0,75.00
2021-04-10 22:14:40.949,0.44852355,0.7371995,0.61704344,0.48783392,0.36816028,0.41535154,0.23578385,0.24328363,0.49111614,0.24357626,0.38064656,0.5303935,0.51062566,-0.03749513,0.32984555,0.4772903,-0.004465104,-0.33577397,-0.18097982,0.059276547,788.93774,809.0842,785.7143,798.60803,784.90845,-0.2301025390625,0.01312255859375,0.97467041015625,5.00946044921875,-4.508514404296875,1.18133544921875,1,1.0,1.0,1.0,1.0,75.00
2021-04-10 22:14:41.466,0.24585749,0.47574148,0.39959174,0.35342252,-0.002629075,0.5495258,0.22324595,0.08350922,0.45717052,0.25995058,0.3210153,0.5248364,0.4783132,0.057565562,0.3509976,0.4365852,9.262204E-4,-0.32053044,-0.1877443,0.020946655,805.4579,799.81683,803.0403,803.8461,706.337,-0.226806640625,0.010009765625,0.96875,4.912261962890625,-4.65057373046875,0.43365478515625,1,1.0,1.0,1.0,1.0,75.00
2021-04-10 22:14:41.972,0.49622604,0.55686206,0.479557,0.45193708,0.2842835,0.6146855,0.14949393,0.30361873,0.30321178,0.39938614,0.19389533,0.41705254,0.50707763,0.22586533,0.26293018,0.4732564,-0.033384025,-0.3607489,-0.300546,-0.05035042,782.8938,794.17584,786.1172,772.01465,737.76556,-0.23126220703125,0.00970458984375,0.9742431640625,4.673004150390625,-5.09918212890625,1.413116455078125,1,1.0,1.0,1.0,1.0,75.00
2021-04-10 22:14:42.429,,,,,,,,,,,,,,,,,,,,,,,,,,,,,,,,,,,,,,/muse/elements/blink
2021-04-10 22:14:42.499,0.6140178,0.87574434,0.5789925,0.53880453,0.39385313,0.75574195,0.21665582,0.436978,0.26308012,0.58885086,0.15813603,0.39516175,0.51923645,0.30872867,0.23866326,0.5449161,0.04083389,-0.40265754,-0.2890729,-0.039080966,811.50183,790.14655,798.20514,830.4396,763.1502,-0.23187255859375,0.0106201171875,0.97174072265625,5.06927490234375,-4.486083984375,1.27105712890625,1,1.0,1.0,1.0,1.0,75.00
2021-04-10 22:14:43.000,0.75342077,1.1412638,0.74741805,0.6402437,0.5485237,0.73607934,0.27689335,0.5577993,0.11626673,0.6016439,0.62667745,0.35370523,0.46673417,0.29546934,0.21323243,0.60295236,0.04231048,-0.49594,-0.3288934,0.02264867,801.8315,794.57874,794.9817,833.2601,944.87177,-0.22467041015625,0.00860595703125,0.97882080078125,4.538421630859375,-4.972076416015625,0.58319091796875,1,1.0,1.0,1.0,1.0,75.00
2021-04-10 22:14:43.512,0.76015496,1.272276,0.4742897,0.75826573,0.568055,0.78492963,0.29394245,0.5704269,0.102547914,0.56498474,0.62667745,0.24093965,0.4857455,0.19339378,0.24608114,0.6571093,0.12288842,-0.54370636,-0.2684914,-0.0033512993,801.02563,803.8461,794.57874,809.4872,715.2015,-0.23321533203125,0.0079345703125,0.97412109375,4.38140869140625,-4.987030029296875,1.36077880859375,1,1.0,1.0,1.0,1.0,75.00
2021-04-10 22:14:44.036,0.47406942,1.1142075,0.27974442,0.09551535,0.31173813,0.5383836,0.2518077,0.20496339,0.44521323,0.40615305,0.6049423,0.5259356,0.29810804,0.08699284,0.23415078,0.4793065,-0.17083941,-0.527299,-0.24608369,-0.011841559,814.3223,813.5165,801.4286,801.8315,678.1319,-0.23162841796875,0.0093994140625,0.9752197265625,5.36834716796875,-4.29168701171875,1.487884521484375,1,1.0,1.0,1.0,1.0,75.00
2021-04-10 22:14:44.549,0.56025153,0.72310674,0.19770154,0.23036274,0.2978096,0.45370293,0.18357225,0.13271993,0.4586717,0.5051332,0.3736336,0.5474913,0.31389168,0.03015889,0.17218636,0.4979026,-0.050118446,-0.5220155,-0.21570496,0.06345828,808.2784,794.9817,797.8022,792.5641,674.5055,-0.228759765625,0.0054931640625,0.97857666015625,4.6356201171875,-4.852447509765625,0.844879150390625,1,1.0,1.0,1.0,1.0,75.00
2021-04-10 22:14:44.881,,,,,,,,,,,,,,,,,,,,,,,,,,,,,,,,,,,,,,/muse/elements/blink
2021-04-10 22:14:45.078,0.56025153,0.672294,0.3430801,0.23036274,0.2978096,0.41983974,0.16260335,0.13271993,0.4586717,0.5291454,0.31328225,0.5474913,0.31389168,0.060340904,0.17720236,0.4979026,-0.050118446,-0.4483359,-0.15841864,0.06345828,787.72894,794.17584,788.93774,806.26373,699.4872,-0.23321533203125,0.00360107421875,0.974365234375,4.844970703125,-5.570220947265625,1.278533935546875,1,1.0,1.0,1.0,1.0,75.00
2021-04-10 22:14:45.605,0.6640513,0.69551796,0.51648676,0.33311123,0.2760416,0.36407846,0.21729407,0.046013124,0.32647553,0.60533446,0.30085015,0.4993568,0.33654103,0.018522158,0.17343678,0.51573503,0.084702626,-0.43150276,-0.11982018,0.12761125,808.68134,799.81683,795.38464,826.8132,833.663,-0.2283935546875,0.0068359375,0.97576904296875,4.91973876953125,-5.435638427734375,1.248626708984375,1,1.0,1.0,1.0,1.0,75.00
2021-04-10 22:14:46.127,0.6640513,0.61381555,0.44852132,0.39530364,0.2760416,0.29964522,0.1434887,0.007886059,0.32647553,0.5979727,0.057048045,0.4913383,0.33654103,0.030408902,0.21429108,0.516765,0.084702626,-0.41938198,-0.1426051,0.13149655,795.38464,793.7729,800.2198,798.60803,762.74725,-0.22247314453125,0.005859375,0.9754638671875,5.136566162109375,-4.18701171875,0.725250244140625,1,1.0,1.0,1.0,1.0,75.00
2021-04-10 22:14:46.640,0.5490519,0.6168111,0.25411707,0.38534504,0.43298715,0.26264486,0.046276417,0.22941107,0.40659487,0.5370028,0.12634069,0.36726567,0.7639226,0.020350816,0.25008345,0.76624787,-0.073171906,-0.44571728,-0.21983597,0.08657774,806.26373,809.89014,800.6227,820.3663,723.2601,-0.22216796875,0.01123046875,0.97509765625,4.78515625,-6.0711669921875,1.921539306640625,1,1.0,1.0,1.0,1.0,75.00
2021-04-10 22:14:47.151,,,,,,,,,,,,,,,,,,,,,,,,,,,,,,,,,,,,,,/muse/elements/blink
2021-04-10 22:14:47.152,0.4575788,0.3066496,0.03504867,0.25540185,0.38023353,0.31617245,-0.16502127,0.24533775,0.5074974,0.33799666,0.24743132,0.3801335,0.67526305,0.07477653,0.27651396,0.69992214,-0.07929905,-0.4716117,-0.24982716,0.09972473,847.76556,796.1905,795.78754,836.8865,752.27106,-0.218505859375,0.00982666015625,0.97735595703125,4.747772216796875,-4.85992431640625,1.158905029296875,1,1.0,1.0,1.0,1.0,75.00
2021-04-10 22:14:47.657,0.48096117,0.36546874,0.08986562,0.15665834,0.4133645,0.33458525,0.039785985,0.21945737,0.5074974,0.31791073,0.35585034,0.3761683,0.67028695,0.119711496,0.2555668,0.6883203,-0.11542417,-0.47144702,-0.23218173,0.13298848,797.8022,795.78754,802.23444,825.2015,914.2491,-0.21771240234375,0.0096435546875,0.98004150390625,4.85992431640625,-4.418792724609375,0.9271240234375,1,1.0,1.0,1.0,1.0,75.00
2021-04-10 22:14:48.184,0.22822061,0.12227022,0.03676235,-0.15395284,0.26896238,0.29049844,-0.019012086,0.27187693,0.46202323,0.45081314,0.3556654,0.34822935,0.4560587,0.081592105,0.17573117,0.5519451,-0.09023407,-0.40820545,-0.20262095,0.121815704,789.7436,801.8315,785.31134,796.1905,693.8461,-0.20953369140625,0.01300048828125,0.98321533203125,4.2169189453125,-4.5159912109375,0.2093505859375,1,1.0,1.0,1.0,1.0,75.00
2021-04-10 22:14:48.686,0.48794377,0.5012536,0.26058668,-0.15395284,-0.16727297,0.25132877,0.27027565,0.27187693,0.29869932,0.5649169,0.30263203,0.34822935,0.43807462,0.12262593,0.12993363,0.5519451,-0.0028761802,-0.31136957,-0.15501471,0.121815704,809.4872,792.5641,784.5055,793.7729,672.0879,-0.22955322265625,0.00537109375,0.97808837890625,5.196380615234375,-4.66552734375,0.979461669921875,1,1.0,1.0,1.0,1.0,75.00
2021-04-10 22:14:49.188,0.6899242,1.0227915,0.50853187,0.5576143,-0.23139179,0.37395298,0.53510404,0.3669546,0.5869967,0.6530858,0.29718456,0.73901826,0.42414182,0.16944453,0.23864026,0.49187714,0.03966507,-0.2868495,-0.11471162,0.27643782,643.8828,788.5348,789.34064,622.9304,649.5238,-0.22076416015625,0.00360107421875,0.975830078125,4.942169189453125,-4.194488525390625,0.515899658203125,1,1.0,1.0,1.0,1.0,75.00
2021-04-10 22:14:49.421,,,,,,,,,,,,,,,,,,,,,,,,,,,,,,,,,,,,,,/muse/elements/blink
2021-04-10 22:14:49.718,0.6899242,1.1317546,0.6073155,0.5576143,-0.23139179,0.4311921,0.54542,0.3669546,0.5869967,0.5739706,0.33655292,0.73901826,0.42414182,0.20615526,0.24559994,0.49187714,0.03966507,-0.33743078,-0.09428443,0.27643782,803.44324,790.54944,790.14655,806.26373,875.9707,-0.22015380859375,0.00238037109375,0.98077392578125,4.538421630859375,-5.316009521484375,0.94207763671875,1,1.0,1.0,1.0,1.0,75.00
2021-04-10 22:14:50.225,0.83661395,1.2373424,0.5033104,0.6550555,-0.2666243,0.4023898,0.31089482,0.4467952,0.51540875,0.54613847,0.4080783,0.7275167,0.3962613,0.18889074,0.23000321,0.5087384,0.09445842,-0.39874217,-0.14132224,0.31254342,781.685,807.47253,780.4762,805.4579,819.9634,-0.22357177734375,0.00164794921875,0.9761962890625,4.762725830078125,-4.957122802734375,0.91217041015625,1,1.0,1.0,1.0,1.0,75.00
2021-04-10 22:14:50.731,0.83661395,1.1368229,0.3495502,0.6550555,-0.2666243,0.3126625,-0.00790654,0.4467952,0.51540875,0.1464727,0.36182353,0.7275167,0.3962613,0.09773891,0.21264252,0.5087384,0.09445842,-0.3971143,-0.17484303,0.31254342,791.75824,791.75824,797.3993,790.9524,624.1392,-0.224365234375,0.0032958984375,0.97601318359375,4.94964599609375,-4.0374755859375,0.545806884765625,1,1.0,1.0,1.0,1.0,75.00
2021-04-10 22:14:51.254,0.83661395,1.2562367,0.43241087,0.85307175,-0.2666243,0.32717296,-0.07776897,0.62825286,0.51540875,0.11215313,0.31906423,0.74341035,0.3962613,0.14294963,0.207402,0.74914044,0.09445842,-0.3560485,-0.17365718,0.0013684275,794.57874,793.36993,798.60803,816.337,871.13556,-0.2257080078125,0.00347900390625,0.9766845703125,4.882354736328125,-5.0543212890625,1.353302001953125,1,1.0,1.0,1.0,1.0,75.00
2021-04-10 22:14:51.756,0.83661395,1.2562367,0.52130127,0.880425,-0.2666243,0.32717296,0.033684775,0.5937728,0.51540875,0.11215313,0.47726312,0.7803962,0.3962613,0.14294963,0.22214794,0.687931,0.09445842,-0.3560485,-0.15143026,-0.036217544,799.81683,799.41394,780.07324,818.7546,1158.4249,-0.224853515625,9.765625E-4,0.97491455078125,4.957122802734375,-4.47113037109375,1.27105712890625,1,1.0,1.0,1.0,1.0,75.00
2021-04-10 22:14:52.269,1.1896651,1.1999176,0.8046707,0.99687284,0.5457426,0.6305004,0.3032669,0.58397233,0.73147035,0.59483683,0.70283234,0.8929008,0.6079934,-0.1372781,0.2241088,0.6768432,-0.09527947,-0.36832577,-0.19951825,-0.0016803351,777.25275,842.1245,777.25275,782.49084,647.50916,-0.2237548828125,5.4931640625E-4,0.97454833984375,4.867401123046875,-4.792633056640625,1.1962890625,1,1.0,1.0,1.0,1.0,75.00
2021-04-10 22:14:52.787,0.93482953,1.1999176,0.8969005,0.96528447,0.49950254,0.6305004,0.4672601,0.38012823,0.69623405,0.59483683,0.70283234,0.9083021,0.5640732,-0.1372781,0.29883796,0.66933024,-0.08101333,-0.36832577,-0.2011345,0.030976882,873.5531,801.02563,803.8461,855.0183,667.25275,-0.22503662109375,0.00164794921875,0.97479248046875,4.844970703125,-4.732818603515625,1.143951416015625,1,1.0,1.0,1.0,1.0,75.00
2021-04-10 22:14:52.895,,,,,,,,,,,,,,,,,,,,,,,,,,,,,,,,,,,,,,/muse/elements/blink
2021-04-10 22:14:53.312,0.91517246,1.263839,1.0674435,0.97362477,0.51594275,0.6836198,0.6675836,0.29649922,0.6648303,0.590599,0.8810976,0.81082463,0.5702377,-0.11719664,0.36634293,0.73340255,-0.047206957,-0.34815192,-0.26328033,0.078238115,805.05493,795.38464,796.1905,789.34064,836.4835,-0.2198486328125,0.00274658203125,0.9779052734375,5.2935791015625,-5.196380615234375,0.46356201171875,1,1.0,1.0,1.0,1.0,75.00
2021-04-10 22:14:53.838,0.6134999,1.0991464,1.0304251,0.77612996,0.5032276,0.24689707,0.5600127,-0.027172912,0.6142439,0.3981303,0.8277355,0.63249606,0.5788463,0.14579879,0.2742592,0.73029137,-0.0666473,-0.4621714,-0.21440168,0.11373901,794.17584,794.9817,786.1172,784.5055,653.1502,-0.220947265625,-4.8828125E-4,0.97735595703125,4.7552490234375,-4.852447509765625,1.30096435546875,1,1.0,1.0,1.0,1.0,75.00
2021-04-10 22:14:54.363,0.6134999,0.9972401,0.9596771,0.877919,0.5032276,0.26507884,0.43169007,0.52125216,0.6142439,0.6644422,0.8100741,0.57313395,0.5788463,0.19380176,0.13287653,0.6653938,-0.0666473,-0.45738643,-0.19411133,0.16542618,772.8205,775.2381,781.28204,777.6557,866.30035,-0.21429443359375,-0.0057373046875,0.9755859375,4.94964599609375,-3.27484130859375,1.435546875,1,1.0,1.0,1.0,1.0,75.00
2021-04-10 22:14:54.867,1.2635155,0.9919967,0.96329844,0.90415215,0.4384866,0.23670973,0.183811,0.40505663,0.552956,0.6644422,0.5766645,0.57443047,0.6928895,0.1664791,0.1422951,0.6416598,-0.013943512,-0.43321088,-0.25013843,0.10021797,799.011,789.7436,794.17584,778.0586,634.21246,-0.2183837890625,-0.00439453125,0.9775390625,4.3963623046875,-5.60760498046875,1.383209228515625,1,1.0,1.0,1.0,1.0,75.00
2021-04-10 22:14:55.399,1.2759649,0.91218203,0.8936697,0.90415215,0.44341445,0.24499741,0.085552484,0.40505663,0.5585394,0.66286296,0.4246375,0.57443047,0.6765122,0.15868549,0.17243016,0.6416598,-0.031019235,-0.4241035,-0.19162154,0.10021797,783.69965,792.96704,790.14655,796.1905,753.0769,-0.241943359375,0.00439453125,0.97662353515625,5.8319091796875,-1.42059326171875,3.12530517578125,1,1.0,1.0,1.0,1.0,75.00
2021-04-10 22:14:55.926,1.2269828,0.8825377,0.836687,0.7965626,0.34495914,0.31847376,0.2831432,0.3114446,0.42054883,0.5644135,0.49081883,0.5903915,0.633753,0.16761869,0.21467432,0.6308191,-0.10848285,-0.31988192,-0.12161803,-0.06012876,675.7143,793.36993,801.8315,658.3883,598.3516,-0.22650146484375,0.0076904296875,0.971923828125,3.701019287109375,-7.155303955078125,2.31781005859375,1,1.0,1.0,1.0,1.0,75.00
2021-04-10 22:14:56.023,,,,,,,,,,,,,,,,,,,,,,,,,,,,,,,,,,,,,,/muse/elements/blink
2021-04-10 22:14:56.439,1.1866378,0.7307395,0.7538597,0.74802166,0.4073447,0.39679933,0.31518713,0.37158757,0.42021683,0.53736067,0.37320873,0.5903915,0.590251,0.31930485,0.17155004,0.64889526,-0.1490095,-0.2781393,-0.030918289,-0.09425515,790.14655,799.41394,785.7143,780.87915,628.5714,-0.23297119140625,0.00201416015625,0.97235107421875,5.06927490234375,-1.95892333984375,0.620574951171875,1,1.0,1.0,1.0,1.0,75.00
2021-04-10 22:14:56.536,,,,,,,,,,,,,,,,,,,,,,,,,,,,,,,,,,,,,,/muse/elements/blink
2021-04-10 22:14:56.952,1.1866378,0.7803132,0.8383112,0.74802166,0.4073447,0.5501948,0.37322247,0.37158757,0.42021683,0.6251245,0.42395565,0.5903915,0.590251,0.2949488,0.1996418,0.64889526,-0.1490095,-0.2742131,-0.11784688,-0.09425515,801.4286,787.72894,798.60803,783.69965,749.0476,-0.23175048828125,7.32421875E-4,0.970947265625,4.957122802734375,-6.6094970703125,2.01873779296875,1,1.0,1.0,1.0,1.0,75.00
2021-04-10 22:14:57.452,1.1866378,0.8296255,0.9464402,0.74802166,0.4073447,0.5352581,0.42010313,0.37158757,0.42021683,0.7078384,0.33873767,0.5903915,0.590251,0.21347626,0.24453911,0.64889526,-0.1490095,-0.28478345,-0.17068227,-0.09425515,769.19415,793.7729,795.78754,803.44324,832.8571,-0.213623046875,-0.0028076171875,0.97857666015625,4.8150634765625,-5.525360107421875,1.039276123046875,1,1.0,1.0,1.0,1.0,75.00
2021-04-10 22:14:57.971,1.1866378,0.79604656,0.81531024,-0.02199578,0.4073447,0.5211063,0.3804308,0.31089124,0.42021683,0.6428737,0.2712981,0.3559089,0.590251,-0.03646472,0.29199603,0.5512377,-0.1490095,-0.24774411,-0.23964095,0.31754652,796.5934,801.8315,792.96704,794.9817,647.1062,-0.2064208984375,0.00616455078125,0.9815673828125,5.435638427734375,-5.7122802734375,-0.426177978515625,1,1.0,1.0,1.0,1.0,75.00
2021-04-10 22:14:58.481,0.2220376,0.7221844,0.711739,0.05123418,0.3548837,0.306079,0.37484846,0.2799693,0.5320544,0.6503385,0.3526745,0.41465747,0.4291138,0.005763718,0.26494667,0.47725332,0.07105019,-0.22762153,-0.20355718,0.27312446,805.4579,799.41394,794.57874,785.7143,680.14655,-0.2032470703125,-0.00445556640625,0.97845458984375,4.957122802734375,-5.540313720703125,0.814971923828125,1,1.0,1.0,1.0,1.0,75.00
2021-04-10 22:14:58.995,0.46172142,0.74233615,0.51602364,0.15280826,0.2418693,0.19787453,0.36062002,0.28420755,0.5879399,0.5059874,0.421967,0.44776386,0.41576606,0.07405908,0.23649655,0.49942315,0.03209943,-0.21566641,-0.19124885,0.26015192,780.4762,793.7729,788.93774,809.0842,824.7985,-0.2000732421875,-0.00262451171875,0.98077392578125,3.970184326171875,-4.7552490234375,1.353302001953125,1,1.0,1.0,1.0,1.0,75.00
2021-04-10 22:14:59.505,0.5631922,1.016135,0.92903304,0.5064523,0.23309493,0.25565743,0.6708821,0.413824,0.6261122,0.666133,0.63431877,0.4772222,0.4265997,0.094276816,0.1930054,0.5038305,0.02737142,-0.26921558,-0.15917292,0.23066865,801.02563,791.3553,799.011,825.6044,936.0073,-0.1983642578125,-0.002197265625,0.9830322265625,5.263671875,-4.987030029296875,1.734619140625,1,1.0,1.0,1.0,1.0,75.00
2021-04-10 22:14:59.873,,,,,,,,,,,,,,,,,,,,,,,,,,,,,,,,,,,,,,/muse/elements/blink
2021-04-10 22:15:00.009,0.6801913,1.0304868,0.9171224,0.61956406,0.18866304,0.28976578,0.6899824,0.47818142,0.41506463,0.6868192,0.6432781,0.46918267,0.42801416,0.045185227,0.15656163,0.55189574,-0.004940486,-0.2609759,-0.17963903,0.23414296,794.9817,785.7143,781.28204,796.99634,822.7839,-0.19989013671875,-0.00738525390625,0.98095703125,5.09918212890625,-3.910369873046875,1.21124267578125,1,1.0,1.0,1.0,1.0,80.00
2021-04-10 22:15:00.525,0.6144365,0.92054445,0.8532903,0.76900476,0.3452347,0.3761726,0.52455276,0.5527482,0.35379678,0.6783709,0.65149075,0.42280018,0.44140723,-0.017452285,0.13063246,0.52149445,0.042634416,-0.2148788,-0.19338793,0.22632289,795.78754,789.7436,785.7143,778.0586,770.40295,-0.20257568359375,-0.00775146484375,0.97344970703125,4.224395751953125,-5.585174560546875,0.88226318359375,1,1.0,1.0,1.0,1.0,80.00
2021-04-10 22:15:01.031,0.6144365,0.8835178,0.52421147,0.7941686,0.3452347,0.44780943,0.38048223,0.5389931,0.35379678,0.60507125,0.29287693,0.41785988,0.44140723,0.08409307,0.1339361,0.47675568,0.042634416,-0.16593151,-0.23966584,0.20339248,802.23444,799.011,796.1905,815.12823,890.07324,-0.20281982421875,-0.00567626953125,0.979248046875,4.41131591796875,-4.9945068359375,1.30096435546875,1,1.0,1.0,1.0,1.0,80.00
2021-04-10 22:15:01.545,0.6144365,0.907974,0.52863395,0.71471816,0.3452347,0.60114735,0.44898465,0.442389,0.35379678,0.55788344,0.7424328,0.45400494,0.44140723,0.2271167,0.19871971,0.5019551,0.042634416,-0.18787192,-0.17901021,-0.033503823,794.9817,813.5165,780.07324,811.0989,800.2198,-0.2054443359375,-0.00958251953125,0.97882080078125,4.957122802734375,-4.254302978515625,1.188812255859375,1,1.0,1.0,1.0,1.0,80.00
2021-04-10 22:15:02.072,0.6144365,0.9867923,0.4973848,0.70588374,0.3452347,0.6110161,0.48962164,0.45745355,0.35379678,0.43676028,0.774643,0.57750165,0.44140723,0.26094458,0.19946396,0.54341465,0.042634416,-0.26991904,-0.11872247,-8.164593E-4,826.8132,789.34064,788.93774,820.3663,741.79486,-0.2010498046875,-0.00604248046875,0.97894287109375,4.583282470703125,-5.345916748046875,0.934600830078125,1,1.0,1.0,1.0,1.0,80.00
2021-04-10 22:15:02.075,,,,,,,,,,,,,,,,,,,,,,,,,,,,,,,,,,,,,,/muse/elements/blink
2021-04-10 22:15:02.575,0.6144365,1.0180854,0.4815741,0.65665734,0.3452347,0.61313,0.37785015,0.48735404,0.35379678,0.40852648,0.80008715,0.56069267,0.44140723,0.3065504,0.23659143,0.5505312,0.042634416,-0.36151865,-0.087112024,-0.0046320707,811.50183,788.1319,798.20514,793.7729,779.2674,-0.192626953125,-6.103515625E-4,0.98126220703125,5.0543212890625,-5.226287841796875,2.3028564453125,1,1.0,1.0,1.0,1.0,80.00
2021-04-10 22:15:03.085,0.6144365,0.9692575,0.728521,0.6033267,0.3452347,0.5448494,0.26380056,0.55313355,0.35379678,0.36800015,0.7646883,0.4237319,0.44140723,0.2813855,0.19499382,0.6175589,0.042634416,-0.31858903,-0.16714334,0.009332498,782.0879,803.0403,804.65204,786.1172,850.18317,-0.16278076171875,6.103515625E-5,0.98162841796875,11.925506591796875,-14.295654296875,-5.480499267578125,1,1.0,1.0,1.0,1.0,80.00
2021-04-10 22:15:03.353,,,,,,,,,,,,,,,,,,,,,,,,,,,,,,,,,,,,,,/muse/elements/blink
2021-04-10 22:15:03.615,0.6144365,0.8493768,0.9536304,0.6033267,0.3452347,0.5827091,0.26424697,0.55313355,0.35379678,0.372865,0.48222584,0.4237319,0.44140723,0.33585465,0.22704464,0.6175589,0.042634416,-0.2946304,-0.33783272,0.009332498,799.81683,794.17584,785.7143,837.6923,842.9304,-0.14727783203125,-0.009521484375,0.9581298828125,3.551483154296875,12.194671630859375,-0.994415283203125,1,1.0,1.0,1.0,1.0,80.00
2021-04-10 22:15:04.128,0.6144365,0.6061742,0.98230815,0.6033267,0.3452347,0.6640675,0.35365322,0.55313355,0.35379678,0.2615726,0.38954568,0.4237319,0.44140723,0.31546,0.19837706,0.6175589,0.042634416,-0.22609507,-0.33755526,0.009332498,782.8938,772.01465,791.75824,808.2784,918.68134,-0.1839599609375,0.07196044921875,0.9727783203125,-8.4637451171875,-11.5740966796875,8.381500244140625,1,1.0,1.0,1.0,1.0,80.00
2021-04-10 22:15:04.652,0.6144365,0.6080543,0.89561236,0.6033267,0.3452347,0.7215793,0.3160946,0.55313355,0.35379678,0.1894439,0.3558784,0.4237319,0.44140723,0.3199906,0.20280094,0.6175589,0.042634416,-0.20847745,-0.2678767,0.009332498,836.8865,802.6374,784.10254,815.5311,655.56775,-0.16693115234375,-0.02960205078125,0.9871826171875,1.86920166015625,-6.519775390625,6.003875732421875,1,2.0,1.0,1.0,2.0,80.00
2021-04-10 22:15:04.655,,,,,,,,,,,,,,,,,,,,,,,,,,,,,,,,,,,,,,/muse/elements/blink
2021-04-10 22:15:05.163,0.6144365,1.519653,0.51033103,0.6033267,0.3452347,0.49974415,0.18556012,0.55313355,0.35379678,0.44818807,0.52443767,0.4237319,0.44140723,0.26663926,0.25102028,0.6175589,0.042634416,-0.45314038,-0.19001159,0.009332498,804.2491,718.022,802.23444,808.68134,766.3736,-0.23541259765625,-0.04034423828125,0.97747802734375,-6.519775390625,11.252593994140625,3.24493408203125,1,2.0,1.0,1.0,2.0,80.00
2021-04-10 22:15:05.665,0.6144365,1.519653,0.3548694,0.6033267,0.3452347,0.49974415,0.18679623,0.55313355,0.35379678,0.44818807,0.52443767,0.4237319,0.44140723,0.26663926,0.29831952,0.6175589,0.042634416,-0.45314038,-0.18688731,0.009332498,769.19415,780.4762,786.1172,789.34064,942.0513,-0.23828125,-0.033935546875,0.97528076171875,7.31231689453125,-7.484283447265625,1.128997802734375,1,2.0,1.0,1.0,2.0,80.00
2021-04-10 22:15:06.198,0.6144365,1.519653,0.66353405,1.0607336,0.3452347,0.49974415,0.56257343,0.6869837,0.35379678,0.44818807,0.52443767,0.4284127,0.44140723,0.26663926,0.31827778,0.68826693,0.042634416,-0.45314038,-0.24377821,0.08384417,755.4945,807.0696,782.8938,786.9231,815.9341,-0.18212890625,-0.0423583984375,0.9888916015625,5.48797607421875,-14.826507568359375,-0.82244873046875,1,2.0,1.0,1.0,2.0,80.00
2021-04-10 22:15:06.717,0.6144365,1.519653,0.67388606,0.98199576,0.3452347,0.49974415,0.55381066,0.58656216,0.35379678,0.44818807,0.29310143,0.6919624,0.44140723,0.26663926,0.32655248,0.6668403,0.042634416,-0.45314038,-0.28788322,0.08546336,785.31134,788.1319,804.2491,825.6044,920.696,-0.15203857421875,-0.04949951171875,0.98834228515625,5.36834716796875,-2.1533203125,0.9271240234375,1,1.0,1.0,1.0,1.0,80.00
2021-04-10 22:15:06.988,,,,,,,,,,,,,,,,,,,,,,,,,,,,,,,,,,,,,,/muse/elements/blink
2021-04-10 22:15:07.227,0.6144365,1.519653,0.68850726,0.98199576,0.3452347,0.49974415,0.52442604,0.58656216,0.35379678,0.44818807,0.6323749,0.6919624,0.44140723,0.26663926,0.2828805,0.6668403,0.042634416,-0.45314038,-0.27466267,0.08546336,778.46155,794.17584,784.10254,792.1612,730.9158,-0.16217041015625,-0.04376220703125,0.98828125,4.9346923828125,-3.87298583984375,-0.171966552734375,1,1.0,1.0,1.0,1.0,80.00
2021-04-10 22:15:07.740,0.6144365,1.519653,0.56671625,0.8875031,0.3452347,0.49974415,0.2528149,0.5145412,0.35379678,0.44818807,0.64691097,0.63063496,0.44140723,0.26663926,0.25559598,0.62479144,0.042634416,-0.45314038,-0.26380393,0.026666345,807.0696,767.98535,806.26373,799.81683,678.1319,-0.22344970703125,-0.0291748046875,0.979248046875,6.35528564453125,-4.299163818359375,0.418701171875,1,1.0,1.0,1.0,1.0,80.00
2021-04-10 22:15:08.037,,,,,,,,,,,,,,,,,,,,,,,,,,,,,,,,,,,,,,/muse/elements/blink
2021-04-10 22:15:08.264,0.6144365,1.519653,0.64004695,0.82282937,0.3452347,0.49974415,0.22814465,0.5232248,0.35379678,0.44818807,0.64732224,0.6299489,0.44140723,0.26663926,0.22485182,0.60539544,0.042634416,-0.45314038,-0.26890785,-0.059847023,794.17584,776.04395,801.02563,784.90845,780.07324,-0.20196533203125,-0.0301513671875,0.9808349609375,5.046844482421875,-5.8319091796875,-0.0,1,1.0,1.0,1.0,1.0,80.00
2021-04-10 22:15:08.793,0.6144365,1.519653,0.729697,0.82282937,0.3452347,0.49974415,0.2651077,0.5232248,0.35379678,0.44818807,0.6274879,0.6299489,0.44140723,0.26663926,0.19665775,0.60539544,0.042634416,-0.45314038,-0.2486363,-0.059847023,786.9231,808.68134,786.9231,800.2198,814.3223,-0.1905517578125,-0.0333251953125,0.9827880859375,4.94964599609375,-4.358978271484375,0.620574951171875,1,1.0,1.0,1.0,1.0,80.00
2021-04-10 22:15:09.316,0.6144365,1.519653,0.6654669,0.82282937,0.3452347,0.49974415,0.31499803,0.5232248,0.35379678,0.44818807,0.63125163,0.6299489,0.44140723,0.26663926,0.23804213,0.60539544,0.042634416,-0.45314038,-0.1928653,-0.059847023,789.7436,787.326,796.1905,817.5458,898.5348,-0.18035888671875,-0.0377197265625,0.98016357421875,4.71038818359375,-5.8319091796875,0.777587890625,1,1.0,1.0,1.0,1.0,80.00
2021-04-10 22:15:09.843,0.5233551,0.76864356,0.67519057,0.2814577,0.046524514,0.49373436,0.31025046,0.13403304,0.28944293,0.43546146,0.63125163,0.24003401,0.45515817,0.24238186,0.19549513,0.59834886,-0.16427413,-0.42009538,-0.13836496,0.16297643,785.7143,799.41394,788.93774,784.90845,718.8278,-0.1802978515625,-0.033935546875,0.98846435546875,5.12908935546875,-5.001983642578125,1.5850830078125,1,1.0,1.0,1.0,1.0,80.00
2021-04-10 22:15:10.348,0.70949805,0.9509004,0.603063,0.43529302,0.22196335,0.51369005,0.21876821,0.18163477,0.35052562,0.50348043,0.56246924,0.33633348,0.482539,0.24099922,0.32901827,0.65713495,-0.10848666,-0.32851666,-0.10089783,0.10625817,840.5128,809.4872,787.326,851.39197,847.76556,-0.17352294921875,-0.0362548828125,0.98797607421875,5.203857421875,-5.061798095703125,1.861724853515625,1,1.0,1.0,1.0,1.0,35.00
2021-04-10 22:15:10.356,,,,,,,,,,,,,,,,,,,,,,,,,,,,,,,,,,,,,,/muse/elements/blink
2021-04-10 22:15:10.864,0.703606,0.9921087,0.7748925,0.47316673,0.24259168,0.78527933,0.44681457,0.19812974,0.33423117,0.8377442,0.6350793,0.29568553,0.4799294,0.26610836,0.32645664,0.67490995,-0.110565804,-0.27599058,-0.10136159,0.09569741,807.8755,821.978,769.19415,822.7839,918.2784,-0.18011474609375,-0.02618408203125,0.9801025390625,5.375823974609375,-4.1571044921875,1.383209228515625,1,1.0,1.0,1.0,1.0,35.00
2021-04-10 22:15:11.364,0.8601903,1.1277115,0.8678728,0.6020725,0.37733737,0.8232804,0.63145936,0.24795808,0.21989724,0.8413994,0.69469357,0.2218083,0.52202165,0.29816788,0.41999552,0.74552757,-0.015850525,-0.28646234,-0.15292895,-0.029213374,782.0879,792.1612,800.6227,808.68134,874.35895,-0.1776123046875,-0.02154541015625,0.9808349609375,4.80010986328125,-6.362762451171875,1.435546875,1,1.0,1.0,1.0,1.0,35.00
2021-04-10 22:15:11.878,0.8601903,1.0623552,0.87438065,0.6020725,0.37733737,0.77620405,0.62977916,0.24795808,0.21989724,0.8626804,0.6959102,0.2218083,0.52202165,0.31942195,0.37171933,0.74552757,-0.015850525,-0.32749677,-0.17460012,-0.029213374,786.1172,800.6227,799.011,784.5055,710.3663,-0.17718505859375,-0.01934814453125,0.98822021484375,5.263671875,-3.521575927734375,1.039276123046875,1,1.0,1.0,1.0,1.0,35.00
2021-04-10 22:15:12.406,0.57805526,0.87083143,0.73986244,0.19529687,0.6155714,0.21795607,0.38519973,0.37990427,0.19522719,0.60138124,0.35826367,0.3094157,0.44886023,0.27903754,0.32689393,0.5040836,-0.03889087,-0.35145885,-0.14949025,0.08825704,841.7216,773.6264,797.3993,827.2161,697.8755,-0.18206787109375,-0.02093505859375,0.9813232421875,4.388885498046875,-5.03936767578125,0.22430419921875,1,1.0,1.0,1.0,1.0,35.00
2021-04-10 22:15:12.476,,,,,,,,,,,,,,,,,,,,,,,,,,,,,,,,,,,,,,/muse/elements/blink
2021-04-10 22:15:12.932,0.57805526,0.7526576,0.7563762,0.19529687,0.6155714,-0.030729763,0.071961574,0.37990427,0.19522719,0.57506835,0.47216526,0.3094157,0.44886023,0.21520688,0.2738073,0.5040836,-0.03889087,-0.25705853,-0.07805403,0.08825704,779.67035,785.31134,783.2967,773.22345,654.7619,-0.180908203125,-0.02081298828125,0.98388671875,4.17205810546875,-4.329071044921875,0.11962890625,1,1.0,1.0,1.0,1.0,35.00
2021-04-10 22:15:13.438,0.59062546,0.7962757,0.7665189,0.3028422,0.5782634,0.0265165,0.29001322,0.3948446,0.036610607,0.6093372,0.5652569,0.10592483,0.4623685,0.22176214,0.30681348,0.44372618,-0.0025439346,-0.2285121,-0.09358334,0.19371778,796.99634,789.34064,797.8022,809.89014,975.89746,-0.18206787109375,-0.01776123046875,0.98370361328125,4.433746337890625,-5.6524658203125,0.919647216796875,1,1.0,1.0,1.0,1.0,35.00
2021-04-10 22:15:13.946,0.8338233,0.88474166,0.8312062,0.70506793,0.585736,0.23999406,0.3445941,0.41044733,0.5514058,0.6042049,0.5652569,0.23934968,0.5145127,0.42696068,0.32973585,0.43427187,0.100736395,-0.24306004,-0.13211149,0.03542393,791.3553,795.78754,795.38464,805.8608,946.8865,-0.18731689453125,-0.018798828125,0.98626708984375,4.478607177734375,-4.837493896484375,1.136474609375,1,1.0,1.0,1.0,1.0,35.00
2021-04-10 22:15:14.462,0.7452661,0.7499936,0.82723874,0.5800111,0.6112135,0.45161656,0.38010326,0.44303447,0.60036165,0.62982965,0.48962575,0.50079566,0.43757683,0.416122,0.2700501,0.5204833,-0.038652968,-0.21940812,-0.15479454,0.12221428,781.685,801.8315,782.8938,778.86444,627.3626,-0.18145751953125,-0.01947021484375,0.98663330078125,4.65057373046875,-4.47113037109375,1.323394775390625,1,1.0,1.0,1.0,1.0,35.00
2021-04-10 22:15:14.965,0.7937738,0.8169394,0.8072266,0.48689407,0.5460957,0.5582735,0.09067511,0.4355565,0.60343546,0.46358684,0.39758337,0.6085018,0.45972145,0.33857659,0.23566839,0.60016173,-0.035775136,-0.16050383,-0.121635884,0.116155066,782.8938,776.4469,789.7436,810.696,848.97437,-0.17962646484375,-0.01751708984375,0.98846435546875,5.0543212890625,-5.443115234375,1.09161376953125,1,1.0,1.0,1.0,1.0,35.00
2021-04-10 22:15:15.469,0.7747153,0.8525296,0.71470004,0.3268565,0.5272456,0.52174807,0.2504182,0.36316127,0.53622055,0.38699198,0.56774557,0.6906352,0.43295905,0.13163482,0.27056465,0.68893313,-0.11364754,-0.19345547,-0.15229094,0.07491153,769.19415,798.20514,777.25275,770.40295,786.52014,-0.18426513671875,-0.01519775390625,0.9876708984375,4.867401123046875,-4.822540283203125,1.54022216796875,1,1.0,1.0,1.0,1.0,35.00
2021-04-10 22:15:15.990,0.95593345,0.9481691,0.62303174,0.34707344,0.34853354,0.61674905,0.45337692,0.35022444,0.23597276,0.53952086,0.6232509,0.69759995,0.6104998,0.13290972,0.31154832,0.73507017,0.0021623215,-0.24230802,-0.2332432,4.697102E-4,788.93774,795.78754,789.7436,806.26373,937.619,-0.17919921875,-0.02032470703125,0.98394775390625,4.6356201171875,-4.2767333984375,0.0299072265625,1,1.0,1.0,1.0,1.0,35.00
2021-04-10 22:15:16.515,0.8318297,0.8582343,0.55878043,0.38027242,0.77510595,0.5582529,0.4848184,0.44741517,0.6661801,0.5726793,0.616215,0.6884175,0.56529737,0.10884435,0.22595592,0.66743904,-0.03536198,-0.3009677,-0.2763568,-0.024140384,812.71063,808.2784,818.7546,803.8461,693.8461,-0.18524169921875,-0.0179443359375,0.985107421875,4.747772216796875,-4.777679443359375,1.413116455078125,1,1.0,1.0,1.0,1.0,35.00
2021-04-10 22:15:17.044,0.8030174,0.8309659,0.5558512,0.4260978,0.73174006,0.55402386,0.41196832,0.46427667,0.6661801,0.58798045,0.64504117,0.6572867,0.5386379,0.19493607,0.17372508,0.5556967,-0.027408237,-0.27943912,-0.23035598,-0.026836108,835.6777,800.6227,798.20514,811.50183,660.40295,-0.18084716796875,-0.02056884765625,0.98663330078125,4.418792724609375,-4.306640625,0.61309814453125,1,1.0,1.0,1.0,1.0,35.00
2021-04-10 22:15:17.048,,,,,,,,,,,,,,,,,,,,,,,,,,,,,,,,,,,,,,/muse/elements/blink
2021-04-10 22:15:17.567,0.6091041,0.7415887,0.39650702,0.35229462,0.7501082,0.39376602,0.32896328,0.41106278,0.6410453,0.4222345,0.5636224,0.6248217,0.41140816,0.17237322,0.19279593,0.36653876,-0.06374531,-0.28491047,-0.22389768,-0.05031483,802.6374,797.3993,792.96704,775.64105,651.13556,-0.18170166015625,-0.02276611328125,0.984375,5.106658935546875,-4.897308349609375,3.24493408203125,1,1.0,1.0,1.0,1.0,35.00
2021-04-10 22:15:18.094,0.55484825,0.7133577,0.24024001,0.38861328,0.6350388,0.28642058,0.32423142,0.032147035,0.596596,0.3932002,0.56365514,0.53382474,0.3995696,0.18314938,0.31361207,0.28377438,-0.05150091,-0.34422168,-0.13607383,-0.15033044,804.2491,793.7729,795.78754,790.9524,659.59705,-0.16668701171875,-0.0108642578125,0.9888916015625,4.583282470703125,-5.15899658203125,0.46356201171875,1,1.0,1.0,1.0,1.0,35.00
2021-04-10 22:15:18.605,0.23010063,0.6136687,0.13215365,0.24549522,0.3543617,0.20925322,0.22365788,0.05855928,0.56027126,0.40139928,0.42648634,0.15873775,0.3260562,0.087193385,0.29238683,0.46547315,0.037651237,-0.43216944,-0.10347854,0.13961634,798.20514,796.5934,797.3993,821.5751,932.7839,-0.17120361328125,-0.0213623046875,0.989501953125,4.463653564453125,-4.329071044921875,-0.2093505859375,1,1.0,1.0,1.0,1.0,35.00
2021-04-10 22:15:19.111,0.60420626,0.6753469,0.45503956,0.5332702,0.42487934,0.06776775,0.035761587,0.28849983,0.63377696,0.50735706,0.3263676,0.40481558,0.48975742,0.15810475,0.23948231,0.4729571,0.027004393,-0.50085104,-0.10688305,0.027566763,801.8315,809.89014,799.81683,828.4249,838.9011,-0.176513671875,-0.02093505859375,0.98895263671875,4.852447509765625,-4.56085205078125,1.293487548828125,1,1.0,1.0,1.0,1.0,35.00
2021-04-10 22:15:19.613,0.52131957,0.7367276,0.8333172,0.6612121,0.37083992,0.34014556,0.17962533,0.3910952,0.71409035,0.60288316,0.40217713,0.71820515,0.43808445,0.20613255,0.17085503,0.43813756,-0.007334853,-0.46896884,-0.17698854,0.029592365,779.2674,806.26373,784.10254,766.77655,701.50183,-0.16278076171875,-0.021240234375,0.99200439453125,4.3963623046875,-5.360870361328125,0.61309814453125,1,1.0,1.0,1.0,1.0,35.00
2021-04-10 22:15:19.978,,,,,,,,,,,,,,,,,,,,,,,,,,,,,,,,,,,,,,/muse/elements/blink
2021-04-10 22:15:20.125,0.62421,0.96403307,0.9651342,0.9372675,0.36416796,0.5887254,0.2715609,0.53988326,0.8292839,0.78872675,0.40217713,0.7179967,0.47388336,0.29739234,0.17200434,0.4224665,-0.046448004,-0.47109887,-0.20701931,-0.003499329,810.696,784.10254,802.23444,793.36993,757.50916,-0.1649169921875,-0.0216064453125,0.98663330078125,4.388885498046875,-4.65057373046875,1.30096435546875,1,1.0,1.0,1.0,1.0,35.00
2021-04-10 22:15:20.634,0.4797565,0.91834414,0.9436642,1.049878,0.26417366,0.66142106,0.59347403,0.6003159,0.8292839,0.78718466,0.50109094,0.7179015,0.37001088,0.28616598,0.18223906,0.3758541,-0.09942106,-0.44411474,-0.1537951,0.06575032,805.4579,819.9634,805.4579,805.8608,805.8608,-0.166015625,-0.02197265625,0.98492431640625,5.256195068359375,-4.8748779296875,2.220611572265625,1,1.0,1.0,1.0,1.0,80.00
2021-04-10 22:15:21.150,0.5997704,1.035953,0.64112335,1.2157612,0.32410887,0.6515102,0.5577721,0.6969338,0.8292839,0.78718466,0.30856395,0.5985946,0.38906655,0.25342703,0.14091237,0.36770913,-0.13312016,-0.39554313,-0.20008218,0.14497381,787.326,799.41394,784.90845,779.2674,728.9011,-0.16583251953125,-0.02032470703125,0.9859619140625,5.151519775390625,-5.14404296875,1.6448974609375,1,1.0,1.0,1.0,1.0,80.00
2021-04-10 22:15:21.676,1.0132948,0.9914471,0.68607587,1.006287,0.22395062,0.54552245,0.50189877,0.33284405,0.37183553,0.52244353,0.45280913,0.3341243,0.4328137,0.33671948,0.22534776,0.6206528,-0.20607212,-0.32937583,-0.16627899,-0.006466111,794.57874,797.8022,805.4579,812.3077,738.1685,-0.16363525390625,-0.0157470703125,0.98822021484375,4.717864990234375,-5.076751708984375,1.203765869140625,1,1.0,1.0,1.0,1.0,80.00
2021-04-10 22:15:22.179,0.8293205,0.93319905,0.6209233,0.78741693,0.48643413,0.39728308,0.3376897,0.39171135,0.66448617,0.5256921,0.4889198,0.53067404,0.39318022,0.35151455,0.29232004,0.51595914,-0.22618054,-0.22248144,-0.110514365,0.05939572,785.7143,784.10254,804.2491,790.54944,786.52014,-0.17254638671875,-0.0185546875,0.98931884765625,4.822540283203125,-3.99261474609375,1.07666015625,1,1.0,1.0,1.0,1.0,80.00
2021-04-10 22:15:22.689,0.7217862,0.7874357,0.67682076,0.63478035,0.4229409,0.3250375,0.38988933,0.3441886,0.75602365,0.4105934,0.5496596,0.5677127,0.38427228,0.37162855,0.28324252,0.46731654,-0.1680422,-0.19281143,-0.071926534,0.025638249,801.02563,806.6667,796.5934,820.7692,817.9487,-0.17266845703125,-0.02154541015625,0.990966796875,4.284210205078125,-4.44122314453125,0.538330078125,1,1.0,1.0,1.0,1.0,80.00
2021-04-10 22:15:23.205,0.56158715,1.0341843,0.93905115,0.31063563,0.44875103,0.606474,0.5399682,0.42288098,0.7611358,0.8017742,0.7073446,0.66262066,0.32673857,0.25593936,0.23469765,0.4089041,-0.1080773,-0.2086426,-0.07821568,0.005820184,806.6667,786.9231,805.05493,815.9341,909.011,-0.17822265625,-0.01568603515625,0.99005126953125,5.2337646484375,-5.286102294921875,1.27105712890625,1,1.0,1.0,1.0,1.0,80.00
2021-04-10 22:15:23.537,,,,,,,,,,,,,,,,,,,,,,,,,,,,,,,,,,,,,,/muse/elements/blink
2021-04-10 22:15:23.718,0.5819095,1.0338813,0.95622486,0.34923476,0.24753688,0.60965127,0.49698713,0.3742883,0.6359885,0.795656,0.71434206,0.6060541,0.2951297,0.18316913,0.20646888,0.44578022,-0.06350242,-0.24801755,-0.16036859,-0.08536211,704.3223,762.3443,804.65204,719.6337,608.8278,-0.1778564453125,-0.01934814453125,0.98486328125,5.12908935546875,-4.717864990234375,1.89910888671875,1,1.0,1.0,1.0,1.0,80.00
2021-04-10 22:15:23.949,,,,,,,,,,,,,,,,,,,,,,,,,,,,,,,,,,,,,,/muse/elements/blink
2021-04-10 22:15:24.234,0.6273202,1.1568983,1.0332642,0.41410545,0.26143533,0.6688624,0.5603181,0.4601016,0.41979298,0.8018901,0.7221398,0.5408404,0.2315333,0.23155314,0.2473926,0.50469494,-0.061755672,-0.2548675,-0.1999598,-0.12358897,811.9048,794.9817,791.75824,792.1612,661.6117,-0.17303466796875,-0.00946044921875,0.98126220703125,6.781463623046875,-5.2935791015625,6.041259765625,1,1.0,1.0,1.0,1.0,80.00
2021-04-10 22:15:24.745,0.44219154,0.9515421,0.84199214,0.30314317,0.20526686,0.38091213,0.41301063,0.29717082,0.22917645,0.34693816,0.348312,0.3757223,0.09571941,0.22202058,0.25492167,0.44851044,-0.09076356,-0.18183072,-0.22279371,-0.17270727,771.2088,744.61536,789.7436,773.6264,883.6264,-0.1690673828125,0.0294189453125,0.986083984375,5.03936767578125,-4.4561767578125,1.637420654296875,1,1.0,1.0,1.0,1.0,80.00
2021-04-10 22:15:24.927,,,,,,,,,,,,,,,,,,,,,,,,,,,,,,,,,,,,,,/muse/elements/blink
2021-04-10 22:15:25.262,0.44219154,1.1009386,0.8325323,0.30314317,0.20526686,0.5106505,0.3585477,0.29717082,0.22917645,0.30975917,0.348312,0.3757223,0.09571941,0.24370326,0.25175226,0.44851044,-0.09076356,-0.14204115,-0.35234213,-0.17270727,701.50183,786.9231,793.7729,753.8828,852.6007,-0.1676025390625,0.0406494140625,0.99017333984375,13.6077880859375,-2.1533203125,-16.052703857421875,1,1.0,1.0,1.0,1.0,80.00
2021-04-10 22:15:25.446,,,,,,,,,,,,,,,,,,,,,,,,,,,,,,,,,,,,,,/muse/elements/blink
2021-04-10 22:15:25.707,,,,,,,,,,,,,,,,,,,,,,,,,,,,,,,,,,,,,,/muse/elements/blink
2021-04-10 22:15:25.772,0.44219154,1.1009386,0.8748968,0.30314317,0.20526686,0.5106505,0.42160368,0.29717082,0.22917645,0.30975917,0.13196386,0.3757223,0.09571941,0.24370326,0.2810799,0.44851044,-0.09076356,-0.14204115,-0.38200432,-0.17270727,795.38464,799.81683,810.293,806.26373,719.2308,-0.15887451171875,0.1102294921875,0.98919677734375,5.921630859375,-7.648773193359375,3.058013916015625,1,1.0,1.0,1.0,1.0,80.00
2021-04-10 22:15:26.299,0.44219154,1.1009386,0.7463517,0.30314317,0.20526686,0.5106505,0.33616713,0.29717082,0.22917645,0.30975917,0.38872495,0.3757223,0.09571941,0.24370326,0.2777357,0.44851044,-0.09076356,-0.14204115,-0.29440388,-0.17270727,774.83514,780.07324,776.04395,755.09155,717.2161,-0.1448974609375,0.05364990234375,0.99383544921875,-9.069366455078125,-3.4991455078125,20.763092041015625,1,2.0,1.0,1.0,2.0,80.00
2021-04-10 22:15:26.811,0.44219154,1.1009386,0.93105507,0.30314317,0.20526686,0.5106505,0.5837033,0.29717082,0.22917645,0.30975917,0.5354439,0.3757223,0.09571941,0.24370326,0.2617855,0.44851044,-0.09076356,-0.14204115,-0.21531416,-0.17270727,783.2967,777.6557,782.49084,779.67035,718.4249,-0.16754150390625,-0.0037841796875,0.98626708984375,5.525360107421875,-3.87298583984375,0.052337646484375,1,2.0,1.0,1.0,2.0,80.00
2021-04-10 22:15:26.898,,,,,,,,,,,,,,,,,,,,,,,,,,,,,,,,,,,,,,/muse/elements/blink
2021-04-10 22:15:27.324,0.44219154,1.1009386,0.66678154,0.30314317,0.20526686,0.5106505,0.43095762,0.29717082,0.22917645,0.30975917,0.5189609,0.3757223,0.09571941,0.24370326,0.26966748,0.44851044,-0.09076356,-0.14204115,-0.2081513,-0.17270727,789.7436,795.38464,801.8315,805.05493,936.4103,-0.17156982421875,-0.0013427734375,0.9871826171875,4.792633056640625,-1.62994384765625,1.069183349609375,1,2.0,1.0,1.0,2.0,80.00
2021-04-10 22:15:27.836,0.44219154,0.9270776,0.6785083,0.30314317,0.20526686,0.54046804,0.17560478,0.29717082,0.22917645,0.35054985,0.24799947,0.3757223,0.09571941,0.105014265,0.22150582,0.44851044,-0.09076356,-0.2285208,-0.18608618,-0.17270727,782.49084,833.663,769.59705,801.02563,801.02563,-0.23370361328125,0.0023193359375,0.97412109375,5.644989013671875,-0.35888671875,-1.55517578125,1,2.0,1.0,1.0,2.0,80.00
2021-04-10 22:15:28.337,0.44219154,0.9270776,0.9743328,0.30314317,0.20526686,0.54046804,0.13369219,0.29717082,0.22917645,0.35054985,0.5750582,0.3757223,0.09571941,0.105014265,0.34632555,0.44851044,-0.09076356,-0.2285208,-0.04474641,-0.17270727,765.16486,818.7546,774.43225,762.3443,663.22345,-0.20703125,-0.0047607421875,0.9794921875,4.91973876953125,-6.945953369140625,0.216827392578125,1,2.0,1.0,1.0,2.0,80.00
2021-04-10 22:15:28.849,0.44219154,1.179795,0.932887,0.69646835,0.20526686,0.51907027,0.14564748,0.60102963,0.22917645,0.7769202,0.5750582,0.9184278,0.09571941,0.102496855,0.4240871,0.8544401,-0.09076356,-0.3483618,-0.009270051,0.022414416,642.27106,666.4469,639.0476,615.2747,691.8315,-0.19561767578125,0.00408935546875,0.98614501953125,2.190704345703125,-9.532928466796875,2.220611572265625,1,1.0,1.0,1.0,1.0,80.00
2021-04-10 22:15:29.043,,,,,,,,,,,,,,,,,,,,,,,,,,,,,,,,,,,,,,/muse/elements/blink
2021-04-10 22:15:29.356,,,,,,,,,,,,,,,,,,,,,,,,,,,,,,,,,,,,,,/muse/elements/blink
2021-04-10 22:15:29.358,0.44219154,1.273859,0.9960707,0.69646835,0.20526686,0.37460223,0.06500683,0.60102963,0.22917645,0.7558012,0.5728136,0.9184278,0.09571941,0.14782488,0.509536,0.8544401,-0.09076356,-0.39655924,0.054371413,0.022414416,793.7729,786.52014,777.25275,808.2784,740.58606,-0.15191650390625,-0.007080078125,0.9991455078125,6.759033203125,-6.826324462890625,4.732818603515625,1,1.0,1.0,1.0,1.0,80.00
2021-04-10 22:15:29.861,0.44219154,1.273859,0.5882748,0.75146925,0.20526686,0.37460223,0.06274385,0.67457503,0.22917645,0.7558012,0.23715402,0.8970036,0.09571941,0.14782488,0.54017806,0.87110597,-0.09076356,-0.39655924,0.0059534055,-0.016801361,792.1612,790.54944,797.3993,783.69965,610.84247,-0.1583251953125,5.4931640625E-4,0.98907470703125,4.3365478515625,-3.828125,0.7476806640625,1,1.0,1.0,1.0,1.0,80.00
2021-04-10 22:15:30.257,,,,,,,,,,,,,,,,,,,,,,,,,,,,,,,,,,,,,,/muse/elements/blink
2021-04-10 22:15:30.387,0.44219154,1.305851,0.5262271,0.75146925,0.20526686,0.34265396,0.039628785,0.67457503,0.22917645,0.72602355,0.13996576,0.8970036,0.09571941,0.17949963,0.49952653,0.87110597,-0.09076356,-0.4310234,-0.016520381,-0.016801361,841.7216,792.1612,794.57874,821.978,776.4469,-0.15069580078125,-0.00213623046875,0.9866943359375,4.074859619140625,-4.000091552734375,-0.07476806640625,1,1.0,1.0,1.0,1.0,80.00
2021-04-10 22:15:30.914,0.44219154,1.305851,0.8502536,0.75146925,0.20526686,0.34265396,0.8834152,0.67457503,0.22917645,0.72602355,0.5759544,0.8970036,0.09571941,0.17949963,0.36892712,0.87110597,-0.09076356,-0.4310234,-0.09523029,-0.016801361,768.3883,784.10254,790.14655,779.67035,821.1722,-0.17486572265625,-0.00274658203125,0.9837646484375,4.403839111328125,-4.32159423828125,1.4056396484375,1,1.0,1.0,1.0,1.0,70.00
2021-04-10 22:15:31.275,,,,,,,,,,,,,,,,,,,,,,,,,,,,,,,,,,,,,,/muse/elements/blink
2021-04-10 22:15:31.440,0.44219154,1.305851,0.7728798,0.75146925,0.20526686,0.34265396,0.7485796,0.67457503,0.22917645,0.72602355,0.5868399,0.8970036,0.09571941,0.17949963,0.3317696,0.87110597,-0.09076356,-0.4310234,-0.044587914,-0.016801361,743.8095,753.0769,736.9597,750.65936,826.0073,-0.17047119140625,-0.0030517578125,0.98486328125,4.68048095703125,-5.106658935546875,1.158905029296875,1,2.0,1.0,1.0,2.0,70.00
2021-04-10 22:15:31.943,0.44219154,1.5045412,0.7664637,0.75146925,0.20526686,0.94386876,0.7450274,0.67457503,0.22917645,0.608019,0.5900037,0.8970036,0.09571941,0.4642884,0.33437756,0.87110597,-0.09076356,-0.15934128,-0.01120916,-0.016801361,805.05493,818.3516,790.9524,821.978,971.4652,-0.1619873046875,-0.0064697265625,0.98968505859375,5.084228515625,-4.23187255859375,0.777587890625,1,2.0,1.0,1.0,2.0,70.00
2021-04-10 22:15:32.452,0.44219154,1.5045412,0.66756666,0.75146925,0.20526686,0.94386876,0.47515976,0.67457503,0.22917645,0.608019,0.43486723,0.8970036,0.09571941,0.4642884,0.30118045,0.87110597,-0.09076356,-0.15934128,0.04947488,-0.016801361,794.9817,819.15753,794.9817,811.50183,695.8608,-0.16351318359375,-9.765625E-4,0.98834228515625,4.3963623046875,-5.809478759765625,1.435546875,1,2.0,1.0,1.0,2.0,70.00
2021-04-10 22:15:32.691,,,,,,,,,,,,,,,,,,,,,,,,,,,,,,,,,,,,,,/muse/elements/blink
2021-04-10 22:15:32.968,0.44219154,1.3947213,0.44965082,0.75146925,0.20526686,0.92945296,0.38365898,0.67457503,0.22917645,0.608019,0.4075247,0.8970036,0.09571941,0.3627401,0.24350066,0.87110597,-0.09076356,-0.27430826,-0.025052503,-0.016801361,786.9231,784.90845,790.9524,789.7436,767.1795,-0.1602783203125,-0.00103759765625,0.9912109375,4.598236083984375,-4.777679443359375,0.70281982421875,1,2.0,1.0,1.0,2.0,70.00
2021-04-10 22:15:33.483,0.44219154,0.7017665,0.31835338,0.75146925,0.20526686,0.5671216,0.231369,0.67457503,0.22917645,0.2853236,0.19526018,0.8970036,0.09571941,0.032380905,0.12176159,0.87110597,-0.09076356,-0.4220368,-0.086517,-0.016801361,813.91943,826.8132,768.7912,777.6557,654.35895,-0.1602783203125,-0.00469970703125,0.98846435546875,5.136566162109375,-4.41131591796875,1.18133544921875,1,2.0,1.0,1.0,2.0,70.00
2021-04-10 22:15:34.002,0.44219154,0.86058867,0.5887998,0.75146925,0.20526686,0.5322054,0.19483426,0.67457503,0.22917645,0.3208675,0.27166626,0.8970036,0.09571941,0.020925576,0.116874084,0.87110597,-0.09076356,-0.3955101,-0.06548225,-0.016801361,782.8938,788.93774,798.60803,793.36993,762.74725,-0.1533203125,-4.2724609375E-4,0.986572265625,4.613189697265625,-5.682373046875,1.12152099609375,1,2.0,1.0,1.0,2.0,70.00
2021-04-10 22:15:34.512,0.44219154,0.97433347,0.7183764,0.75146925,0.20526686,0.48543757,0.20996274,0.67457503,0.22917645,0.34397703,0.34456766,0.8970036,0.09571941,0.039280217,0.15630384,0.87110597,-0.09076356,-0.3208587,-0.06404157,-0.016801361,803.0403,810.293,790.54944,781.28204,730.9158,-0.153564453125,5.4931640625E-4,0.99237060546875,4.508514404296875,-5.2935791015625,0.83740234375,1,2.0,1.0,1.0,2.0,70.00
2021-04-10 22:15:35.038,0.44219154,0.9830678,0.7509441,0.99950176,0.20526686,0.43386245,0.25848213,0.9103076,0.22917645,0.19996184,0.3380484,0.5566331,0.09571941,0.07608059,0.21925451,0.35215756,-0.09076356,-0.34424284,-0.07746651,0.02432139,796.1905,798.60803,801.02563,779.2674,669.2674,-0.1588134765625,-0.00665283203125,0.98974609375,4.844970703125,-3.289794921875,0.904693603515625,1,1.0,1.0,1.0,1.0,70.00
2021-04-10 22:15:35.565,1.2410806,0.87147754,0.58159333,0.9149873,0.7458145,0.36851227,0.2963995,0.8813264,0.7391469,0.4145469,0.510139,0.6857409,0.6471301,0.10371292,0.3140257,0.5001624,-0.017612047,-0.34952697,-0.14729623,0.16297622,785.7143,805.8608,802.6374,781.685,751.4652,-0.15411376953125,-0.01544189453125,0.982177734375,3.21502685546875,-2.519683837890625,2.474822998046875,1,1.0,1.0,1.0,1.0,70.00
2021-04-10 22:15:36.079,1.1253834,0.60510725,0.37250662,0.820931,0.7407677,0.28239706,0.17275657,0.7501991,1.0990475,0.72172165,0.55730164,1.0036843,0.5912266,0.12942518,0.3814453,0.5538343,-0.057709403,-0.34763747,-0.24560365,0.22618584,801.02563,802.23444,795.38464,788.5348,722.8571,-0.14581298828125,0.005859375,0.9969482421875,7.77587890625,-9.458160400390625,-26.99127197265625,1,1.0,1.0,1.0,1.0,70.00
2021-04-10 22:15:36.591,1.0531635,0.9030071,0.40210685,0.7226689,0.7933356,0.55337304,0.17808525,0.73739535,1.1047162,0.72508335,0.5669803,1.0036843,0.5405994,0.19832529,0.41829237,0.6314824,0.0031338115,-0.30418083,-0.24118446,0.22675341,795.38464,774.43225,793.36993,801.4286,740.58606,-0.0699462890625,-0.026123046875,0.99212646484375,7.439422607421875,-7.843170166015625,-0.25421142578125,1,1.0,1.0,1.0,1.0,70.00
2021-04-10 22:15:36.921,,,,,,,,,,,,,,,,,,,,,,,,,,,,,,,,,,,,,,/muse/elements/blink
2021-04-10 22:15:37.112,0.88412493,1.001756,0.4934939,0.7449962,0.84848374,0.67165625,0.21188337,0.79806185,1.0628154,0.6581262,0.48765415,0.9765429,0.37975752,0.24902417,0.35643652,0.5956144,0.018135047,-0.2974089,-0.2851924,0.18324661,823.5897,761.53845,798.20514,860.65936,861.8681,-0.3621826171875,0.26959228515625,0.9005126953125,26.355743408203125,19.521942138671875,22.44537353515625,1,1.0,1.0,1.0,1.0,70.00
2021-04-10 22:15:37.620,0.8805954,1.2241092,0.9393687,0.6732872,0.9131893,0.82576096,0.5387864,0.8198109,0.7454564,0.24409539,0.2500936,0.59941494,0.29343256,0.3506331,0.2570805,0.5879539,0.09776921,-0.3313013,-0.26685235,0.1252875,737.76556,746.2271,757.50916,734.5421,700.293,-0.40362548828125,0.26080322265625,0.8897705078125,-7.977752685546875,-12.194671630859375,-0.127105712890625,1,1.0,1.0,1.0,1.0,70.00
2021-04-10 22:15:37.876,,,,,,,,,,,,,,,,,,,,,,,,,,,,,,,,,,,,,,/muse/elements/blink
2021-04-10 22:15:38.121,0.9363526,1.2564473,1.0641646,0.73598766,0.9000439,0.8607007,0.63594216,0.7494196,0.6461455,0.1948646,0.0051505966,0.41730255,0.21533498,0.379177,0.17798887,0.5175291,0.06979762,-0.33536568,-0.34174606,0.11142366,794.9817,787.72894,812.3077,790.9524,659.59705,-0.25262451171875,0.16644287109375,0.94964599609375,-2.94586181640625,-6.018829345703125,5.39825439453125,1,1.0,1.0,1.0,1.0,70.00
2021-04-10 22:15:38.640,0.9363526,1.2564473,1.2803749,0.73598766,0.9000439,0.8607007,0.82466465,0.7494196,0.6461455,0.1948646,-0.27819708,0.41730255,0.21533498,0.379177,0.12116726,0.5175291,0.06979762,-0.33536568,-0.29673854,0.11142366,795.78754,819.5604,798.60803,793.36993,859.85345,-0.246826171875,0.10345458984375,0.96502685546875,2.67669677734375,-5.719757080078125,-0.538330078125,1,1.0,1.0,1.0,1.0,70.00
2021-04-10 22:15:39.147,0.9363526,1.2564473,1.3125958,0.73598766,0.9000439,0.8607007,0.82760674,0.7494196,0.6461455,0.1948646,-0.2831573,0.41730255,0.21533498,0.379177,0.09500584,0.5175291,0.06979762,-0.33536568,-0.26895875,0.11142366,734.1392,831.6484,745.82416,757.9121,857.8388,-0.29803466796875,0.10296630859375,0.93121337890625,12.209625244140625,12.852630615234375,9.55535888671875,1,1.0,1.0,1.0,1.0,70.00
2021-04-10 22:15:39.673,1.081644,1.2564473,1.3125958,0.73598766,0.46998197,0.8607007,0.82760674,0.7494196,0.46840516,0.1948646,-0.2831573,0.41730255,0.49284193,0.379177,0.09500584,0.5175291,0.035697855,-0.33536568,-0.26895875,0.11142366,733.73627,773.6264,753.8828,751.8681,732.1245,-0.59637451171875,0.26556396484375,0.815673828125,27.70904541015625,15.589141845703125,12.030181884765625,1,1.0,1.0,1.0,1.0,70.00
2021-04-10 22:15:40.175,1.4447457,1.2564473,1.3125958,0.73598766,0.9196718,0.8607007,0.82760674,0.7494196,1.3016216,0.1948646,-0.2831573,0.41730255,0.66695964,0.379177,0.09500584,0.5175291,0.08829858,-0.33536568,-0.26895875,0.11142366,759.5238,813.91943,794.17584,783.2967,829.2308,-0.4991455078125,0.2738037109375,0.79168701171875,3.289794921875,-11.656341552734375,5.794525146484375,1,1.0,1.0,1.0,1.0,70.00
2021-04-10 22:15:40.690,1.5677086,1.2564473,1.3125958,0.73598766,1.0376673,0.8607007,0.82760674,0.7494196,1.3016216,0.1948646,-0.2831573,0.41730255,0.7413561,0.379177,0.09500584,0.5175291,0.099973775,-0.33536568,-0.26895875,0.11142366,793.7729,806.26373,807.0696,798.20514,637.8388,-0.387451171875,0.25689697265625,0.89013671875,-2.429962158203125,-20.464019775390625,-17.21160888671875,1,1.0,1.0,1.0,1.0,70.00
2021-04-10 22:15:41.217,1.5677086,1.2564473,1.3125958,0.73598766,1.0376673,0.8607007,0.82760674,0.7494196,1.3016216,0.1948646,-0.2831573,0.41730255,0.7413561,0.379177,0.09500584,0.5175291,0.099973775,-0.33536568,-0.26895875,0.11142366,810.696,714.7985,789.34064,823.1868,713.9927,-0.21685791015625,0.12823486328125,0.97064208984375,16.157379150390625,-26.33331298828125,-65.07064819335938,1,1.0,1.0,1.0,1.0,75.00
2021-04-10 22:15:41.316,,,,,,,,,,,,,,,,,,,,,,,,,,,,,,,,,,,,,,/muse/elements/blink
2021-04-10 22:15:41.743,1.5677086,1.2564473,1.3751961,0.73598766,1.0376673,0.8607007,0.84142834,0.7494196,1.3016216,0.1948646,0.70301,0.41730255,0.7413561,0.379177,0.2181359,0.5175291,0.099973775,-0.33536568,-0.07028242,0.11142366,787.72894,790.9524,798.20514,792.96704,593.1135,-0.19976806640625,0.1103515625,0.98095703125,3.970184326171875,-1.31591796875,-14.377899169921875,1,1.0,1.0,1.0,1.0,75.00
2021-04-10 22:15:42.269,1.5677086,1.2564473,1.2924668,1.0038482,1.0376673,0.8607007,0.64586663,1.1775762,1.3016216,0.1948646,0.83549803,1.3014199,0.7413561,0.379177,0.2554585,0.7425848,0.099973775,-0.33536568,-0.19150864,-0.0446401,790.54944,798.20514,808.68134,786.52014,776.8498,-0.17620849609375,0.10089111328125,0.94708251953125,-4.6954345703125,-13.061981201171875,-4.486083984375,1,1.0,1.0,1.0,1.0,75.00
2021-04-10 22:15:42.794,0.6753013,1.2564473,1.169991,0.8745907,0.82454437,0.8607007,0.4730547,0.9584916,1.0536313,0.1948646,0.8425806,1.3014199,0.66434443,0.379177,0.23341554,0.7021827,0.05779825,-0.33536568,-0.29304245,0.072650574,811.9048,783.2967,818.3516,798.60803,966.2271,-0.2264404296875,0.10162353515625,0.98162841796875,-0.755157470703125,-6.35528564453125,-7.977752685546875,1,1.0,1.0,1.0,1.0,75.00
2021-04-10 22:15:43.320,0.7445786,1.2564473,0.99392396,0.93549305,0.79402524,0.8607007,0.112856664,0.9025092,1.1073698,0.1948646,0.7611309,1.3014199,0.6501837,0.379177,0.2443415,0.6624905,0.060971238,-0.33536568,-0.4501741,0.1828311,782.0879,810.293,804.65204,800.6227,748.24176,-0.154541015625,0.05975341796875,0.97772216796875,3.671112060546875,-8.7030029296875,-11.903076171875,1,1.0,1.0,1.0,1.0,75.00
2021-04-10 22:15:43.823,0.6372116,1.2564473,0.85519797,0.8643054,0.81919193,0.8607007,0.16090138,0.7216637,1.0438051,0.1948646,0.36906734,0.7305867,0.58775723,0.379177,0.18300056,0.56828934,0.10241807,-0.33536568,-0.32484582,0.2501693,822.381,791.3553,801.8315,830.0366,811.50183,-0.1019287109375,0.0692138671875,0.9931640625,4.6954345703125,-6.77398681640625,-8.082427978515625,1,1.0,1.0,1.0,1.0,75.00
2021-04-10 22:15:44.332,0.5923376,1.2564473,0.9643674,0.8575407,0.7924905,0.8607007,0.27548897,0.7834358,1.0210747,0.1948646,0.22268558,0.6568543,0.5938865,0.379177,0.18743442,0.45594752,0.15281995,-0.33536568,-0.26231682,0.26880944,772.01465,675.31134,785.7143,787.72894,869.5238,0.0615234375,0.01849365234375,1.004150390625,4.1571044921875,-12.32177734375,-0.246734619140625,1,1.0,1.0,1.0,1.0,75.00
2021-04-10 22:15:44.866,0.71483785,1.2564473,0.9821991,0.7863209,0.7841368,0.8607007,0.22573122,0.7652889,0.99254864,0.1948646,0.293284,0.6186695,0.5988417,0.379177,0.22779106,0.43317932,0.30073616,-0.33536568,-0.26069742,0.17392932,755.89746,865.4945,779.2674,767.98535,607.619,0.09393310546875,0.050048828125,1.0130615234375,2.115936279296875,-6.65435791015625,18.011627197265625,1,1.0,1.0,1.0,1.0,75.00
2021-04-10 22:15:45.277,,,,,,,,,,,,,,,,,,,,,,,,,,,,,,,,,,,,,,/muse/elements/blink
