TimeStamp,Delta_TP9,Delta_AF7,Delta_AF8,Delta_TP10,Theta_TP9,Theta_AF7,Theta_AF8,Theta_TP10,Alpha_TP9,Alpha_AF7,Alpha_AF8,Alpha_TP10,Beta_TP9,Beta_AF7,Beta_AF8,Beta_TP10,Gamma_TP9,Gamma_AF7,Gamma_AF8,Gamma_TP10,RAW_TP9,RAW_AF7,RAW_AF8,RAW_TP10,AUX_RIGHT,Accelerometer_X,Accelerometer_Y,Accelerometer_Z,Gyro_X,Gyro_Y,Gyro_Z,HeadBandOn,HSI_TP9,HSI_AF7,HSI_AF8,HSI_TP10,Battery,Elements
2021-04-09 22:17:08.040,0.36081988,0.0,0.0,0.3901003,0.8856252,0.0,0.0,0.46174687,0.8536254,0.0,0.0,0.8918364,1.3331729,0.0,0.0,1.4928246,0.9657416,0.0,0.0,0.99592656,732.1245,740.58606,723.663,733.3333,662.01465,-0.02972412109375,0.011474609375,1.0,4.732818603515625,-5.084228515625,0.949554443359375,1,2.0,1.0,1.0,2.0,45.00
2021-04-09 22:17:08.552,0.36081988,0.0,0.0,0.3901003,0.8856252,0.0,0.0,0.46174687,0.8536254,0.0,0.0,0.8918364,1.3331729,0.0,0.0,1.4928246,0.9657416,0.0,0.0,0.99592656,846.1539,805.4579,796.5934,857.03296,691.02563,-0.0216064453125,0.01422119140625,1.00701904296875,5.375823974609375,-7.73101806640625,4.32159423828125,1,2.0,1.0,1.0,2.0,45.00
2021-04-09 22:17:09.062,0.36081988,0.0,0.0,0.3901003,0.8856252,0.0,0.0,0.46174687,0.8536254,0.0,0.0,0.8918364,1.3331729,0.0,0.0,1.4928246,0.9657416,0.0,0.0,0.99592656,760.32965,714.3956,732.9304,752.27106,780.07324,0.01690673828125,0.00579833984375,0.9898681640625,6.6094970703125,-9.271240234375,21.93695068359375,1,2.0,1.0,1.0,2.0,45.00
2021-04-09 22:17:09.572,0.36081988,0.0,0.0,0.3901003,0.8856252,0.0,0.0,0.46174687,0.8536254,0.0,0.0,0.8918364,1.3331729,0.0,0.0,1.4928246,0.9657416,0.0,0.0,0.99592656,732.52747,703.1135,741.39197,737.3626,841.31866,-0.0340576171875,-0.0318603515625,0.98992919921875,6.063690185546875,-3.75335693359375,31.783905029296875,1,2.0,1.0,1.0,2.0,45.00
2021-04-09 22:17:09.704,,,,,,,,,,,,,,,,,,,,,,,,,,,,,,,,,,,,,,/muse/elements/blink
2021-04-09 22:17:10.084,0.36081988,0.0,0.0,0.3901003,0.8856252,0.0,0.0,0.46174687,0.8536254,0.0,0.0,0.8918364,1.3331729,0.0,0.0,1.4928246,0.9657416,0.0,0.0,0.99592656,844.5421,799.011,817.5458,840.10986,792.5641,0.06781005859375,0.01849365234375,0.96807861328125,3.93280029296875,-12.740478515625,-11.761016845703125,1,2.0,1.0,1.0,2.0,45.00
2021-04-09 22:17:10.587,0.36081988,0.0,0.0,0.3901003,0.8856252,0.0,0.0,0.46174687,0.8536254,0.0,0.0,0.8918364,1.3331729,0.0,0.0,1.4928246,0.9657416,0.0,0.0,0.99592656,807.47253,789.34064,867.1062,810.696,621.31866,0.2593994140625,0.0687255859375,0.98895263671875,7.484283447265625,-17.503204345703125,1.57012939453125,1,2.0,1.0,1.0,2.0,45.00
2021-04-09 22:17:11.090,0.36081988,0.0,0.0,0.3901003,0.8856252,0.0,0.0,0.46174687,0.8536254,0.0,0.0,0.8918364,1.3331729,0.0,0.0,1.4928246,0.9657416,0.0,0.0,0.99592656,793.36993,736.9597,779.2674,791.75824,900.9524,0.2952880859375,0.05767822265625,0.96453857421875,7.843170166015625,-6.063690185546875,-0.097198486328125,1,2.0,1.0,1.0,2.0,45.00
2021-04-09 22:17:11.602,0.36081988,0.0,0.0,0.3901003,0.8856252,0.0,0.0,0.46174687,0.8536254,0.0,0.0,0.8918364,1.3331729,0.0,0.0,1.4928246,0.9657416,0.0,0.0,0.99592656,802.23444,766.77655,799.41394,805.4579,722.4542,0.28839111328125,0.05999755859375,0.96356201171875,5.203857421875,-6.38519287109375,1.188812255859375,1,2.0,1.0,1.0,2.0,45.00
2021-04-09 22:17:11.949,,,,,,,,,,,,,,,,,,,,,,,,,,,,,,,,,,,,,,/muse/elements/blink
2021-04-09 22:17:12.108,0.36081988,0.0,0.0,0.3901003,0.8856252,0.0,0.0,0.46174687,0.8536254,0.0,0.0,0.8918364,1.3331729,0.0,0.0,1.4928246,0.9657416,0.0,0.0,0.99592656,823.1868,776.4469,782.0879,831.2454,677.72894,0.27191162109375,0.05584716796875,0.967529296875,1.495361328125,-4.78515625,0.844879150390625,1,2.0,1.0,1.0,2.0,45.00
2021-04-09 22:17:12.621,0.42611355,0.0,0.0,0.3901003,0.86337465,0.0,0.0,0.46174687,0.7813961,0.0,0.0,0.8918364,1.3499029,0.0,0.0,1.4928246,0.9979169,0.0,0.0,0.99592656,838.9011,794.17584,821.1722,851.39197,971.8681,0.27069091796875,0.031982421875,0.96759033203125,2.811279296875,-4.284210205078125,2.093505859375,1,1.0,1.0,1.0,1.0,45.00
2021-04-09 22:17:13.129,0.42611355,0.0,0.0,0.3901003,0.86337465,0.0,0.0,0.46174687,0.7813961,0.0,0.0,0.8918364,1.3499029,0.0,0.0,1.4928246,0.9979169,0.0,0.0,0.99592656,772.8205,721.2454,732.1245,751.4652,1044.7986,0.24237060546875,-0.02020263671875,0.9669189453125,0.6878662109375,-3.745880126953125,3.3197021484375,1,1.0,1.0,1.0,1.0,45.00
2021-04-09 22:17:13.640,0.45516366,0.0,0.0,0.90295583,0.82899266,0.0,0.0,0.7710679,0.7813961,0.0,0.0,0.9849354,1.3705704,0.0,0.0,1.4969683,0.97832173,0.0,0.0,0.84242934,770.80585,748.6447,777.25275,770.40295,662.01465,0.23870849609375,-0.0428466796875,0.9677734375,2.011260986328125,-4.792633056640625,4.523468017578125,1,1.0,1.0,1.0,1.0,45.00
2021-04-09 22:17:14.153,0.39968434,0.0,0.0,0.90295583,0.46572334,0.0,0.0,0.7710679,0.83689183,0.0,0.0,0.9849354,1.4605182,0.0,0.0,1.4969683,0.8827405,0.0,0.0,0.84242934,806.6667,766.77655,786.1172,754.68866,730.10986,0.26214599609375,-0.05999755859375,0.96221923828125,4.897308349609375,-4.747772216796875,-0.186920166015625,1,1.0,1.0,1.0,1.0,45.00
2021-04-09 22:17:14.499,,,,,,,,,,,,,,,,,,,,,,,,,,,,,,,,,,,,,,/muse/elements/blink
2021-04-09 22:17:14.660,0.5301605,0.0,0.0,0.8443642,0.5459542,0.0,0.0,0.6430655,0.890744,0.0,0.0,0.91846853,1.4086996,0.0,0.0,1.5159135,0.84139204,0.0,0.0,0.8450228,772.8205,717.619,734.94507,713.1868,819.9634,0.25067138671875,-0.07257080078125,0.9716796875,3.768310546875,-4.329071044921875,3.476715087890625,1,1.0,1.0,1.0,1.0,45.00
2021-04-09 22:17:15.169,0.5855758,0.0,0.0,0.8443642,0.75250334,0.0,0.0,0.6430655,0.98202926,0.0,0.0,0.91846853,1.3500924,0.0,0.0,1.5159135,0.9096843,0.0,0.0,0.8450228,789.7436,732.1245,743.8095,703.91943,754.68866,0.2540283203125,-0.04559326171875,0.97747802734375,8.314208984375,0.097198486328125,-3.1103515625,1,1.0,1.0,1.0,1.0,45.00
2021-04-09 22:17:15.681,0.6854918,0.0,0.0,0.8443642,0.87477076,0.0,0.0,0.6430655,0.95512706,0.0,0.0,0.91846853,1.2635614,0.0,0.0,1.5159135,0.9236728,0.0,0.0,0.8450228,796.1905,775.2381,781.685,782.8938,639.85345,0.1329345703125,0.01678466796875,0.980224609375,7.82073974609375,3.072967529296875,15.4022216796875,1,1.0,1.0,1.0,1.0,45.00
2021-04-09 22:17:16.187,0.6689596,0.0,0.0,0.8443642,0.962431,0.0,0.0,0.6430655,0.9150885,0.0,0.0,0.91846853,1.2522668,0.0,0.0,1.5159135,1.0038421,0.0,0.0,0.8450228,775.2381,761.53845,765.9707,770.40295,662.4176,0.05072021484375,-0.031494140625,0.99639892578125,7.125396728515625,-0.590667724609375,4.9346923828125,1,1.0,1.0,1.0,1.0,45.00
2021-04-09 22:17:16.701,0.662212,0.0,0.0,0.8443642,0.9835578,0.0,0.0,0.6430655,0.9036118,0.0,0.0,0.91846853,1.2547531,0.0,0.0,1.5159135,1.0618664,0.0,0.0,0.8450228,828.022,785.7143,797.3993,827.2161,876.77655,0.0294189453125,0.00579833984375,0.99114990234375,9.129180908203125,-5.226287841796875,6.542205810546875,1,1.0,1.0,1.0,1.0,45.00
2021-04-09 22:17:17.207,0.11606223,0.0,0.0,0.8443642,0.43867186,0.0,0.0,0.6430655,0.9963888,0.0,0.0,0.91846853,1.31182,0.0,0.0,1.5159135,0.8875242,0.0,0.0,0.8450228,790.9524,752.27106,764.35895,787.72894,873.1502,0.0203857421875,0.01092529296875,0.99798583984375,4.104766845703125,-6.62445068359375,0.28411865234375,1,1.0,1.0,1.0,1.0,45.00
2021-04-09 22:17:17.730,0.061470937,0.0,0.0,0.8443642,0.37670767,0.0,0.0,0.6430655,1.002735,0.0,0.0,0.91846853,1.2985262,0.0,0.0,1.5159135,0.87543595,0.0,0.0,0.8450228,762.74725,749.85345,763.5531,775.2381,701.0989,0.08258056640625,0.04766845703125,0.99273681640625,4.224395751953125,-6.77398681640625,-12.919921875,1,1.0,1.0,1.0,1.0,45.00
2021-04-09 22:17:18.147,,,,,,,,,,,,,,,,,,,,,,,,,,,,,,,,,,,,,,/muse/elements/blink
2021-04-09 22:17:18.237,0.07834978,0.0,0.0,0.8443642,0.18865266,0.0,0.0,0.6430655,0.987748,0.0,0.0,0.91846853,1.3300421,0.0,0.0,1.5159135,0.8101172,0.0,0.0,0.8450228,828.022,798.20514,796.1905,819.15753,761.53845,9.765625E-4,5.4931640625E-4,0.9713134765625,-7.588958740234375,4.613189697265625,4.299163818359375,1,1.0,1.0,1.0,1.0,45.00
2021-04-09 22:17:18.380,,,,,,,,,,,,,,,,,,,,,,,,,,,,,,,,,,,,,,/muse/elements/blink
2021-04-09 22:17:18.738,-0.11979729,0.0,0.0,0.8443642,-0.043012887,0.0,0.0,0.6430655,0.57941073,0.0,0.0,0.91846853,1.3016428,0.0,0.0,1.5159135,0.82163984,0.0,0.0,0.8450228,747.03296,774.83514,733.3333,749.85345,845.34796,0.11627197265625,0.06964111328125,1.01953125,10.39276123046875,-4.583282470703125,21.720123291015625,1,1.0,1.0,1.0,1.0,45.00
2021-04-09 22:17:19.251,-0.11979729,0.0,0.0,0.8443642,-0.043012887,0.0,0.0,0.6430655,0.57941073,0.0,0.0,0.91846853,1.3016428,0.0,0.0,1.5159135,0.82163984,0.0,0.0,0.8450228,766.77655,765.9707,751.06226,774.43225,699.4872,0.06854248046875,0.08447265625,0.96685791015625,5.48797607421875,3.2598876953125,34.61761474609375,1,1.0,1.0,1.0,1.0,45.00
2021-04-09 22:17:19.757,-0.11979729,0.0,0.0,0.8443642,-0.043012887,0.0,0.0,0.6430655,0.57941073,0.0,0.0,0.91846853,1.3016428,0.0,0.0,1.5159135,0.82163984,0.0,0.0,0.8450228,813.5165,790.14655,784.5055,802.23444,726.8865,0.09564208984375,0.05767822265625,0.9931640625,5.21881103515625,-5.764617919921875,15.574188232421875,1,1.0,1.0,1.0,1.0,45.00
2021-04-09 22:17:19.874,,,,,,,,,,,,,,,,,,,,,,,,,,,,,,,,,,,,,,/muse/elements/blink
2021-04-09 22:17:20.268,-0.11979729,0.0,0.0,0.8443642,-0.043012887,0.0,0.0,0.6430655,0.57941073,0.0,0.0,0.91846853,1.3016428,0.0,0.0,1.5159135,0.82163984,0.0,0.0,0.8450228,780.4762,742.1978,768.3883,796.5934,859.85345,0.0726318359375,0.11102294921875,1.0103759765625,8.6431884765625,-0.97198486328125,8.5833740234375,1,2.0,1.0,1.0,2.0,45.00
2021-04-09 22:17:20.782,-0.11979729,0.0,0.0,0.8443642,-0.043012887,0.0,0.0,0.6430655,0.57941073,0.0,0.0,0.91846853,1.3016428,0.0,0.0,1.5159135,0.82163984,0.0,0.0,0.8450228,734.94507,773.6264,697.47253,703.91943,567.326,-0.00970458984375,0.09832763671875,1.008056640625,5.4730224609375,-13.196563720703125,-6.736602783203125,1,2.0,1.0,1.0,2.0,45.00
2021-04-09 22:17:20.916,,,,,,,,,,,,,,,,,,,,,,,,,,,,,,,,,,,,,,/muse/elements/blink
2021-04-09 22:17:21.289,-0.11979729,0.0,0.0,0.8443642,-0.043012887,0.0,0.0,0.6430655,0.57941073,0.0,0.0,0.91846853,1.3016428,0.0,0.0,1.5159135,0.82163984,0.0,0.0,0.8450228,808.68134,783.2967,798.20514,790.9524,820.7692,-0.00250244140625,0.07806396484375,0.99627685546875,4.94964599609375,2.011260986328125,-11.6937255859375,1,2.0,1.0,1.0,2.0,45.00
2021-04-09 22:17:21.793,-0.11979729,0.0,0.0,0.8443642,-0.043012887,0.0,0.0,0.6430655,0.57941073,0.0,0.0,0.91846853,1.3016428,0.0,0.0,1.5159135,0.82163984,0.0,0.0,0.8450228,759.5238,745.82416,765.56775,755.89746,599.9634,-0.0972900390625,0.0499267578125,0.98846435546875,2.6617431640625,-1.375732421875,0.800018310546875,1,2.0,1.0,1.0,2.0,45.00
2021-04-09 22:17:22.311,-0.11979729,0.0,0.0,0.8443642,-0.043012887,0.0,0.0,0.6430655,0.57941073,0.0,0.0,0.91846853,1.3016428,0.0,0.0,1.5159135,0.82163984,0.0,0.0,0.8450228,757.9121,773.22345,770.0,772.8205,804.65204,-0.15740966796875,0.2431640625,0.97442626953125,27.895965576171875,6.220703125,14.9237060546875,1,2.0,1.0,1.0,2.0,45.00
2021-04-09 22:17:22.839,0.65256965,0.0,0.0,0.8443642,0.28383023,0.0,0.0,0.6430655,0.41357398,0.0,0.0,0.91846853,1.3136528,0.0,0.0,1.5159135,0.9767292,0.0,0.0,0.8450228,774.0293,770.80585,771.2088,778.46155,811.50183,-0.10772705078125,0.05804443359375,0.9765625,4.029998779296875,-4.8150634765625,-8.32916259765625,1,1.0,1.0,1.0,1.0,45.00
2021-04-09 22:17:23.122,,,,,,,,,,,,,,,,,,,,,,,,,,,,,,,,,,,,,,/muse/elements/blink
2021-04-09 22:17:23.345,0.65256965,0.0,0.0,0.8443642,0.28383023,0.0,0.0,0.6430655,0.41357398,0.0,0.0,0.91846853,1.3136528,0.0,0.0,1.5159135,0.9767292,0.0,0.0,0.8450228,630.58606,726.4835,788.93774,641.06226,807.0696,-0.0972900390625,0.1329345703125,1.00689697265625,4.538421630859375,2.145843505859375,26.923980712890625,1,1.0,1.0,1.0,1.0,45.00
2021-04-09 22:17:23.529,,,,,,,,,,,,,,,,,,,,,,,,,,,,,,,,,,,,,,/muse/elements/blink
2021-04-09 22:17:23.850,0.68561727,0.0,0.0,0.8443642,0.3900055,0.0,0.0,0.6430655,0.41229403,0.0,0.0,0.91846853,1.327022,0.0,0.0,1.5159135,1.0375594,0.0,0.0,0.8450228,798.20514,774.0293,799.81683,793.7729,758.71796,-0.2423095703125,0.0595703125,0.974609375,1.79443359375,4.463653564453125,11.783447265625,1,1.0,1.0,1.0,1.0,45.00
2021-04-09 22:17:24.361,0.68561727,0.0,0.0,0.8443642,0.3900055,0.0,0.0,0.6430655,0.41229403,0.0,0.0,0.91846853,1.327022,0.0,0.0,1.5159135,1.0375594,0.0,0.0,0.8450228,781.28204,771.6117,828.4249,792.1612,878.7912,-0.2122802734375,0.04498291015625,0.981689453125,1.854248046875,-4.762725830078125,2.983245849609375,1,1.0,1.0,1.0,1.0,45.00
2021-04-09 22:17:24.642,,,,,,,,,,,,,,,,,,,,,,,,,,,,,,,,,,,,,,/muse/elements/blink
2021-04-09 22:17:24.870,0.68561727,0.0,0.0,0.8443642,0.3900055,0.0,0.0,0.6430655,0.41229403,0.0,0.0,0.91846853,1.327022,0.0,0.0,1.5159135,1.0375594,0.0,0.0,0.8450228,761.53845,822.381,736.9597,765.56775,668.0586,-0.2037353515625,0.08233642578125,0.9749755859375,6.3702392578125,-9.443206787109375,0.418701171875,1,1.0,1.0,1.0,1.0,45.00
2021-04-09 22:17:25.382,0.68561727,0.0,0.0,0.8443642,0.3900055,0.0,0.0,0.6430655,0.41229403,0.0,0.0,0.91846853,1.327022,0.0,0.0,1.5159135,1.0375594,0.0,0.0,0.8450228,826.4103,795.38464,791.75824,814.7253,785.7143,-0.2113037109375,0.08416748046875,0.98370361328125,4.366455078125,-4.44122314453125,-3.409423828125,1,2.0,1.0,1.0,2.0,45.00
2021-04-09 22:17:25.699,,,,,,,,,,,,,,,,,,,,,,,,,,,,,,,,,,,,,,/muse/elements/blink
2021-04-09 22:17:25.891,0.68561727,0.0,0.0,0.8443642,0.3900055,0.0,0.0,0.6430655,0.41229403,0.0,0.0,0.91846853,1.327022,0.0,0.0,1.5159135,1.0375594,0.0,0.0,0.8450228,807.0696,780.87915,777.6557,819.5604,929.15753,-0.217529296875,0.0616455078125,0.97296142578125,3.386993408203125,-3.117828369140625,-0.874786376953125,1,2.0,1.0,1.0,2.0,45.00
2021-04-09 22:17:26.400,0.68561727,0.0,0.0,0.8443642,0.3900055,0.0,0.0,0.6430655,0.41229403,0.0,0.0,0.91846853,1.327022,0.0,0.0,1.5159135,1.0375594,0.0,0.0,0.8450228,767.5824,746.63007,755.89746,769.59705,653.95605,-0.251708984375,0.05755615234375,0.96148681640625,5.151519775390625,-4.38140869140625,-0.411224365234375,1,2.0,1.0,1.0,2.0,45.00
2021-04-09 22:17:26.911,0.68561727,0.0,0.0,0.8443642,0.3900055,0.0,0.0,0.6430655,0.41229403,0.0,0.0,0.91846853,1.327022,0.0,0.0,1.5159135,1.0375594,0.0,0.0,0.8450228,794.9817,764.7619,792.1612,793.36993,876.77655,-0.24908447265625,0.0498046875,0.97039794921875,5.525360107421875,-4.987030029296875,-0.037384033203125,1,2.0,1.0,1.0,2.0,45.00
2021-04-09 22:17:27.421,0.68561727,0.0,0.0,0.30133906,0.3900055,0.0,0.0,0.784411,0.41229403,0.0,0.0,0.66426635,1.327022,0.0,0.0,1.2689674,1.0375594,0.0,0.0,1.0892301,808.2784,774.83514,790.14655,805.05493,814.7253,-0.245849609375,0.05499267578125,0.97015380859375,4.5458984375,-5.316009521484375,2.03369140625,1,1.0,1.0,1.0,1.0,45.00
2021-04-09 22:17:27.931,0.6529002,0.0,0.0,0.4347537,0.46732762,0.0,0.0,0.7406861,0.6454481,0.0,0.0,0.8757961,1.2265661,0.0,0.0,1.2101315,0.80882734,0.0,0.0,1.0256904,784.10254,761.9414,780.87915,791.75824,832.0513,-0.2528076171875,0.059814453125,0.966552734375,4.792633056640625,-6.273040771484375,0.2392578125,1,1.0,1.0,1.0,1.0,45.00
2021-04-09 22:17:28.439,0.6745603,0.0,0.0,0.47102162,0.6509836,0.0,0.0,0.74154747,0.82981795,0.0,0.0,0.9164931,1.2379069,0.0,0.0,1.222039,0.87953305,0.0,0.0,1.0026313,801.02563,778.86444,779.2674,816.7399,893.2967,-0.23175048828125,0.0579833984375,0.9649658203125,5.061798095703125,-4.68048095703125,-0.7476806640625,1,1.0,1.0,1.0,1.0,45.00
2021-04-09 22:17:28.949,0.5808584,0.0,0.0,0.44763905,0.8714688,0.0,0.0,0.78019536,0.8089738,0.0,0.0,0.8319706,1.1969233,0.0,0.0,1.1915634,0.86371195,0.0,0.0,0.9172378,752.27106,734.5421,740.58606,748.24176,803.8461,-0.24871826171875,0.055908203125,0.965576171875,5.121612548828125,-5.061798095703125,0.500946044921875,1,1.0,1.0,1.0,1.0,45.00
2021-04-09 22:17:29.460,0.50128216,0.0,0.0,0.3408832,0.8579764,0.0,0.0,0.7847539,0.8003426,0.0,0.0,0.80947095,1.2694998,0.0,0.0,1.2546766,0.8003557,0.0,0.0,0.8136056,776.8498,751.8681,783.69965,765.9707,551.6117,-0.2435302734375,0.05767822265625,0.9727783203125,4.6954345703125,-6.05621337890625,0.695343017578125,1,1.0,1.0,1.0,1.0,45.00
2021-04-09 22:17:29.841,,,,,,,,,,,,,,,,,,,,,,,,,,,,,,,,,,,,,,/muse/elements/blink
2021-04-09 22:17:29.974,0.3621233,0.0,0.0,0.21998355,0.900913,0.0,0.0,0.8089293,0.6771073,0.0,0.0,0.607069,1.280433,0.0,0.0,1.2611312,0.7183277,0.0,0.0,0.7166742,812.71063,766.3736,795.78754,819.15753,872.3443,-0.248046875,0.048095703125,0.9638671875,4.104766845703125,-4.91973876953125,0.22430419921875,1,1.0,1.0,1.0,1.0,45.00
2021-04-09 22:17:30.478,0.48735318,0.0,0.0,0.24606742,0.7023903,0.0,0.0,0.73656017,0.2079908,0.0,0.0,0.45872298,1.3824574,0.0,0.0,1.317907,0.6133731,0.0,0.0,0.5802016,755.4945,722.8571,761.53845,763.1502,890.87915,-0.26031494140625,0.0406494140625,0.9710693359375,4.074859619140625,-4.2767333984375,0.127105712890625,1,1.0,1.0,1.0,1.0,45.00
2021-04-09 22:17:30.988,0.52586514,0.0,0.0,0.33705884,0.6775617,0.0,0.0,0.77238625,0.14859712,0.0,0.0,0.45872298,1.3990072,0.0,0.0,1.3209432,0.57986045,0.0,0.0,0.5463656,803.0403,761.13556,780.07324,792.1612,691.8315,-0.2598876953125,0.04534912109375,0.96795654296875,5.09918212890625,-4.134674072265625,2.99072265625,1,1.0,1.0,1.0,1.0,45.00
2021-04-09 22:17:31.499,0.52586514,0.0,0.0,0.33705884,0.6775617,0.0,0.0,0.77238625,0.14859712,0.0,0.0,0.45872298,1.3990072,0.0,0.0,1.3209432,0.57986045,0.0,0.0,0.5463656,796.99634,755.4945,781.28204,791.3553,601.978,-0.2755126953125,0.050537109375,0.96319580078125,4.433746337890625,-3.865509033203125,4.732818603515625,1,1.0,1.0,1.0,1.0,45.00
2021-04-09 22:17:32.006,0.52586514,0.0,0.0,0.33705884,0.6775617,0.0,0.0,0.77238625,0.14859712,0.0,0.0,0.45872298,1.3990072,0.0,0.0,1.3209432,0.57986045,0.0,0.0,0.5463656,759.92676,734.94507,751.06226,765.56775,804.2491,-0.246826171875,0.073486328125,0.97064208984375,4.957122802734375,-6.003875732421875,6.841278076171875,1,1.0,1.0,1.0,1.0,45.00
2021-04-09 22:17:32.530,0.32902774,0.0,0.0,0.51981586,0.38793087,0.0,0.0,0.73093027,1.0278295,0.0,0.0,1.0776807,1.3453716,0.0,0.0,1.2905647,0.9272083,0.0,0.0,0.8810572,854.21246,821.1722,821.5751,835.6777,807.47253,-0.22210693359375,0.08734130859375,0.97857666015625,5.66741943359375,-5.405731201171875,1.5252685546875,1,1.0,1.0,1.0,1.0,45.00
2021-04-09 22:17:33.041,0.36694816,0.0,0.0,0.3980155,0.29707322,0.0,0.0,0.5355586,1.0326744,0.0,0.0,1.1110473,1.2778691,0.0,0.0,1.2166327,0.99055487,0.0,0.0,0.9704038,817.5458,782.49084,798.60803,807.0696,829.2308,-0.23333740234375,0.11004638671875,0.9647216796875,9.76470947265625,-5.8319091796875,2.13836669921875,1,1.0,1.0,1.0,1.0,45.00
2021-04-09 22:17:33.552,0.50600463,0.0,0.0,0.3980155,0.4828509,0.0,0.0,0.5355586,1.076009,0.0,0.0,1.1110473,1.237842,0.0,0.0,1.2166327,1.0055463,0.0,0.0,0.9704038,791.75824,761.9414,765.9707,779.2674,610.84247,-0.2510986328125,0.10650634765625,0.96392822265625,5.7720947265625,-2.01873779296875,0.740203857421875,1,1.0,1.0,1.0,1.0,40.00
2021-04-09 22:17:34.069,0.60613364,0.0,0.0,0.42704815,0.5293184,0.0,0.0,0.17967978,0.79926765,0.0,0.0,0.7848463,1.1436414,0.0,0.0,1.1284207,1.0361978,0.0,0.0,1.0689915,798.20514,765.9707,787.72894,784.5055,811.0989,-0.25616455078125,0.1717529296875,0.9549560546875,4.000091552734375,-6.71417236328125,0.844879150390625,1,1.0,1.0,1.0,1.0,40.00
2021-04-09 22:17:34.573,0.7098634,0.0,0.0,0.48799813,0.62625766,0.0,0.0,0.18499222,0.7595355,0.0,0.0,0.60260767,1.130223,0.0,0.0,1.1240336,1.0150548,0.0,0.0,1.1189256,769.19415,748.6447,756.30035,772.01465,723.663,-0.23699951171875,0.14447021484375,0.98809814453125,-0.276641845703125,-3.30474853515625,5.809478759765625,1,1.0,1.0,1.0,1.0,40.00
2021-04-09 22:17:35.082,0.7235147,0.0,0.0,0.48799813,0.5188543,0.0,0.0,0.18499222,0.6629485,0.0,0.0,0.60260767,1.1152843,0.0,0.0,1.1240336,0.995179,0.0,0.0,1.1189256,815.5311,797.8022,793.36993,799.81683,672.8938,-0.22735595703125,0.13507080078125,0.95782470703125,9.607696533203125,-3.820648193359375,11.0955810546875,1,1.0,1.0,1.0,1.0,40.00
2021-04-09 22:17:35.600,0.5653469,0.0,0.0,0.48799813,0.33128703,0.0,0.0,0.18499222,0.6950975,0.0,0.0,0.60260767,1.0737855,0.0,0.0,1.1240336,0.8280952,0.0,0.0,1.1189256,792.96704,768.3883,781.685,789.7436,776.4469,-0.2210693359375,0.12109375,0.97802734375,5.1739501953125,-6.08612060546875,4.942169189453125,1,1.0,1.0,1.0,1.0,40.00
2021-04-09 22:17:36.061,,,,,,,,,,,,,,,,,,,,,,,,,,,,,,,,,,,,,,/muse/elements/blink
2021-04-09 22:17:36.129,0.26935408,0.0,0.49046573,0.12020786,0.16765377,0.0,0.27798152,-0.009257599,0.67045784,0.0,0.5080172,0.5985424,1.1168294,0.0,0.98755103,1.2109303,0.80290395,0.0,0.8249431,0.86999357,784.5055,761.53845,770.0,793.36993,815.12823,-0.239990234375,0.07598876953125,0.9639892578125,1.2860107421875,-0.22430419921875,-0.635528564453125,1,1.0,1.0,1.0,1.0,40.00
2021-04-09 22:17:36.476,,,,,,,,,,,,,,,,,,,,,,,,,,,,,,,,,,,,,,/muse/elements/blink
2021-04-09 22:17:36.639,0.27044463,0.0,0.49046573,0.18539074,0.23359655,0.0,0.27798152,0.29814875,0.67045784,0.0,0.5080172,0.6650257,1.1295818,0.0,0.98755103,1.2163209,0.77668405,0.0,0.8249431,0.83942425,811.0989,767.1795,771.6117,808.68134,817.5458,-0.32275390625,0.09259033203125,0.9468994140625,4.18701171875,1.0467529296875,5.136566162109375,1,1.0,1.0,1.0,1.0,40.00
2021-04-09 22:17:37.157,0.35885966,0.0,0.49046573,0.24423328,0.36898544,0.0,0.27798152,0.50499004,0.6139779,0.0,0.5080172,0.49608105,1.1947913,0.0,0.98755103,1.2636334,0.85764265,0.0,0.8249431,0.8940665,788.5348,780.87915,779.67035,784.10254,610.0366,-0.2196044921875,0.0919189453125,0.9761962890625,5.6524658203125,-11.028289794921875,0.545806884765625,1,1.0,1.0,1.0,1.0,40.00
2021-04-09 22:17:37.664,0.36946863,0.0,0.49046573,0.31750923,0.41437432,0.0,0.27798152,0.6402381,0.58158547,0.0,0.5080172,0.39138946,1.1955926,0.0,0.98755103,1.251899,0.7654975,0.0,0.8249431,0.80610824,778.0586,770.40295,768.7912,767.98535,724.4689,-0.21832275390625,0.07635498046875,0.969970703125,2.930908203125,-6.68426513671875,0.725250244140625,1,1.0,1.0,1.0,1.0,40.00
2021-04-09 22:17:38.173,0.36946863,0.0,0.49046573,0.31750923,0.41437432,0.0,0.27798152,0.6402381,0.58158547,0.0,0.5080172,0.39138946,1.1955926,0.0,0.98755103,1.251899,0.7654975,0.0,0.8249431,0.80610824,834.4689,784.90845,784.90845,831.6484,904.9817,-0.24737548828125,0.06512451171875,0.9676513671875,4.553375244140625,-4.523468017578125,2.250518798828125,1,1.0,1.0,1.0,1.0,40.00
2021-04-09 22:17:38.260,,,,,,,,,,,,,,,,,,,,,,,,,,,,,,,,,,,,,,/muse/elements/blink
2021-04-09 22:17:38.678,0.36946863,0.0,0.49046573,0.31750923,0.41437432,0.0,0.27798152,0.6402381,0.58158547,0.0,0.5080172,0.39138946,1.1955926,0.0,0.98755103,1.251899,0.7654975,0.0,0.8249431,0.80610824,767.98535,759.92676,751.4652,767.1795,797.8022,-0.23822021484375,0.06219482421875,0.9761962890625,5.0244140625,-5.69732666015625,-2.953338623046875,1,1.0,1.0,1.0,1.0,40.00
2021-04-09 22:17:39.190,0.36946863,0.0,0.49046573,0.31750923,0.41437432,0.0,0.27798152,0.6402381,0.58158547,0.0,0.5080172,0.39138946,1.1955926,0.0,0.98755103,1.251899,0.7654975,0.0,0.8249431,0.80610824,803.8461,773.22345,794.9817,818.7546,719.6337,-0.23785400390625,0.05230712890625,0.969970703125,4.29168701171875,-4.9945068359375,1.398162841796875,1,2.0,1.0,1.0,2.0,40.00
2021-04-09 22:17:39.696,0.36946863,0.0,0.49046573,0.31750923,0.41437432,0.0,0.27798152,0.6402381,0.58158547,0.0,0.5080172,0.39138946,1.1955926,0.0,0.98755103,1.251899,0.7654975,0.0,0.8249431,0.80610824,798.60803,770.0,782.8938,784.90845,674.10254,-0.2364501953125,0.0540771484375,0.96844482421875,4.747772216796875,-4.85992431640625,1.188812255859375,1,2.0,1.0,1.0,2.0,40.00
2021-04-09 22:17:40.214,0.36946863,0.0,0.49046573,0.31750923,0.41437432,0.0,0.27798152,0.6402381,0.58158547,0.0,0.5080172,0.39138946,1.1955926,0.0,0.98755103,1.251899,0.7654975,0.0,0.8249431,0.80610824,771.6117,747.8388,764.35895,775.64105,924.3223,-0.239501953125,0.06158447265625,0.9681396484375,4.65057373046875,-5.1141357421875,1.173858642578125,1,2.0,1.0,1.0,2.0,40.00
2021-04-09 22:17:40.727,0.39125445,0.0,0.49046573,0.27764437,0.49896562,0.0,0.27798152,0.18284705,0.38394675,0.0,0.5080172,0.3281133,1.2280121,0.0,0.98755103,1.1713266,0.8049926,0.0,0.8249431,0.8502351,782.49084,751.8681,771.2088,788.5348,895.31134,-0.23455810546875,0.05889892578125,0.97186279296875,5.21881103515625,-4.77020263671875,0.88226318359375,1,1.0,1.0,1.0,1.0,40.00
2021-04-09 22:17:41.233,0.37816164,0.0,0.49046573,0.28964543,0.45057774,0.0,0.27798152,0.20441657,0.46972436,0.0,0.5080172,0.45895728,1.2264804,0.0,0.98755103,1.1976984,0.7583902,0.0,0.8249431,0.810954,855.0183,827.619,850.989,849.7802,928.3516,-0.24188232421875,0.05853271484375,0.97113037109375,4.568328857421875,-4.66552734375,1.054229736328125,1,1.0,1.0,1.0,1.0,40.00
2021-04-09 22:17:41.530,,,,,,,,,,,,,,,,,,,,,,,,,,,,,,,,,,,,,,/muse/elements/blink
2021-04-09 22:17:41.742,0.33348575,0.0,0.49046573,0.3051581,0.3915675,0.0,0.27798152,0.18206427,0.48109266,0.0,0.5080172,0.42969716,1.2405876,0.0,0.98755103,1.2409116,0.72523785,0.0,0.8249431,0.72217137,771.6117,749.85345,769.19415,772.4176,726.4835,-0.235107421875,0.05645751953125,0.97222900390625,5.196380615234375,-5.36834716796875,1.36077880859375,1,1.0,1.0,1.0,1.0,40.00
2021-04-09 22:17:42.249,0.31199208,0.0,0.49046573,0.25533858,0.35923886,0.0,0.27798152,0.22049075,0.22817266,0.0,0.5080172,0.4162878,1.2286531,0.0,0.98755103,1.2824326,0.69326293,0.0,0.8249431,0.6149008,807.8755,777.25275,788.1319,807.8755,875.9707,-0.23834228515625,0.05810546875,0.971923828125,5.2337646484375,-5.0543212890625,1.323394775390625,1,1.0,1.0,1.0,1.0,40.00
2021-04-09 22:17:42.750,0.17343596,0.0,0.49046573,0.25533858,0.39389417,0.0,0.27798152,0.22049075,0.21432486,0.0,0.5080172,0.4162878,1.2487206,0.0,0.98755103,1.2824326,0.7047625,0.0,0.8249431,0.6149008,788.1319,755.4945,776.4469,772.8205,645.4945,-0.2117919921875,0.07110595703125,0.98162841796875,6.916046142578125,-10.54229736328125,3.521575927734375,1,1.0,1.0,1.0,1.0,40.00
2021-04-09 22:17:43.261,0.17343596,0.0,0.49046573,0.25533858,0.39389417,0.0,0.27798152,0.22049075,0.21432486,0.0,0.5080172,0.4162878,1.2487206,0.0,0.98755103,1.2824326,0.7047625,0.0,0.8249431,0.6149008,791.3553,750.65936,763.95605,776.04395,620.5128,-0.18743896484375,0.07965087890625,0.98626708984375,5.3533935546875,-4.583282470703125,0.964508056640625,1,1.0,1.0,1.0,1.0,40.00
2021-04-09 22:17:43.651,,,,,,,,,,,,,,,,,,,,,,,,,,,,,,,,,,,,,,/muse/elements/blink
2021-04-09 22:17:43.779,0.17343596,0.0,0.49046573,0.25533858,0.39389417,0.0,0.27798152,0.22049075,0.21432486,0.0,0.5080172,0.4162878,1.2487206,0.0,0.98755103,1.2824326,0.7047625,0.0,0.8249431,0.6149008,838.49817,808.2784,808.68134,848.5714,1117.7289,-0.189453125,0.08203125,0.98175048828125,2.31781005859375,-4.56085205078125,5.00946044921875,1,1.0,1.0,1.0,1.0,40.00
2021-04-09 22:17:44.289,0.17343596,0.0,0.49046573,0.25533858,0.39389417,0.0,0.27798152,0.22049075,0.21432486,0.0,0.5080172,0.4162878,1.2487206,0.0,0.98755103,1.2824326,0.7047625,0.0,0.8249431,0.6149008,769.19415,759.12085,762.3443,770.80585,798.20514,-0.1907958984375,0.05572509765625,0.97760009765625,5.615081787109375,-8.23944091796875,-1.48040771484375,1,2.0,1.0,1.0,2.0,45.00
2021-04-09 22:17:44.803,0.17343596,0.0,0.49046573,0.25533858,0.39389417,0.0,0.27798152,0.22049075,0.21432486,0.0,0.5080172,0.4162878,1.2487206,0.0,0.98755103,1.2824326,0.7047625,0.0,0.8249431,0.6149008,784.90845,755.89746,768.3883,768.3883,582.6374,-0.1710205078125,0.08258056640625,0.9854736328125,5.061798095703125,-4.433746337890625,-0.5682373046875,1,2.0,1.0,1.0,2.0,45.00
2021-04-09 22:17:45.331,0.17343596,0.0,0.18534078,0.25533858,0.39389417,0.0,0.24135877,0.22049075,0.21432486,0.0,0.14379284,0.4162878,1.2487206,0.0,1.024526,1.2824326,0.7047625,0.0,0.63350296,0.6149008,833.663,772.4176,788.1319,814.7253,727.6923,-0.1632080078125,0.08087158203125,0.9803466796875,4.29168701171875,-6.20574951171875,2.25799560546875,1,2.0,1.0,1.0,2.0,45.00
2021-04-09 22:17:45.399,,,,,,,,,,,,,,,,,,,,,,,,,,,,,,,,,,,,,,/muse/elements/blink
2021-04-09 22:17:45.836,0.17343596,0.0,0.17567864,0.25533858,0.39389417,0.0,0.23473184,0.22049075,0.21432486,0.0,0.25832716,0.4162878,1.2487206,0.0,1.0214226,1.2824326,0.7047625,0.0,0.63912964,0.6149008,750.2564,726.8865,747.03296,750.2564,603.5897,-0.16766357421875,0.07562255859375,0.98565673828125,4.478607177734375,-4.32159423828125,2.026214599609375,1,2.0,1.0,1.0,2.0,45.00
2021-04-09 22:17:46.348,0.17343596,0.2934997,0.20769481,0.25533858,0.39389417,0.1510119,0.11885029,0.22049075,0.21432486,0.4840882,0.29643598,0.4162878,1.2487206,0.9369463,1.0366812,1.2824326,0.7047625,0.5326013,0.60691166,0.6149008,845.34796,813.91943,817.9487,838.9011,889.2674,-0.16192626953125,0.06744384765625,0.98529052734375,4.23187255859375,-4.9945068359375,0.22430419921875,1,2.0,1.0,1.0,2.0,45.00
2021-04-09 22:17:46.880,0.17343596,0.29254675,0.1480148,0.10885251,0.39389417,0.11019455,-2.4192041E-4,0.48117796,0.21432486,0.49201038,0.51708245,0.48184216,1.2487206,0.9192309,1.0314186,0.94866586,0.7047625,0.6056801,0.71298313,0.8339612,792.5641,755.89746,776.04395,790.14655,772.8205,-0.16302490234375,0.0714111328125,0.98504638671875,4.717864990234375,-5.54779052734375,0.590667724609375,1,2.0,1.0,1.0,2.0,45.00
2021-04-09 22:17:47.382,0.023613775,0.28388062,0.15191412,-0.09356205,0.42586178,0.111397184,-0.044853978,0.59973335,0.6341715,0.4504956,0.508384,0.8765847,1.0651529,0.91424,1.0355818,0.9773051,0.6694763,0.60765254,0.7203101,0.7563872,794.17584,755.09155,778.46155,775.64105,549.59705,-0.1534423828125,0.07562255859375,0.9873046875,5.091705322265625,-5.14404296875,2.175750732421875,1,1.0,1.0,1.0,1.0,45.00
2021-04-09 22:17:47.818,,,,,,,,,,,,,,,,,,,,,,,,,,,,,,,,,,,,,,/muse/elements/blink
2021-04-09 22:17:47.890,0.11933735,0.32742316,0.16241579,-0.1277316,0.41799366,0.045549728,0.03742329,0.58495545,0.75236243,0.25209957,0.48394865,1.013982,1.0952519,0.87308717,1.0241196,1.053328,0.6723259,0.7029923,0.7885906,0.72756904,829.6337,780.87915,789.7436,819.5604,811.9048,-0.1893310546875,0.06500244140625,0.992431640625,2.893524169921875,-1.188812255859375,-5.99639892578125,1,1.0,1.0,1.0,1.0,45.00
2021-04-09 22:17:48.402,0.11933735,0.32742316,0.16241579,-0.32297426,0.41799366,0.045549728,0.03742329,0.62881875,0.75236243,0.25209957,0.48394865,1.013982,1.0952519,0.87308717,1.0241196,1.0975058,0.6723259,0.7029923,0.7885906,0.66267514,779.2674,760.7326,766.3736,786.9231,864.68866,-0.15582275390625,-0.01361083984375,0.9913330078125,1.099090576171875,-4.20196533203125,-15.080718994140625,1,1.0,1.0,1.0,1.0,45.00
2021-04-09 22:17:48.910,0.23671007,0.32742316,0.16241579,-0.25656548,0.4538033,0.045549728,0.03742329,0.6136495,0.7036658,0.25209957,0.48394865,0.932781,1.143019,0.87308717,1.0241196,1.1966326,0.66178435,0.7029923,0.7885906,0.62633103,786.52014,752.27106,803.0403,786.9231,720.4396,-0.18365478515625,-0.0826416015625,0.97802734375,0.186920166015625,-7.2674560546875,-0.829925537109375,1,1.0,1.0,1.0,1.0,45.00
2021-04-09 22:17:49.422,0.66348463,0.32742316,0.16241579,0.2680813,0.349754,0.045549728,0.03742329,0.2453381,0.38941592,0.25209957,0.48394865,0.11209382,0.9146034,0.87308717,1.0241196,0.96363044,0.5844109,0.7029923,0.7885906,0.6355858,700.293,777.25275,811.0989,701.9048,738.5714,-0.16485595703125,-0.09783935546875,0.98150634765625,4.71038818359375,-5.1141357421875,5.390777587890625,1,1.0,1.0,1.0,1.0,45.00
2021-04-09 22:17:49.637,,,,,,,,,,,,,,,,,,,,,,,,,,,,,,,,,,,,,,/muse/elements/blink
2021-04-09 22:17:49.929,0.66348463,-0.033858508,0.16241579,0.2680813,0.349754,0.109403595,0.03742329,0.2453381,0.38941592,0.2895716,0.48394865,0.11209382,0.9146034,0.92699474,1.0241196,0.96363044,0.5844109,0.32648417,0.7885906,0.6355858,767.98535,740.58606,780.07324,772.01465,753.0769,-0.1568603515625,-0.0777587890625,0.989013671875,5.96649169921875,-6.467437744140625,2.8411865234375,1,1.0,1.0,1.0,1.0,45.00
2021-04-09 22:17:50.441,0.66348463,-0.033858508,0.16241579,0.2680813,0.349754,0.109403595,0.03742329,0.2453381,0.38941592,0.2895716,0.48394865,0.11209382,0.9146034,0.92699474,1.0241196,0.96363044,0.5844109,0.32648417,0.7885906,0.6355858,725.2747,770.40295,789.34064,733.73627,713.9927,-0.1697998046875,-0.06878662109375,0.9876708984375,4.658050537109375,-4.029998779296875,6.422576904296875,1,1.0,1.0,1.0,1.0,45.00
2021-04-09 22:17:50.688,,,,,,,,,,,,,,,,,,,,,,,,,,,,,,,,,,,,,,/muse/elements/blink
2021-04-09 22:17:50.971,0.65530986,0.40073678,0.16241579,0.27765962,0.32692507,0.45033735,0.03742329,0.22182602,0.34304935,0.47337353,0.48394865,0.085154,0.9133373,0.9862528,1.0241196,0.97012,0.5123542,0.5401811,0.7885906,0.57994264,822.7839,792.5641,801.02563,823.9927,905.78754,-0.1650390625,-0.070556640625,0.98553466796875,8.0450439453125,-5.061798095703125,3.9178466796875,1,1.0,1.0,1.0,1.0,45.00
2021-04-09 22:17:51.496,0.65530986,0.5798012,0.16241579,0.27765962,0.32692507,0.60397416,0.03742329,0.22182602,0.34304935,0.468536,0.48394865,0.085154,0.9133373,1.0082419,1.0241196,0.97012,0.5123542,0.67125535,0.7885906,0.57994264,773.6264,743.4066,761.13556,765.9707,740.989,-0.1915283203125,-0.001708984375,0.98468017578125,4.26177978515625,-2.310333251953125,10.893707275390625,1,1.0,1.0,1.0,1.0,45.00
2021-04-09 22:17:52.022,0.65530986,0.5798012,0.16241579,0.27765962,0.32692507,0.60397416,0.03742329,0.22182602,0.34304935,0.468536,0.48394865,0.085154,0.9133373,1.0082419,1.0241196,0.97012,0.5123542,0.67125535,0.7885906,0.57994264,802.6374,779.67035,799.41394,799.41394,809.89014,-0.2564697265625,0.0733642578125,0.99542236328125,4.14215087890625,3.147735595703125,17.383575439453125,1,1.0,1.0,1.0,1.0,45.00
2021-04-09 22:17:52.533,0.65530986,0.5798012,0.16241579,0.27765962,0.32692507,0.60397416,0.03742329,0.22182602,0.34304935,0.468536,0.48394865,0.085154,0.9133373,1.0082419,1.0241196,0.97012,0.5123542,0.67125535,0.7885906,0.57994264,782.49084,757.9121,764.7619,773.6264,780.87915,-0.21124267578125,0.037841796875,1.021240234375,3.6785888671875,-10.669403076171875,-15.5816650390625,1,2.0,1.0,1.0,2.0,45.00
2021-04-09 22:17:53.039,0.65530986,0.5798012,0.16241579,0.27765962,0.32692507,0.60397416,0.03742329,0.22182602,0.34304935,0.468536,0.48394865,0.085154,0.9133373,1.0082419,1.0241196,0.97012,0.5123542,0.67125535,0.7885906,0.57994264,789.34064,778.0586,758.315,792.1612,835.6777,-0.20123291015625,0.04046630859375,0.95819091796875,11.387176513671875,-6.95343017578125,-25.00244140625,1,2.0,1.0,1.0,2.0,45.00
2021-04-09 22:17:53.548,0.65530986,0.5798012,0.16241579,0.27765962,0.32692507,0.60397416,0.03742329,0.22182602,0.34304935,0.468536,0.48394865,0.085154,0.9133373,1.0082419,1.0241196,0.97012,0.5123542,0.67125535,0.7885906,0.57994264,799.41394,771.6117,787.326,796.99634,805.8608,-0.1580810546875,0.07513427734375,0.9990234375,9.159088134765625,1.233673095703125,-16.800384521484375,1,2.0,1.0,1.0,2.0,45.00
2021-04-09 22:17:54.081,0.65530986,0.5798012,0.16241579,0.27765962,0.32692507,0.60397416,0.03742329,0.22182602,0.34304935,0.468536,0.48394865,0.085154,0.9133373,1.0082419,1.0241196,0.97012,0.5123542,0.67125535,0.7885906,0.57994264,797.3993,759.12085,806.6667,794.9817,589.89014,-0.15997314453125,0.06890869140625,0.987060546875,5.570220947265625,-6.56463623046875,2.295379638671875,1,2.0,1.0,1.0,2.0,45.00
2021-04-09 22:17:54.584,0.097984776,0.5798012,0.16241579,0.27765962,0.42377874,0.60397416,0.03742329,0.22182602,0.62291056,0.468536,0.48394865,0.085154,1.0937812,1.0082419,1.0241196,0.97012,0.6365259,0.67125535,0.7885906,0.57994264,788.1319,779.2674,788.5348,786.9231,709.9634,-0.15655517578125,0.06854248046875,0.9801025390625,5.1141357421875,-4.68048095703125,2.43743896484375,1,1.0,1.0,1.0,1.0,35.00
2021-04-09 22:17:55.105,0.36535263,0.2965351,0.16241579,0.49249604,0.40748575,0.3456868,0.03742329,0.3979933,0.80983627,0.2054025,0.48394865,0.57822955,1.0886025,1.0196654,1.0241196,1.2403978,0.67692035,0.64394206,0.7885906,0.7948825,790.54944,759.92676,789.34064,822.7839,815.9341,-0.17584228515625,0.08221435546875,0.9884033203125,5.2935791015625,-3.81317138671875,2.79632568359375,1,1.0,1.0,1.0,1.0,35.00
2021-04-09 22:17:55.624,0.4959907,0.44624427,0.16241579,0.49249604,0.40433523,0.28806782,0.03742329,0.3979933,0.8214358,0.38613728,0.48394865,0.57822955,1.0917442,0.9981123,1.0241196,1.2403978,0.6949784,0.6008146,0.7885906,0.7948825,803.8461,759.12085,780.87915,813.1135,802.23444,-0.19268798828125,0.06988525390625,0.9732666015625,3.835601806640625,-5.794525146484375,18.30322265625,1,1.0,1.0,1.0,1.0,35.00
2021-04-09 22:17:55.661,,,,,,,,,,,,,,,,,,,,,,,,,,,,,,,,,,,,,,/muse/elements/blink
2021-04-09 22:17:56.151,0.6327039,0.5485258,0.16241579,0.44488007,0.4308307,0.21922506,0.03742329,0.4072511,0.7214038,0.38432437,0.48394865,0.56809026,1.0790865,0.9513115,1.0241196,1.2408929,0.70590323,0.5806104,0.7885906,0.83979505,804.65204,784.5055,789.7436,807.0696,708.3516,-0.17578125,0.0673828125,0.996337890625,5.106658935546875,-0.0,9.3310546875,1,1.0,1.0,1.0,1.0,35.00
2021-04-09 22:17:56.653,0.6916707,0.6901206,0.16241579,0.44488007,0.48981434,0.16117698,0.03742329,0.4072511,0.6901956,0.37862387,0.48394865,0.56809026,1.0822389,0.933358,1.0241196,1.2408929,0.6646374,0.4489072,0.7885906,0.83979505,788.93774,766.3736,788.93774,780.07324,711.1722,-0.23052978515625,0.0758056640625,0.972412109375,0.43365478515625,-1.39068603515625,8.845062255859375,1,1.0,1.0,1.0,1.0,35.00
2021-04-09 22:17:57.161,0.6916707,0.6901206,0.16241579,0.44488007,0.48981434,0.16117698,0.03742329,0.4072511,0.6901956,0.37862387,0.48394865,0.56809026,1.0822389,0.933358,1.0241196,1.2408929,0.6646374,0.4489072,0.7885906,0.83979505,813.5165,786.9231,793.36993,800.6227,813.5165,-0.2464599609375,0.05291748046875,0.96527099609375,5.5029296875,-4.822540283203125,1.801910400390625,1,1.0,1.0,1.0,1.0,35.00
2021-04-09 22:17:57.679,0.6916707,0.6901206,0.16241579,0.44488007,0.48981434,0.16117698,0.03742329,0.4072511,0.6901956,0.37862387,0.48394865,0.56809026,1.0822389,0.933358,1.0241196,1.2408929,0.6646374,0.4489072,0.7885906,0.83979505,832.8571,805.05493,805.05493,833.663,1158.4249,-0.24249267578125,0.04962158203125,0.9766845703125,3.117828369140625,-6.347808837890625,1.2860107421875,1,1.0,1.0,1.0,1.0,35.00
2021-04-09 22:17:58.173,,,,,,,,,,,,,,,,,,,,,,,,,,,,,,,,,,,,,,/muse/elements/blink
2021-04-09 22:17:58.187,0.81970274,0.6901206,0.16241579,0.44488007,0.8339107,0.16117698,0.03742329,0.4072511,0.6362021,0.37862387,0.48394865,0.56809026,1.0702121,0.933358,1.0241196,1.2408929,0.7251538,0.4489072,0.7885906,0.83979505,782.0879,741.39197,738.1685,782.8938,800.6227,-0.2288818359375,0.03521728515625,0.97161865234375,0.710296630859375,-4.0972900390625,5.562744140625,1,1.0,1.0,1.0,1.0,35.00
2021-04-09 22:17:58.694,0.81970274,0.6901206,0.16241579,0.44488007,0.8339107,0.16117698,0.03742329,0.4072511,0.6362021,0.37862387,0.48394865,0.56809026,1.0702121,0.933358,1.0241196,1.2408929,0.7251538,0.4489072,0.7885906,0.83979505,785.7143,766.3736,788.1319,779.2674,652.3443,-0.23687744140625,0.03118896484375,0.9742431640625,5.30853271484375,-4.77020263671875,2.40753173828125,1,1.0,1.0,1.0,1.0,35.00
2021-04-09 22:17:59.204,0.81970274,0.6901206,0.16241579,0.44488007,0.8339107,0.16117698,0.03742329,0.4072511,0.6362021,0.37862387,0.48394865,0.56809026,1.0702121,0.933358,1.0241196,1.2408929,0.7251538,0.4489072,0.7885906,0.83979505,802.23444,780.4762,794.57874,805.05493,934.3956,-0.22906494140625,0.03363037109375,0.9755859375,4.97955322265625,-5.78704833984375,0.082244873046875,1,1.0,1.0,1.0,1.0,35.00
2021-04-09 22:17:59.714,0.55211693,0.5046013,0.16241579,0.44488007,0.6339426,0.29502618,0.03742329,0.4072511,0.83837366,0.4724891,0.48394865,0.56809026,0.95937604,0.99152464,1.0241196,1.2408929,0.69770813,0.7134403,0.7885906,0.83979505,790.54944,777.6557,785.7143,800.2198,797.8022,-0.21649169921875,0.02484130859375,0.97607421875,4.373931884765625,-5.6524658203125,1.95892333984375,1,1.0,1.0,1.0,1.0,35.00
2021-04-09 22:18:00.186,,,,,,,,,,,,,,,,,,,,,,,,,,,,,,,,,,,,,,/muse/elements/blink
2021-04-09 22:18:00.229,0.6278724,0.5046013,0.16241579,0.67907387,0.71241903,0.29502618,0.03742329,0.60892975,0.8556937,0.4724891,0.48394865,0.81035596,0.9823841,0.99152464,1.0241196,1.0842017,0.7648127,0.7134403,0.7885906,0.8775214,842.1245,801.8315,813.5165,853.4066,949.304,-0.22265625,0.0267333984375,0.978271484375,4.9945068359375,-4.4561767578125,1.1663818359375,1,1.0,1.0,1.0,1.0,35.00
2021-04-09 22:18:00.732,0.6278724,0.5046013,0.16241579,0.67907387,0.71241903,0.29502618,0.03742329,0.60892975,0.8556937,0.4724891,0.48394865,0.81035596,0.9823841,0.99152464,1.0241196,1.0842017,0.7648127,0.7134403,0.7885906,0.8775214,800.2198,773.6264,791.3553,789.34064,724.4689,-0.22161865234375,0.02313232421875,0.9757080078125,5.345916748046875,-4.373931884765625,1.495361328125,1,1.0,1.0,1.0,1.0,35.00
2021-04-09 22:18:01.241,0.67102134,0.014610504,0.16241579,0.67907387,0.84774786,0.53346115,0.03742329,0.60892975,0.6369008,0.33956435,0.48394865,0.81035596,1.0367715,0.96055853,1.0241196,1.0842017,0.8121727,0.7222828,0.7885906,0.8775214,767.5824,750.65936,758.71796,767.98535,810.293,-0.2281494140625,0.02935791015625,0.9744873046875,5.24871826171875,-5.211334228515625,2.220611572265625,1,1.0,1.0,1.0,1.0,35.00
2021-04-09 22:18:01.752,0.06441547,0.048356462,0.16241579,0.67907387,-0.24832474,0.48305276,0.03742329,0.60892975,0.42294914,0.3608827,0.48394865,0.81035596,1.0074106,0.966002,1.0241196,1.0842017,0.96250963,0.7691845,0.7885906,0.8775214,792.1612,771.6117,792.5641,799.41394,835.2747,-0.22381591796875,0.02734375,0.979736328125,4.366455078125,-4.807586669921875,0.306549072265625,1,1.0,1.0,1.0,1.0,35.00
2021-04-09 22:18:02.263,0.40905687,0.048356462,0.16241579,0.67907387,-0.2541249,0.48305276,0.03742329,0.60892975,0.5007028,0.3608827,0.48394865,0.81035596,0.97377384,0.966002,1.0241196,1.0842017,0.9119782,0.7691845,0.7885906,0.8775214,794.9817,770.80585,778.86444,780.07324,758.315,-0.2244873046875,0.021240234375,0.9776611328125,4.717864990234375,-4.5458984375,1.084136962890625,1,1.0,1.0,1.0,1.0,35.00
2021-04-09 22:18:02.644,,,,,,,,,,,,,,,,,,,,,,,,,,,,,,,,,,,,,,/muse/elements/blink
2021-04-09 22:18:02.769,0.4275935,0.0108577255,0.16241579,0.67907387,-0.16388066,0.4269894,0.03742329,0.60892975,0.5007028,0.30968216,0.48394865,0.81035596,0.97057694,0.97739583,1.0241196,1.0842017,0.9141195,0.7725843,0.7885906,0.8775214,788.1319,752.674,765.56775,771.2088,738.97437,-0.21990966796875,0.02227783203125,0.97698974609375,5.203857421875,-5.286102294921875,1.158905029296875,1,1.0,1.0,1.0,1.0,35.00
2021-04-09 22:18:03.284,0.5955669,0.0108577255,0.16241579,0.67907387,-0.10422128,0.4269894,0.03742329,0.60892975,0.49706528,0.30968216,0.48394865,0.81035596,0.9373001,0.97739583,1.0241196,1.0842017,0.8692189,0.7725843,0.7885906,0.8775214,784.10254,758.315,780.07324,782.8938,784.90845,-0.21875,0.0255126953125,0.97265625,6.078643798828125,-5.5029296875,0.5084228515625,1,1.0,1.0,1.0,1.0,35.00
2021-04-09 22:18:03.792,0.62557054,0.21137844,0.16241579,0.67907387,-0.009794299,-0.08573544,0.03742329,0.60892975,0.27272534,0.38190597,0.48394865,0.81035596,0.9535571,0.830429,1.0241196,1.0842017,0.8840663,0.7049775,0.7885906,0.8775214,776.8498,762.74725,772.4176,780.87915,915.8608,-0.19354248046875,0.02764892578125,0.98046875,-0.979461669921875,-6.86370849609375,5.674896240234375,1,1.0,1.0,1.0,1.0,35.00
2021-04-09 22:18:04.303,0.62557054,0.21137844,0.16241579,0.67907387,-0.009794299,-0.08573544,0.03742329,0.60892975,0.27272534,0.38190597,0.48394865,0.81035596,0.9535571,0.830429,1.0241196,1.0842017,0.8840663,0.7049775,0.7885906,0.8775214,766.3736,738.1685,751.8681,748.24176,698.68134,-0.2049560546875,0.04315185546875,0.98931884765625,9.069366455078125,-5.360870361328125,10.295562744140625,1,1.0,1.0,1.0,1.0,35.00
2021-04-09 22:18:04.812,0.62557054,0.18491282,0.30551875,0.67907387,-0.009794299,-0.082000315,0.41898382,0.60892975,0.27272534,0.375606,0.29831898,0.81035596,0.9535571,0.8328842,0.8105145,1.0842017,0.8840663,0.7237976,0.1811561,0.8775214,773.22345,794.17584,777.6557,762.3443,823.1868,-0.2322998046875,0.01141357421875,0.98077392578125,8.605804443359375,0.2691650390625,-4.074859619140625,1,1.0,1.0,1.0,1.0,45.00
2021-04-09 22:18:05.327,0.62557054,0.18491282,0.30551875,0.67907387,-0.009794299,-0.082000315,0.41898382,0.60892975,0.27272534,0.375606,0.29831898,0.81035596,0.9535571,0.8328842,0.8105145,1.0842017,0.8840663,0.7237976,0.1811561,0.8775214,659.59705,788.93774,798.20514,671.28204,853.00366,-0.25823974609375,-0.00341796875,0.9661865234375,4.822540283203125,-6.302947998046875,2.213134765625,1,2.0,1.0,1.0,2.0,45.00
2021-04-09 22:18:05.488,,,,,,,,,,,,,,,,,,,,,,,,,,,,,,,,,,,,,,/muse/elements/blink
2021-04-09 22:18:05.831,0.62557054,0.18491282,0.30551875,0.67907387,-0.009794299,-0.082000315,0.41898382,0.60892975,0.27272534,0.375606,0.29831898,0.81035596,0.9535571,0.8328842,0.8105145,1.0842017,0.8840663,0.7237976,0.1811561,0.8775214,798.20514,774.43225,772.8205,784.90845,594.7253,-0.23480224609375,9.1552734375E-4,0.975341796875,1.951446533203125,-1.1065673828125,1.577606201171875,1,2.0,1.0,1.0,2.0,45.00
2021-04-09 22:18:06.340,0.62557054,0.18491282,0.30551875,0.67907387,-0.009794299,-0.082000315,0.41898382,0.60892975,0.27272534,0.375606,0.29831898,0.81035596,0.9535571,0.8328842,0.8105145,1.0842017,0.8840663,0.7237976,0.1811561,0.8775214,805.4579,767.1795,815.5311,810.696,681.75824,-0.2396240234375,-0.01556396484375,0.9755859375,4.433746337890625,-1.024322509765625,2.534637451171875,1,2.0,1.0,1.0,2.0,45.00
2021-04-09 22:18:06.851,0.62557054,0.36285993,0.7285305,0.67907387,-0.009794299,0.4499767,0.25240096,0.60892975,0.27272534,0.5380024,0.48698986,0.81035596,0.9535571,0.94996333,0.94327635,1.0842017,0.8840663,0.7906238,0.806606,0.8775214,782.0879,758.315,767.5824,765.56775,697.47253,-0.25970458984375,-0.006103515625,0.9666748046875,5.263671875,-6.063690185546875,0.2093505859375,1,2.0,1.0,1.0,2.0,45.00
2021-04-09 22:18:07.362,0.16350807,0.36285993,0.6240399,0.44262695,0.2223991,0.4499767,0.2542496,0.32373038,0.5821237,0.5380024,0.5904546,0.5485237,0.9292058,0.94996333,0.9050613,0.9554842,0.6250748,0.7906238,0.6856227,0.5694376,780.07324,764.7619,782.49084,789.34064,766.3736,-0.2506103515625,-0.00872802734375,0.9730224609375,5.555267333984375,-6.661834716796875,0.441131591796875,1,1.0,1.0,1.0,1.0,45.00
2021-04-09 22:18:07.866,0.32876736,0.38094556,0.5949679,0.43099967,0.3355892,0.46081853,0.2180449,0.336729,0.6769315,0.5380024,0.7356705,0.76762605,0.96949935,0.9663211,0.9171488,0.9815489,0.5202802,0.8132943,0.48525077,0.52907705,693.44324,791.75824,788.5348,691.02563,783.2967,-0.25335693359375,-0.0081787109375,0.971923828125,4.23187255859375,-4.463653564453125,0.83740234375,1,1.0,1.0,1.0,1.0,45.00
2021-04-09 22:18:08.022,,,,,,,,,,,,,,,,,,,,,,,,,,,,,,,,,,,,,,/muse/elements/blink
2021-04-09 22:18:08.371,0.29657638,0.38094556,0.49230954,0.3637794,0.34205872,0.46081853,0.20425995,0.37015313,0.5721241,0.5380024,0.55600214,0.7438632,0.98111457,0.9663211,0.8951402,0.98883545,0.38108066,0.8132943,0.22436337,0.44907,797.8022,759.92676,786.52014,786.9231,705.9341,-0.25067138671875,-0.01043701171875,0.970947265625,4.74029541015625,-4.284210205078125,1.158905029296875,1,1.0,1.0,1.0,1.0,45.00
2021-04-09 22:18:08.882,0.50670606,0.38094556,0.5311322,0.41172323,0.47138765,0.46081853,0.117268704,0.3567499,0.46364456,0.5380024,0.62676555,0.67724884,1.0270776,0.9663211,0.900554,1.020249,0.27106506,0.8132943,0.3859741,0.4555109,811.9048,786.52014,792.1612,815.5311,847.76556,-0.2469482421875,-0.01043701171875,0.9683837890625,4.284210205078125,-5.046844482421875,1.637420654296875,1,1.0,1.0,1.0,1.0,45.00
2021-04-09 22:18:09.384,0.58346874,0.7397792,0.4035242,0.45072997,0.5245302,0.39266774,-0.013427918,0.3228462,0.458372,0.3604813,0.5407113,0.6716467,1.0232381,0.9435217,0.92720133,1.0245751,0.28428507,0.48033443,0.45157817,0.49883777,782.8938,769.19415,772.8205,795.78754,865.89746,-0.24798583984375,-0.00286865234375,0.97119140625,4.792633056640625,-5.0244140625,0.61309814453125,1,1.0,1.0,1.0,1.0,45.00
2021-04-09 22:18:09.916,0.49057034,0.7397792,0.4035242,0.6293222,0.18928494,0.39266774,-0.013427918,0.63432986,0.24149743,0.3604813,0.5407113,0.37894943,1.0714927,0.9435217,0.92720133,1.1044257,0.3406115,0.48033443,0.45157817,0.4440563,779.67035,754.2857,769.59705,781.685,668.86444,-0.2496337890625,-0.0096435546875,0.968994140625,5.181427001953125,-4.553375244140625,1.637420654296875,1,1.0,1.0,1.0,1.0,45.00
2021-04-09 22:18:10.422,0.44417393,0.79069054,0.2676816,0.5860945,0.24994193,0.41486079,-0.07808591,0.57092726,0.6216959,0.3604813,0.31224746,0.49523792,1.0630518,0.9519277,0.972213,1.0764468,0.366409,0.4833313,0.38857567,0.4480333,842.52747,813.5165,820.3663,840.10986,840.9158,-0.24932861328125,-0.0042724609375,0.97344970703125,4.8150634765625,-5.14404296875,1.435546875,1,1.0,1.0,1.0,1.0,45.00
2021-04-09 22:18:10.936,0.41997463,0.79069054,0.21755195,0.5621029,0.19730143,0.41486079,-0.09702092,0.62422884,0.6216959,0.3604813,0.2045502,0.48616827,1.088121,0.9519277,0.9834045,1.0793262,0.3584241,0.4833313,0.34407404,0.44446394,786.52014,765.56775,778.0586,800.2198,805.05493,-0.24249267578125,-0.0054931640625,0.97442626953125,4.65057373046875,-5.405731201171875,1.742095947265625,1,1.0,1.0,1.0,1.0,45.00
2021-04-09 22:18:11.249,,,,,,,,,,,,,,,,,,,,,,,,,,,,,,,,,,,,,,/muse/elements/blink
2021-04-09 22:18:11.442,0.35777852,0.79069054,0.21755195,0.5337311,0.33221185,0.41486079,-0.09702092,0.45858955,0.6216959,0.3604813,0.2045502,0.60857373,1.0491958,0.9519277,0.9834045,1.0187241,0.4047405,0.4833313,0.34407404,0.51498586,783.2967,761.13556,780.07324,799.011,809.0842,-0.242431640625,-0.001220703125,0.97314453125,5.600128173828125,-4.26177978515625,1.57012939453125,1,1.0,1.0,1.0,1.0,45.00
2021-04-09 22:18:11.954,0.41724867,-0.012288971,0.21755195,0.6029248,0.3826797,0.12245981,-0.09702092,0.4259002,0.6216959,0.53036946,0.2045502,0.5983339,1.0305034,0.8811528,0.9834045,1.0052185,0.42578128,0.226716,0.34407404,0.57510215,828.4249,804.2491,815.12823,824.7985,724.4689,-0.24273681640625,0.002685546875,0.96954345703125,4.882354736328125,-5.929107666015625,2.190704345703125,1,1.0,1.0,1.0,1.0,45.00
2021-04-09 22:18:12.460,0.41724867,0.31281954,0.21755195,0.6029248,0.3826797,0.098851316,-0.09702092,0.4259002,0.6216959,0.55540794,0.2045502,0.5983339,1.0305034,0.8831268,0.9834045,1.0052185,0.42578128,0.4018629,0.34407404,0.57510215,798.60803,784.10254,788.5348,806.6667,843.73627,-0.2303466796875,0.00201416015625,0.9752197265625,4.0374755859375,-4.35150146484375,3.529052734375,1,1.0,1.0,1.0,1.0,45.00
2021-04-09 22:18:12.969,0.22859314,0.30982372,0.21755195,0.7195447,0.38796863,-0.009199079,-0.09702092,0.5391627,0.59629244,0.54461277,0.2045502,0.6008169,0.8133867,0.8386613,0.9834045,0.9553401,0.40117922,0.38026857,0.34407404,0.5442558,766.3736,752.674,763.95605,785.7143,850.989,-0.2825927734375,0.01611328125,0.9815673828125,6.50482177734375,-8.6431884765625,17.047119140625,1,1.0,1.0,1.0,1.0,45.00
2021-04-09 22:18:13.490,0.47076476,0.35752773,0.21755195,0.861264,0.4050227,-0.060166974,-0.09702092,0.5005253,0.63438773,0.2858446,0.2045502,0.78072,0.8136288,0.7983961,0.9834045,0.9079141,0.5345768,0.45878285,0.34407404,0.56662273,757.1062,740.58606,749.85345,767.5824,752.674,-0.20330810546875,0.04718017578125,0.9781494140625,6.50482177734375,-5.659942626953125,7.2674560546875,1,1.0,1.0,1.0,1.0,45.00
2021-04-09 22:18:14.005,0.44918048,0.13164748,-0.010871298,0.9213367,0.38277873,-0.1766603,-0.40783206,0.46104035,0.638542,0.26397157,0.25697067,0.78072,0.80135316,0.72298956,0.78964,0.8435502,0.5201627,0.36003762,0.47645175,0.52527326,781.28204,767.5824,783.2967,803.8461,878.3883,-0.1923828125,0.01495361328125,0.96807861328125,7.274932861328125,-9.94415283203125,-7.349700927734375,1,1.0,1.0,1.0,1.0,45.00
2021-04-09 22:18:14.516,0.39758345,-0.175756,0.01817755,0.70432043,0.26256114,-0.3265157,-0.17295301,0.20323236,0.65669435,-0.01704922,0.26870728,0.7408022,0.8404198,0.72438794,0.8012233,0.78758055,0.5807335,0.4487345,0.44364718,0.56998986,768.7912,749.45056,767.98535,780.87915,698.2784,-0.192626953125,0.08465576171875,1.02655029296875,7.40203857421875,-9.039459228515625,14.63958740234375,1,1.0,1.0,1.0,1.0,45.00
2021-04-09 22:18:15.038,-0.02197191,0.013462709,0.07603205,0.43930092,0.022174666,-0.12371632,-0.117611304,0.06812586,0.4714531,0.17025624,0.23928416,0.56809026,0.8681192,0.7267001,0.8134848,0.7695217,0.5618785,0.54293835,0.52174973,0.57020575,803.44324,770.40295,783.69965,796.99634,586.6667,-0.197265625,0.02593994140625,0.98699951171875,-0.620574951171875,-3.775787353515625,-1.143951416015625,1,1.0,1.0,1.0,1.0,40.00
2021-04-09 22:18:15.549,0.026220653,0.013462709,0.25435278,-0.18285689,0.067988195,-0.12371632,0.006787998,-0.11182635,0.46936786,0.17025624,0.36879578,0.102805816,0.87362444,0.7267001,0.83612454,0.76302415,0.640394,0.54293835,0.6258487,0.6230392,810.293,791.3553,800.2198,821.1722,813.91943,-0.218505859375,0.08331298828125,1.00799560546875,15.215301513671875,-6.706695556640625,11.67877197265625,1,1.0,1.0,1.0,1.0,40.00
2021-04-09 22:18:16.061,0.11767507,0.15291159,0.3518399,-0.10660095,0.14815523,-0.03671862,0.04630219,-0.18497424,0.18960279,0.26740968,0.30125177,-0.058596864,0.91011626,0.7468758,0.8597457,0.7272974,0.74441665,0.69921374,0.7828513,0.62586033,774.83514,779.67035,739.3773,773.22345,916.6667,-0.212646484375,0.0189208984375,0.98199462890625,1.712188720703125,-6.1309814453125,-5.3533935546875,1,1.0,1.0,1.0,1.0,40.00
2021-04-09 22:18:16.566,0.2160607,0.15291159,0.36785665,-0.10660095,0.26887363,-0.03671862,0.066586144,-0.18497424,0.16850978,0.26740968,0.30028626,-0.058596864,0.9344938,0.7468758,0.86852324,0.7272974,0.81357765,0.69921374,0.79596543,0.62586033,773.6264,758.71796,769.59705,789.7436,825.2015,-0.2193603515625,0.00836181640625,0.97723388671875,6.0113525390625,-4.344024658203125,0.43365478515625,1,1.0,1.0,1.0,1.0,40.00
2021-04-09 22:18:16.631,,,,,,,,,,,,,,,,,,,,,,,,,,,,,,,,,,,,,,/muse/elements/blink
2021-04-09 22:18:17.089,0.2160607,0.15291159,0.36785665,-0.10660095,0.26887363,-0.03671862,0.066586144,-0.18497424,0.16850978,0.26740968,0.30028626,-0.058596864,0.9344938,0.7468758,0.86852324,0.7272974,0.81357765,0.69921374,0.79596543,0.62586033,824.7985,797.3993,799.81683,822.381,949.304,-0.20721435546875,0.01611328125,0.9779052734375,4.90478515625,-6.38519287109375,1.667327880859375,1,1.0,1.0,1.0,1.0,40.00
2021-04-09 22:18:17.616,0.2160607,0.15291159,0.36785665,-0.10660095,0.26887363,-0.03671862,0.066586144,-0.18497424,0.16850978,0.26740968,0.30028626,-0.058596864,0.9344938,0.7468758,0.86852324,0.7272974,0.81357765,0.69921374,0.79596543,0.62586033,760.32965,752.674,758.71796,782.8938,871.13556,-0.21539306640625,0.0181884765625,0.98162841796875,5.061798095703125,-4.658050537109375,1.71966552734375,1,1.0,1.0,1.0,1.0,40.00
2021-04-09 22:18:18.142,0.17101584,-0.02004005,0.36785665,0.26133725,0.026454374,0.038163893,0.066586144,0.13528855,-0.1651936,0.077974156,0.30028626,0.4773356,0.8707304,0.73326665,0.86852324,0.9471295,0.8149494,0.72850496,0.79596543,0.8689554,803.8461,773.22345,801.8315,809.4872,920.293,-0.20721435546875,0.0174560546875,0.9810791015625,4.91973876953125,-4.3365478515625,1.084136962890625,1,2.0,1.0,1.0,2.0,40.00
2021-04-09 22:18:18.645,0.25776312,0.31911087,0.36785665,0.11168918,0.06484959,0.028242199,0.066586144,0.18654045,0.4858867,0.49994177,0.30028626,0.63444024,0.9150267,0.71123177,0.86852324,0.87803805,0.6978133,0.62690204,0.79596543,0.7395424,786.52014,762.74725,771.6117,789.34064,747.8388,-0.209716796875,0.0152587890625,0.97918701171875,4.85992431640625,-5.525360107421875,1.532745361328125,1,1.0,1.0,1.0,1.0,40.00
2021-04-09 22:18:19.156,0.31611115,0.31911087,0.36785665,0.33603677,-0.02714888,0.028242199,0.066586144,0.14331922,0.52253187,0.49994177,0.30028626,0.64498,0.8894026,0.71123177,0.86852324,0.8580759,0.59286124,0.62690204,0.79596543,0.6204246,764.7619,740.989,751.8681,773.22345,601.1722,-0.2078857421875,0.022216796875,0.9815673828125,4.867401123046875,-4.9945068359375,1.80938720703125,1,1.0,1.0,1.0,1.0,40.00
2021-04-09 22:18:19.672,0.27747905,0.45467982,0.36785665,0.36072457,-0.011801999,-0.07309229,0.066586144,0.12071999,0.58546656,0.5006413,0.30028626,0.6416337,0.8957161,0.72841966,0.86852324,0.85951245,0.378929,0.44206074,0.79596543,0.39086798,822.381,803.0403,808.2784,836.8865,960.18317,-0.20672607421875,0.02337646484375,0.98077392578125,4.344024658203125,-5.45806884765625,1.1663818359375,1,1.0,1.0,1.0,1.0,40.00
2021-04-09 22:18:20.199,0.3313466,0.4397982,0.09225517,0.44040775,-0.057178497,-0.2599395,0.04564783,0.0314568,0.80226946,0.25575873,0.21522817,0.5721457,0.8271887,0.73298293,0.7730641,0.8619186,0.34134346,0.3317032,0.36084318,0.4063844,786.52014,769.19415,775.2381,805.05493,915.8608,-0.20989990234375,0.01849365234375,0.98114013671875,4.822540283203125,-5.181427001953125,0.9271240234375,1,1.0,1.0,1.0,1.0,40.00
2021-04-09 22:18:20.713,0.2861553,0.24571754,0.09841908,0.29793173,0.020771291,-0.2076725,-0.01266351,-0.0240056,0.77119464,0.43283194,0.30771238,0.7187277,0.8200338,0.73249483,0.7863235,0.85667896,0.48652062,0.5063552,0.46842623,0.64824295,805.8608,791.75824,801.8315,812.71063,670.87915,-0.201904296875,0.0147705078125,0.9815673828125,4.239349365234375,-5.345916748046875,1.375732421875,1,1.0,1.0,1.0,1.0,40.00
2021-04-09 22:18:21.157,,,,,,,,,,,,,,,,,,,,,,,,,,,,,,,,,,,,,,/muse/elements/jaw_clench
2021-04-09 22:18:21.219,0.31142634,0.17017679,0.18573155,0.28698686,0.03477327,-0.1493179,-0.070984736,0.13919859,0.7880488,0.42806536,0.32620305,0.78185713,0.7974086,0.7358986,0.8319518,0.8658723,0.6845494,0.5865225,0.5904908,0.7736501,786.1172,771.2088,786.9231,801.8315,757.9121,-0.19183349609375,0.01715087890625,0.9794921875,4.5159912109375,-5.09918212890625,1.039276123046875,1,1.0,1.0,1.0,1.0,40.00
2021-04-09 22:18:21.744,0.3548258,-0.033014975,0.40357128,0.30157033,0.02878585,0.06938958,0.0801067,0.20828855,0.69592804,0.51894647,0.33561933,0.8191267,0.9083737,0.7945074,0.9047005,0.92167795,0.64796436,0.5712443,0.6496134,0.73765975,794.57874,806.26373,759.92676,774.83514,820.3663,-0.19036865234375,0.0146484375,0.98150634765625,4.329071044921875,-3.90289306640625,-0.216827392578125,1,1.0,1.0,1.0,1.0,40.00
2021-04-09 22:18:22.272,0.28311116,0.10113019,0.58372676,0.42892122,0.26849934,0.27533957,0.39451852,0.44754007,0.9088413,0.56854373,0.5038403,0.8356501,0.9082599,0.83023566,0.8979771,0.97114974,0.58872014,0.5015021,0.5964015,0.69263506,805.4579,775.2381,786.9231,801.02563,718.8278,-0.2027587890625,0.01312255859375,0.98126220703125,5.4730224609375,-4.747772216796875,1.614990234375,1,1.0,1.0,1.0,1.0,40.00
2021-04-09 22:18:22.799,0.35155421,0.14034244,0.6379068,0.501166,0.3940575,0.4236752,0.5074399,0.40920267,0.9150828,0.56854373,0.55859345,0.8231441,0.8832146,0.8682366,0.84775704,0.9248167,0.5822984,0.37069196,0.516893,0.6848237,804.65204,746.2271,751.4652,819.15753,862.27106,-0.2049560546875,0.01702880859375,0.98321533203125,5.031890869140625,-4.179534912109375,1.973876953125,1,1.0,1.0,1.0,1.0,40.00
2021-04-09 22:18:22.832,,,,,,,,,,,,,,,,,,,,,,,,,,,,,,,,,,,,,,/muse/elements/blink
2021-04-09 22:18:23.306,0.23234637,0.18424283,0.6193981,0.5628932,0.5188915,0.46644846,0.51036066,0.49760878,0.9129591,0.56854373,0.55834013,0.79256094,0.8547486,0.8678022,0.8145496,0.91019946,0.6698604,0.39656255,0.5437303,0.78738993,779.2674,759.92676,769.19415,796.99634,823.9927,-0.2042236328125,0.0140380859375,0.9798583984375,4.732818603515625,-5.016937255859375,0.889739990234375,1,1.0,1.0,1.0,1.0,40.00
2021-04-09 22:18:23.834,0.3915127,0.18424283,0.6537862,0.5984677,0.53336567,0.46644846,0.51333374,0.32721257,0.7768125,0.56854373,0.55834013,0.634701,0.78011936,0.8678022,0.7883086,0.7793208,0.7557975,0.39656255,0.5562668,0.8527864,796.99634,777.25275,785.31134,805.8608,733.73627,-0.2076416015625,0.01617431640625,0.978515625,4.964599609375,-4.725341796875,0.635528564453125,1,1.0,1.0,1.0,1.0,40.00
2021-04-09 22:18:24.360,0.3915127,0.18424283,0.6537862,0.5984677,0.53336567,0.46644846,0.51333374,0.32721257,0.7768125,0.56854373,0.55834013,0.634701,0.78011936,0.8678022,0.7883086,0.7793208,0.7557975,0.39656255,0.5562668,0.8527864,765.9707,744.61536,755.4945,772.01465,700.696,-0.20672607421875,0.0147705078125,0.9808349609375,4.687957763671875,-4.29168701171875,0.994415283203125,1,1.0,1.0,1.0,1.0,40.00
2021-04-09 22:18:24.865,0.5700809,0.19396268,1.6676635E-4,0.71206325,0.4169173,0.22821651,0.022681145,0.554431,0.557237,0.06288261,0.20172752,0.5842456,0.7595674,0.76681554,0.5456492,0.89862454,0.52176327,0.34549072,0.25198218,0.56762826,813.1135,784.5055,801.02563,817.9487,678.1319,-0.21484375,0.01629638671875,0.9761962890625,4.725341796875,-4.329071044921875,0.485992431640625,1,1.0,1.0,1.0,1.0,40.00
2021-04-09 22:18:25.102,,,,,,,,,,,,,,,,,,,,,,,,,,,,,,,,,,,,,,/muse/elements/jaw_clench
2021-04-09 22:18:25.397,0.70194143,0.19346577,0.02616673,0.7752746,0.46827,0.21368721,0.028071452,0.5566646,0.58883214,0.06537507,0.20831026,0.6520822,0.841845,0.7503671,0.5413677,0.88665277,0.5922956,0.34938967,0.27466467,0.6882283,792.5641,773.6264,781.685,786.1172,735.7509,-0.21038818359375,0.01177978515625,0.97991943359375,5.031890869140625,-5.271148681640625,1.233673095703125,1,1.0,1.0,1.0,1.0,45.00
2021-04-09 22:18:25.894,,,,,,,,,,,,,,,,,,,,,,,,,,,,,,,,,,,,,,/muse/elements/jaw_clench
2021-04-09 22:18:25.922,0.60653543,-0.012215771,0.27325967,0.7330386,0.44117492,-0.104723476,0.08334604,0.5113588,0.67603105,0.30446872,0.5903391,0.7271081,0.8695275,0.68793917,0.74544036,0.9019031,0.5277806,0.3087339,0.3161118,0.6189505,776.4469,763.5531,774.0293,790.9524,848.5714,-0.21466064453125,0.02423095703125,0.98004150390625,5.330963134765625,-5.86181640625,1.323394775390625,1,1.0,1.0,1.0,1.0,45.00
2021-04-09 22:18:26.450,0.6719799,0.42289218,0.34353885,0.8054825,0.4827775,0.3492483,0.28474766,0.5153876,0.6847321,0.48855972,0.6152175,0.718762,0.8881232,0.6927574,0.8633079,0.8988414,0.51737165,0.24408096,0.3177113,0.5888622,810.696,783.69965,788.1319,825.2015,933.5897,-0.2015380859375,0.02490234375,0.97509765625,5.36834716796875,-4.104766845703125,0.755157470703125,1,1.0,1.0,1.0,1.0,45.00
2021-04-09 22:18:26.958,0.48992795,0.38084453,0.2511548,0.6371284,0.32670507,0.2177417,0.26389372,0.35177693,0.68022805,0.48855972,0.61541593,0.7152371,0.8542702,0.6879537,0.8862746,0.9141842,0.3806272,0.30424982,0.31215855,0.4418345,770.40295,753.47986,763.1502,782.49084,697.47253,-0.21038818359375,0.0291748046875,0.98773193359375,3.850555419921875,-3.48419189453125,-0.665435791015625,1,1.0,1.0,1.0,1.0,45.00
2021-04-09 22:18:27.465,0.45841524,0.3823852,0.09904689,0.5195492,0.18572581,0.13409156,0.27214828,0.25464427,0.59042853,0.48855972,0.5455728,0.6478708,0.8354976,0.6542911,0.8347008,0.86692804,0.45574272,0.37569398,0.37896574,0.52746093,790.9524,773.22345,788.93774,806.6667,713.9927,-0.21795654296875,0.0166015625,0.9825439453125,5.15899658203125,-5.24871826171875,0.7177734375,1,1.0,1.0,1.0,1.0,45.00
2021-04-09 22:18:27.834,,,,,,,,,,,,,,,,,,,,,,,,,,,,,,,,,,,,,,/muse/elements/jaw_clench
2021-04-09 22:18:27.997,0.15006383,0.34160307,-0.030570555,0.26700836,0.19944434,-0.10200871,0.12481619,0.25124976,0.53583777,0.24695577,0.36555427,0.42086506,0.84284735,0.6649694,0.82107395,0.8813451,0.5888488,0.54795706,0.50168663,0.6662537,797.8022,778.86444,801.4286,803.44324,798.20514,-0.2159423828125,0.01275634765625,0.981689453125,4.329071044921875,-4.029998779296875,0.710296630859375,1,1.0,1.0,1.0,1.0,45.00
2021-04-09 22:18:28.346,,,,,,,,,,,,,,,,,,,,,,,,,,,,,,,,,,,,,,/muse/elements/jaw_clench
2021-04-09 22:18:28.505,-0.1630481,0.27381024,-0.08922305,0.28328672,0.3023269,-0.17238082,0.10342208,0.41728067,0.57153,0.24664153,0.35433844,0.5008121,0.82520175,0.65353996,0.7318689,0.85700214,0.6781402,0.61435395,0.5893819,0.72247785,750.65936,740.18317,748.6447,772.4176,851.79486,-0.218017578125,0.01226806640625,0.978759765625,3.6187744140625,-4.32159423828125,0.052337646484375,1,1.0,1.0,1.0,1.0,45.00
2021-04-09 22:18:28.837,,,,,,,,,,,,,,,,,,,,,,,,,,,,,,,,,,,,,,/muse/elements/blink
2021-04-09 22:18:29.033,-0.37585205,0.16204917,-0.25718868,0.27529475,0.3590946,-0.19364089,0.04582732,0.46529037,0.56667954,0.36219728,0.4695543,0.5012312,0.83773404,0.65670526,0.7256176,0.88053256,0.7045721,0.6232105,0.6409104,0.7523647,782.0879,755.09155,769.19415,786.9231,827.619,-0.22918701171875,0.00421142578125,0.9761962890625,5.2935791015625,-3.887939453125,0.76263427734375,1,1.0,1.0,1.0,1.0,45.00
2021-04-09 22:18:29.539,-0.2556318,0.22663234,-0.105599664,0.14849034,0.3062848,-0.13548712,0.07631941,0.4771099,0.43723288,0.5702086,0.44609556,0.4097246,0.8251453,0.659069,0.7097163,0.8371162,0.6632363,0.4937299,0.61020046,0.65164787,779.67035,774.43225,777.25275,801.8315,1133.0403,-0.23004150390625,0.0093994140625,0.9781494140625,4.8748779296875,-4.837493896484375,0.8673095703125,1,1.0,1.0,1.0,1.0,45.00
2021-04-09 22:18:30.051,-0.23112923,0.30924934,0.04923841,0.08495427,0.24642031,-0.03637852,0.014727395,0.4297836,0.38404787,0.5712682,0.43143556,0.3912835,0.83638126,0.70648587,0.745461,0.836247,0.6115537,0.4308326,0.56995076,0.5855549,784.10254,772.01465,772.8205,786.52014,649.5238,-0.2247314453125,0.01153564453125,0.97784423828125,4.53094482421875,-5.630035400390625,1.1962890625,1,1.0,1.0,1.0,1.0,45.00
2021-04-09 22:18:30.134,,,,,,,,,,,,,,,,,,,,,,,,,,,,,,,,,,,,,,/muse/elements/jaw_clench
2021-04-09 22:18:30.564,-0.23112923,0.45753697,0.40290117,0.08495427,0.24642031,0.01662599,-0.03404881,0.4297836,0.38404787,0.5514024,0.44503134,0.3912835,0.83638126,0.75999004,0.78904897,0.836247,0.6115537,0.35425073,0.3547881,0.5855549,809.4872,783.69965,797.8022,813.5165,702.3077,-0.233642578125,0.00634765625,0.97857666015625,4.478607177734375,-5.18890380859375,0.8074951171875,1,1.0,1.0,1.0,1.0,45.00
2021-04-09 22:18:30.993,,,,,,,,,,,,,,,,,,,,,,,,,,,,,,,,,,,,,,/muse/elements/jaw_clench
2021-04-09 22:18:31.071,0.66166514,0.47186172,0.40719613,0.71595895,0.13440801,0.0020664986,-0.03863295,0.48822743,0.36796638,0.35693485,0.44503134,0.47139624,0.9044975,0.79954535,0.81256413,0.9734778,0.6106831,0.36293036,0.3141905,0.5275054,749.85345,727.28937,742.6007,776.8498,867.1062,-0.22021484375,0.00689697265625,0.9766845703125,4.568328857421875,-5.5328369140625,1.682281494140625,1,1.0,1.0,1.0,1.0,45.00
2021-04-09 22:18:31.581,0.7233603,0.45952746,0.43079647,0.71595895,0.14378256,-0.08329617,-0.069755174,0.48822743,0.34182337,0.28260088,0.42752662,0.47139624,0.90902084,0.7947079,0.8336368,0.9734778,0.6411553,0.31659326,0.25874513,0.5275054,765.16486,759.12085,766.77655,793.36993,682.96704,-0.23468017578125,0.01593017578125,0.97711181640625,6.95343017578125,0.471038818359375,-3.24493408203125,1,1.0,1.0,1.0,1.0,45.00
2021-04-09 22:18:31.799,,,,,,,,,,,,,,,,,,,,,,,,,,,,,,,,,,,,,,/muse/elements/jaw_clench
2021-04-09 22:18:32.096,0.6347786,0.45952746,0.43079647,0.7645598,0.052295137,-0.08329617,-0.069755174,0.4844547,0.31207705,0.28260088,0.42752662,0.44320965,0.9146995,0.7947079,0.8336368,0.9658675,0.65649605,0.31659326,0.25874513,0.5456654,829.6337,813.91943,811.9048,818.7546,852.1978,-0.238525390625,0.007568359375,0.971923828125,4.74029541015625,-2.220611572265625,4.08233642578125,1,1.0,1.0,1.0,1.0,45.00
2021-04-09 22:18:32.124,,,,,,,,,,,,,,,,,,,,,,,,,,,,,,,,,,,,,,/muse/elements/jaw_clench
2021-04-09 22:18:32.617,0.6347786,0.45952746,0.3895546,0.47304884,0.052295137,-0.08329617,-0.10837738,0.15447143,0.31207705,0.28260088,0.34270188,0.6027641,0.9146995,0.7947079,0.84518266,0.86647296,0.65649605,0.31659326,0.4081901,0.79913455,798.60803,781.28204,785.7143,792.1612,711.1722,-0.2479248046875,0.01153564453125,0.9703369140625,4.957122802734375,-5.256195068359375,2.0037841796875,1,1.0,1.0,1.0,1.0,45.00
2021-04-09 22:18:33.128,0.81548136,0.45952746,0.54253644,0.5673183,0.58159417,-0.08329617,0.06610038,0.1693564,0.966938,0.28260088,0.6620782,0.7198433,0.7943294,0.7947079,0.8172586,0.85498,0.46235016,0.31659326,0.32470685,0.7661684,817.1429,807.8755,811.0989,832.0513,965.0183,-0.228515625,0.00982666015625,0.976806640625,4.717864990234375,-4.448699951171875,1.218719482421875,1,1.0,1.0,1.0,1.0,45.00
2021-04-09 22:18:33.626,,,,,,,,,,,,,,,,,,,,,,,,,,,,,,,,,,,,,,/muse/elements/jaw_clench
2021-04-09 22:18:33.654,0.6607396,0.18021995,0.52184474,0.5673183,0.5990926,0.3222447,0.039147075,0.1693564,0.96955734,0.44899893,0.67115635,0.7198433,0.8159369,0.7384332,0.7884058,0.85498,0.5181151,0.42621905,0.3691015,0.7661684,788.1319,781.28204,788.1319,795.78754,839.707,-0.2261962890625,0.0133056640625,0.97747802734375,4.85992431640625,-5.944061279296875,1.71966552734375,1,1.0,1.0,1.0,1.0,45.00
2021-04-09 22:18:34.177,0.56611186,0.16446553,0.5543657,0.45844954,0.60561895,0.42670983,0.12546548,0.5388889,0.99908,0.46662918,0.6501235,0.76592773,0.87644,0.75060725,0.7405948,1.0020194,0.4787668,0.38085598,0.37488103,0.4871445,772.4176,762.3443,774.43225,774.0293,558.86444,-0.226318359375,0.01080322265625,0.97882080078125,4.643096923828125,-5.360870361328125,0.814971923828125,1,1.0,1.0,1.0,1.0,45.00
2021-04-09 22:18:34.690,0.32624587,0.19040407,0.5301668,0.27020887,0.55530334,0.3446506,0.17113754,0.65063584,0.85162354,0.46662918,0.5007411,0.83270645,0.9156964,0.76635885,0.71596456,1.0099634,0.4636266,0.3553077,0.45241892,0.49781165,805.05493,788.93774,788.93774,813.5165,844.5421,-0.217529296875,0.01202392578125,0.9786376953125,4.837493896484375,-4.59075927734375,1.069183349609375,1,1.0,1.0,1.0,1.0,45.00
2021-04-09 22:18:35.201,0.30488616,0.22767654,0.5641119,0.34712175,0.4145944,0.25168973,0.25101015,0.54404974,0.7166138,0.30720922,0.37961054,0.84760004,0.9251659,0.8087671,0.72921586,0.9792172,0.36352775,0.29141244,0.4378319,0.40797445,791.3553,774.0293,775.64105,785.7143,803.44324,-0.21795654296875,0.00531005859375,0.97998046875,4.687957763671875,-5.51788330078125,1.203765869140625,1,1.0,1.0,1.0,1.0,45.00
2021-04-09 22:18:35.271,,,,,,,,,,,,,,,,,,,,,,,,,,,,,,,,,,,,,,/muse/elements/jaw_clench
2021-04-09 22:18:35.704,0.35217336,0.25421348,0.42548117,0.3141419,0.26359695,-0.062202454,0.12738118,0.44806743,0.9359406,0.25512528,0.38330188,0.84760004,0.8707948,0.8142904,0.603819,0.9174215,0.40612912,0.19690482,0.43963987,0.4687505,776.4469,763.95605,769.59705,797.8022,819.9634,-0.2177734375,0.01025390625,0.97869873046875,4.972076416015625,-4.912261962890625,1.6448974609375,1,1.0,1.0,1.0,1.0,45.00
2021-04-09 22:18:36.215,0.3517741,0.18160436,-0.08717247,0.29287234,0.073007144,0.055912483,-0.013385217,0.31011477,0.8416785,0.18629488,0.3121922,0.60636437,0.83670026,0.7018028,0.6072083,0.8785991,0.43730724,0.43213424,0.45803317,0.46145633,813.1135,798.60803,806.26373,799.41394,898.93774,-0.202880859375,0.01239013671875,0.9822998046875,4.3365478515625,-5.921630859375,1.323394775390625,1,1.0,1.0,1.0,1.0,45.00
2021-04-09 22:18:36.233,,,,,,,,,,,,,,,,,,,,,,,,,,,,,,,,,,,,,,/muse/elements/jaw_clench
2021-04-09 22:18:36.727,0.37729257,0.31497663,-0.12262582,0.29817256,0.11855081,0.34330088,-0.0441451,0.36687616,0.82600456,0.49335864,0.4728154,0.503579,0.81810385,0.82484454,0.66781783,0.88571256,0.4760158,0.38568655,0.42931697,0.55057275,795.38464,768.7912,792.1612,799.41394,598.3516,-0.207275390625,0.01141357421875,0.97650146484375,4.717864990234375,-4.65057373046875,0.695343017578125,1,1.0,1.0,1.0,1.0,45.00
2021-04-09 22:18:37.079,,,,,,,,,,,,,,,,,,,,,,,,,,,,,,,,,,,,,,/muse/elements/blink
2021-04-09 22:18:37.180,,,,,,,,,,,,,,,,,,,,,,,,,,,,,,,,,,,,,,/muse/elements/jaw_clench
2021-04-09 22:18:37.241,0.39588535,0.30864105,0.037879836,0.37648207,0.16624849,0.28979465,0.14071788,0.4496075,0.74304724,0.6056714,0.5579995,0.4294366,0.8399674,0.84123737,0.68935615,0.9220369,0.4174519,0.35845715,0.38545254,0.509727,803.8461,785.31134,786.1172,813.5165,621.7216,-0.2073974609375,0.01300048828125,0.97857666015625,5.001983642578125,-4.777679443359375,1.502838134765625,1,1.0,1.0,1.0,1.0,45.00
2021-04-09 22:18:37.378,,,,,,,,,,,,,,,,,,,,,,,,,,,,,,,,,,,,,,/muse/elements/jaw_clench
2021-04-09 22:18:37.769,0.44288474,0.32428125,0.18752567,0.5139076,0.22987096,0.2990576,0.10605556,0.4618812,0.37744707,0.60690403,0.5175944,0.40977627,0.8289604,0.8317068,0.73084563,0.95917,0.43137363,0.3424495,0.4228586,0.5463117,825.2015,807.47253,821.5751,852.6007,1114.1025,-0.205810546875,0.01458740234375,0.9786376953125,4.71038818359375,-5.48797607421875,1.1663818359375,1,1.0,1.0,1.0,1.0,45.00
2021-04-09 22:18:37.804,,,,,,,,,,,,,,,,,,,,,,,,,,,,,,,,,,,,,,/muse/elements/jaw_clench
2021-04-09 22:18:38.296,0.44288474,0.38138536,0.3444963,0.5139076,0.22987096,0.15438421,0.17011458,0.4618812,0.37744707,0.68051386,0.53449166,0.40977627,0.8289604,0.7582442,0.72124666,0.95917,0.43137363,0.3489469,0.44911185,0.5463117,773.6264,778.46155,730.10986,774.83514,782.0879,-0.204833984375,0.01617431640625,0.98175048828125,4.792633056640625,-4.957122802734375,0.441131591796875,1,1.0,1.0,1.0,1.0,45.00
2021-04-09 22:18:38.497,,,,,,,,,,,,,,,,,,,,,,,,,,,,,,,,,,,,,,/muse/elements/jaw_clench
2021-04-09 22:18:38.818,0.44288474,0.43297753,0.35259068,0.5139076,0.22987096,0.14066921,-0.056824055,0.4618812,0.37744707,0.5249876,0.11801734,0.40977627,0.8289604,0.6569317,0.7876936,0.95917,0.43137363,0.3780141,0.5543919,0.5463117,807.47253,783.69965,790.54944,817.5458,728.0952,-0.2041015625,0.01275634765625,0.98040771484375,4.6954345703125,-4.134674072265625,1.009368896484375,1,1.0,1.0,1.0,1.0,45.00
2021-04-09 22:18:39.293,,,,,,,,,,,,,,,,,,,,,,,,,,,,,,,,,,,,,,/muse/elements/jaw_clench
2021-04-09 22:18:39.323,0.36606193,0.51121974,0.41142774,0.5139076,0.36509287,0.062001288,-0.011069343,0.4618812,0.09924793,0.49059868,0.03334034,0.40977627,0.8346758,0.5830076,0.7695491,0.95917,0.41811645,0.3274702,0.53523177,0.5463117,798.20514,771.2088,784.5055,813.1135,726.8865,-0.2083740234375,0.011474609375,0.98004150390625,5.14404296875,-5.24871826171875,1.547698974609375,1,1.0,1.0,1.0,1.0,45.00
2021-04-09 22:18:39.510,,,,,,,,,,,,,,,,,,,,,,,,,,,,,,,,,,,,,,/muse/elements/jaw_clench
2021-04-09 22:18:39.824,0.58383566,0.51121974,0.41142774,0.3785461,0.31454706,0.062001288,-0.011069343,0.3629063,0.44528311,0.49059868,0.03334034,0.5093335,0.90931666,0.5830076,0.7695491,0.877878,0.31053436,0.3274702,0.53523177,0.38815436,809.0842,795.78754,803.0403,827.619,782.8938,-0.20947265625,0.014892578125,0.980224609375,4.88983154296875,-4.77020263671875,1.353302001953125,1,1.0,1.0,1.0,1.0,45.00
2021-04-09 22:18:40.123,,,,,,,,,,,,,,,,,,,,,,,,,,,,,,,,,,,,,,/muse/elements/jaw_clench
2021-04-09 22:18:40.322,,,,,,,,,,,,,,,,,,,,,,,,,,,,,,,,,,,,,,/muse/elements/jaw_clench
2021-04-09 22:18:40.348,0.58383566,0.51121974,0.6219779,0.38771293,0.31454706,0.062001288,0.2768421,0.3470055,0.44528311,0.49059868,0.63393855,0.55440164,0.90931666,0.5830076,0.7064261,0.8719801,0.31053436,0.3274702,0.24959618,0.4114705,799.81683,780.87915,787.326,822.7839,957.3626,-0.200927734375,0.0164794921875,0.975830078125,4.448699951171875,-5.39825439453125,1.15142822265625,1,1.0,1.0,1.0,1.0,45.00
2021-04-09 22:18:40.849,,,,,,,,,,,,,,,,,,,,,,,,,,,,,,,,,,,,,,/muse/elements/jaw_clench
2021-04-09 22:18:40.867,0.8348806,0.51121974,0.5973852,0.9057136,0.77136564,0.062001288,0.2711292,0.7494592,0.99835455,0.49059868,0.6408802,0.9394346,0.9666749,0.5830076,0.71939987,0.95883286,0.38186333,0.3274702,0.32579553,0.46999317,771.2088,749.45056,758.315,786.52014,830.4396,-0.20660400390625,0.012451171875,0.98297119140625,4.53094482421875,-5.1141357421875,1.308441162109375,1,1.0,1.0,1.0,1.0,45.00
2021-04-09 22:18:41.380,0.92045206,0.51121974,0.56538564,0.8665699,1.0002344,0.062001288,0.22908722,0.74827063,0.99835455,0.49059868,0.557797,0.97695714,0.96026564,0.5830076,0.8127193,0.98922163,0.52487314,0.3274702,0.5390769,0.56936616,811.9048,818.3516,766.77655,801.02563,685.38464,-0.19342041015625,0.01275634765625,0.98455810546875,4.78515625,-5.084228515625,0.321502685546875,1,1.0,1.0,1.0,1.0,45.00
2021-04-09 22:18:41.416,,,,,,,,,,,,,,,,,,,,,,,,,,,,,,,,,,,,,,/muse/elements/jaw_clench
2021-04-09 22:18:41.897,0.93649495,0.51121974,0.5607434,0.90289,0.95331883,0.062001288,0.22971955,0.78807336,0.99835455,0.49059868,0.5257564,1.0254222,0.94669616,0.5830076,0.8252519,0.97652256,0.52897555,0.3274702,0.572876,0.5599761,805.8608,780.87915,796.1905,813.5165,997.6557,-0.19482421875,0.00921630859375,0.98187255859375,4.32159423828125,-4.448699951171875,0.829925537109375,1,1.0,1.0,1.0,1.0,45.00
2021-04-09 22:18:42.401,0.8545236,0.51121974,0.76079994,0.75595045,0.7254608,0.062001288,0.7094689,0.7835283,0.66353565,0.49059868,0.8959958,0.96410525,0.87177974,0.5830076,0.8329382,0.9506206,0.2260235,0.3274702,0.42546433,0.4722737,764.7619,752.27106,763.5531,784.90845,790.9524,-0.18084716796875,0.09161376953125,0.99249267578125,15.260162353515625,-6.0113525390625,3.551483154296875,1,1.0,1.0,1.0,1.0,45.00
2021-04-09 22:18:42.772,,,,,,,,,,,,,,,,,,,,,,,,,,,,,,,,,,,,,,/muse/elements/jaw_clench
2021-04-09 22:18:42.922,0.7081701,0.51121974,0.8250688,0.7934792,0.65246075,0.062001288,0.91411203,0.8341928,0.7261316,0.49059868,0.88461536,0.9555207,0.9313771,0.5830076,0.80216485,0.92901367,0.13512404,0.3274702,0.2590157,0.33236328,775.64105,753.47986,765.56775,800.6227,796.99634,-0.2274169921875,0.05694580078125,0.98626708984375,1.667327880859375,-2.6318359375,11.5740966796875,1,1.0,1.0,1.0,1.0,45.00
2021-04-09 22:18:43.430,0.6827071,0.74946195,0.8250688,0.7174981,0.5826062,0.48003253,0.91411203,0.77046615,0.727259,0.44843784,0.88461536,0.94305646,0.9427828,0.83196914,0.80216485,0.93797,0.10275543,0.19554901,0.2590157,0.28780785,752.27106,732.9304,740.58606,773.22345,652.3443,-0.2677001953125,0.06683349609375,0.9718017578125,-0.01495361328125,1.338348388671875,6.751556396484375,1,1.0,1.0,1.0,1.0,45.00
2021-04-09 22:18:43.464,,,,,,,,,,,,,,,,,,,,,,,,,,,,,,,,,,,,,,/muse/elements/jaw_clench
2021-04-09 22:18:43.953,0.6411067,0.74946195,0.73258877,0.5383347,0.50056714,0.48003253,0.9104721,0.57848305,0.727259,0.44843784,0.64410937,0.70909715,0.9640744,0.83196914,0.7616224,0.9140971,0.12535712,0.19554901,0.32564747,0.33944327,818.3516,801.4286,799.81683,822.381,569.34064,-0.233154296875,0.04864501953125,0.96954345703125,4.44122314453125,-5.375823974609375,-6.616973876953125,1,1.0,1.0,1.0,1.0,45.00
2021-04-09 22:18:44.407,,,,,,,,,,,,,,,,,,,,,,,,,,,,,,,,,,,,,,/muse/elements/blink
2021-04-09 22:18:44.407,,,,,,,,,,,,,,,,,,,,,,,,,,,,,,,,,,,,,,/muse/elements/jaw_clench
2021-04-09 22:18:44.482,0.7411033,0.74946195,0.73258877,0.5493201,0.3676193,0.48003253,0.9104721,0.03574303,0.3391398,0.44843784,0.64410937,0.38686362,0.95161825,0.83196914,0.7616224,0.90924686,0.20802929,0.19554901,0.32564747,0.35407135,840.5128,809.4872,820.7692,867.50916,927.5458,-0.22601318359375,0.0208740234375,0.96600341796875,4.867401123046875,-6.676788330078125,1.846771240234375,1,1.0,1.0,1.0,1.0,45.00
2021-04-09 22:18:44.911,,,,,,,,,,,,,,,,,,,,,,,,,,,,,,,,,,,,,,/muse/elements/jaw_clench
2021-04-09 22:18:45.007,0.7411033,0.74946195,0.73258877,0.5493201,0.3676193,0.48003253,0.9104721,0.03574303,0.3391398,0.44843784,0.64410937,0.38686362,0.95161825,0.83196914,0.7616224,0.90924686,0.20802929,0.19554901,0.32564747,0.35407135,826.0073,799.011,815.5311,838.49817,712.7839,-0.190185546875,0.02532958984375,0.97955322265625,5.24871826171875,-4.463653564453125,-0.46356201171875,1,1.0,1.0,1.0,1.0,45.00
2021-04-09 22:18:45.397,,,,,,,,,,,,,,,,,,,,,,,,,,,,,,,,,,,,,,/muse/elements/jaw_clench
2021-04-09 22:18:45.508,0.7411033,0.40917078,0.73258877,0.5493201,0.3676193,0.06387952,0.9104721,0.03574303,0.3391398,0.598894,0.64410937,0.38686362,0.95161825,0.6574472,0.7616224,0.90924686,0.20802929,0.6210343,0.32564747,0.35407135,796.1905,774.0293,788.5348,801.4286,748.6447,-0.20489501953125,0.0384521484375,0.9837646484375,5.211334228515625,-4.7552490234375,0.07476806640625,1,1.0,1.0,1.0,1.0,45.00
2021-04-09 22:18:46.023,0.26428875,0.3665822,0.73258877,0.5493201,0.3890147,0.10094694,0.9104721,0.03574303,0.44533485,0.5992089,0.64410937,0.38686362,0.8353979,0.67340857,0.7616224,0.90924686,0.3751479,0.5271597,0.32564747,0.35407135,790.9524,779.2674,802.6374,813.1135,846.55676,-0.20440673828125,0.02783203125,0.982421875,3.4991455078125,-4.26177978515625,0.37384033203125,1,2.0,1.0,1.0,2.0,45.00
2021-04-09 22:18:46.147,,,,,,,,,,,,,,,,,,,,,,,,,,,,,,,,,,,,,,/muse/elements/jaw_clench
2021-04-09 22:18:46.527,0.2970328,0.33734483,0.73258877,0.5744067,0.50248104,0.12937999,0.9104721,0.47048748,0.83455986,0.4578285,0.64410937,0.6940674,0.7410796,0.6513835,0.7616224,0.71951294,0.43665013,0.45150915,0.32564747,0.5739985,791.3553,770.40295,796.99634,817.9487,918.2784,-0.19207763671875,0.03240966796875,0.9864501953125,4.867401123046875,-6.273040771484375,1.069183349609375,1,1.0,1.0,1.0,1.0,45.00
2021-04-09 22:18:46.599,,,,,,,,,,,,,,,,,,,,,,,,,,,,,,,,,,,,,,/muse/elements/jaw_clench
2021-04-09 22:18:46.938,,,,,,,,,,,,,,,,,,,,,,,,,,,,,,,,,,,,,,/muse/elements/jaw_clench
2021-04-09 22:18:47.033,0.338068,0.23901966,0.73258877,0.55813897,0.44847974,0.2321866,0.9104721,0.31495053,0.83456904,0.24715817,0.64410937,0.74708056,0.743822,0.8141422,0.7616224,0.79466575,0.34269264,0.1580007,0.32564747,0.4281352,776.04395,750.2564,782.8938,782.8938,642.27106,-0.19879150390625,0.02935791015625,0.9862060546875,5.084228515625,-4.23187255859375,0.112152099609375,1,1.0,1.0,1.0,1.0,45.00
2021-04-09 22:18:47.232,,,,,,,,,,,,,,,,,,,,,,,,,,,,,,,,,,,,,,/muse/elements/jaw_clench
2021-04-09 22:18:47.535,0.37354437,0.29557425,0.46813926,0.5544089,0.3789426,0.18978389,0.3177711,0.27221838,0.85168546,0.23661228,0.31695622,0.75136113,0.77652735,0.8590745,0.63570064,0.81933177,0.40242833,0.35189304,0.33653298,0.5026594,795.38464,782.8938,791.75824,808.2784,833.2601,-0.2047119140625,0.0296630859375,0.9859619140625,4.85992431640625,-4.702911376953125,0.10467529296875,1,1.0,1.0,1.0,1.0,45.00
2021-04-09 22:18:47.725,,,,,,,,,,,,,,,,,,,,,,,,,,,,,,,,,,,,,,/muse/elements/jaw_clench
2021-04-09 22:18:48.067,0.4481564,0.29557425,0.46813926,0.54125476,0.39665738,0.18978389,0.3177711,0.08890384,0.9380263,0.23661228,0.31695622,0.64294714,0.844325,0.8590745,0.63570064,0.8565629,0.35680187,0.35189304,0.33653298,0.4325724,786.1172,773.6264,784.90845,809.89014,1056.0806,-0.20318603515625,0.0234375,0.98486328125,4.852447509765625,-5.1739501953125,1.472930908203125,1,1.0,1.0,1.0,1.0,45.00
2021-04-09 22:18:48.070,,,,,,,,,,,,,,,,,,,,,,,,,,,,,,,,,,,,,,/muse/elements/jaw_clench
2021-04-09 22:18:48.368,,,,,,,,,,,,,,,,,,,,,,,,,,,,,,,,,,,,,,/muse/elements/jaw_clench
2021-04-09 22:18:48.583,,,,,,,,,,,,,,,,,,,,,,,,,,,,,,,,,,,,,,/muse/elements/jaw_clench
2021-04-09 22:18:48.585,0.60288393,0.3256074,0.56575805,0.59238744,0.3959343,0.15293857,0.3502819,0.049520224,0.8186684,0.1639493,0.65169024,0.57656354,0.8752641,0.8569388,0.58493525,0.9014051,0.42815855,0.4097024,0.34939972,0.57037026,788.1319,761.9414,782.0879,803.8461,826.8132,-0.1993408203125,0.0274658203125,0.98638916015625,4.957122802734375,-4.942169189453125,1.71966552734375,1,1.0,1.0,1.0,1.0,45.00
2021-04-09 22:18:48.891,,,,,,,,,,,,,,,,,,,,,,,,,,,,,,,,,,,,,,/muse/elements/jaw_clench
2021-04-09 22:18:49.057,,,,,,,,,,,,,,,,,,,,,,,,,,,,,,,,,,,,,,/muse/elements/jaw_clench
2021-04-09 22:18:49.108,0.7029732,0.3256074,0.56998,0.59775037,0.5299499,0.15293857,0.2223636,0.071209714,0.8186684,0.1639493,0.6709959,0.55599946,0.8598681,0.8569388,0.53730893,0.8855452,0.31026343,0.4097024,0.3532175,0.5624938,787.326,779.67035,778.46155,810.293,839.304,-0.19403076171875,0.025146484375,0.988525390625,4.284210205078125,-5.016937255859375,0.8673095703125,1,1.0,1.0,1.0,1.0,45.00
2021-04-09 22:18:49.582,,,,,,,,,,,,,,,,,,,,,,,,,,,,,,,,,,,,,,/muse/elements/jaw_clench
2021-04-09 22:18:49.615,0.7473563,0.3256074,0.6241127,0.6784407,0.437845,0.15293857,0.352614,0.46861345,0.75465494,0.1639493,0.68221,0.4351646,0.8148325,0.8569388,0.5374255,0.62953466,0.30421317,0.4097024,0.41889557,0.64299977,805.4579,751.8681,763.5531,800.6227,615.2747,-0.2001953125,0.02301025390625,0.980712890625,4.658050537109375,-4.867401123046875,1.15142822265625,1,1.0,1.0,1.0,1.0,45.00
2021-04-09 22:18:49.779,,,,,,,,,,,,,,,,,,,,,,,,,,,,,,,,,,,,,,/muse/elements/blink
2021-04-09 22:18:49.894,,,,,,,,,,,,,,,,,,,,,,,,,,,,,,,,,,,,,,/muse/elements/jaw_clench
2021-04-09 22:18:50.122,0.7473563,0.3256074,0.6214315,0.6784407,0.437845,0.15293857,0.3566575,0.46861345,0.75465494,0.1639493,0.59446645,0.4351646,0.8148325,0.8569388,0.51912826,0.62953466,0.30421317,0.4097024,0.41436243,0.64299977,807.8755,788.1319,800.2198,814.7253,641.8681,-0.1947021484375,0.02520751953125,0.98028564453125,4.643096923828125,-4.687957763671875,0.8074951171875,1,1.0,1.0,1.0,1.0,45.00
2021-04-09 22:18:50.160,,,,,,,,,,,,,,,,,,,,,,,,,,,,,,,,,,,,,,/muse/elements/jaw_clench
2021-04-09 22:18:50.400,,,,,,,,,,,,,,,,,,,,,,,,,,,,,,,,,,,,,,/muse/elements/jaw_clench
2021-04-09 22:18:50.623,0.7473563,0.3256074,0.5916443,0.7123895,0.437845,0.15293857,0.328998,0.5157578,0.75465494,0.1639493,0.42850965,0.43149766,0.8148325,0.8569388,0.54479015,0.61966413,0.30421317,0.4097024,0.4338493,0.6541501,807.47253,786.1172,803.44324,814.7253,798.20514,-0.1981201171875,0.0255126953125,0.9835205078125,4.844970703125,-5.286102294921875,1.2261962890625,1,1.0,1.0,1.0,1.0,45.00
2021-04-09 22:18:50.677,,,,,,,,,,,,,,,,,,,,,,,,,,,,,,,,,,,,,,/muse/elements/jaw_clench
2021-04-09 22:18:50.998,,,,,,,,,,,,,,,,,,,,,,,,,,,,,,,,,,,,,,/muse/elements/jaw_clench
2021-04-09 22:18:51.130,0.7473563,0.31538588,0.45946196,0.35493323,0.437845,0.17435068,0.2510632,0.46031946,0.75465494,0.25027764,0.48034504,0.19289969,0.8148325,0.5577827,0.573816,0.72850996,0.30421317,0.3315271,0.32346863,0.31003958,790.9524,779.2674,782.49084,784.5055,821.978,-0.19189453125,0.02459716796875,0.984130859375,4.6954345703125,-4.987030029296875,0.8074951171875,1,1.0,1.0,1.0,1.0,45.00
2021-04-09 22:18:51.390,,,,,,,,,,,,,,,,,,,,,,,,,,,,,,,,,,,,,,/muse/elements/jaw_clench
2021-04-09 22:18:51.654,0.32463738,0.41110098,0.58050203,0.64346594,0.46078685,0.2601243,0.26697305,0.38646936,0.5786748,0.47829372,0.3573576,0.44664305,0.61641574,0.4988678,0.60854834,0.7523676,0.3698848,0.382402,0.3414556,0.42136407,792.96704,776.4469,789.7436,790.14655,711.5751,-0.19305419921875,0.0252685546875,0.9896240234375,4.725341796875,-4.59075927734375,1.27105712890625,1,1.0,1.0,1.0,1.0,45.00
2021-04-09 22:18:52.178,0.47393516,0.50382537,0.66821307,0.68360126,0.36681813,0.26367527,0.3666511,0.2875857,0.94121903,0.5442196,0.6268824,0.82930964,0.73668885,0.54176897,0.6362731,0.8386204,0.31134853,0.28579074,0.24033767,0.3977806,781.28204,770.80585,784.5055,793.36993,923.5165,-0.19683837890625,0.020751953125,0.98114013671875,4.598236083984375,-4.6954345703125,1.099090576171875,1,1.0,1.0,1.0,1.0,45.00
2021-04-09 22:18:52.347,,,,,,,,,,,,,,,,,,,,,,,,,,,,,,,,,,,,,,/muse/elements/jaw_clench
2021-04-09 22:18:52.495,,,,,,,,,,,,,,,,,,,,,,,,,,,,,,,,,,,,,,/muse/elements/jaw_clench
2021-04-09 22:18:52.686,0.4933369,0.5275785,0.6028187,0.72574365,0.4864837,0.2773737,0.3112531,0.43746945,1.0007012,0.5636804,0.6779192,0.9969887,0.8033299,0.6125481,0.73522097,0.89447236,0.24112114,0.19743152,0.17466538,0.3506178,783.69965,770.40295,782.49084,801.02563,771.2088,-0.198974609375,0.02313232421875,0.9859619140625,4.83001708984375,-4.91973876953125,0.710296630859375,1,1.0,1.0,1.0,1.0,45.00
2021-04-09 22:18:53.148,,,,,,,,,,,,,,,,,,,,,,,,,,,,,,,,,,,,,,/muse/elements/jaw_clench
2021-04-09 22:18:53.200,0.6061752,0.4839078,0.45980105,0.72210073,0.59351236,0.2682514,0.31483284,0.5150719,0.99991906,0.43766105,0.741492,1.0030773,0.85775036,0.6633821,0.7377906,0.9153957,0.19071713,0.07261428,0.16876534,0.28708443,794.17584,783.69965,777.25275,809.89014,741.79486,-0.1982421875,0.0179443359375,0.98284912109375,4.78515625,-5.06927490234375,-0.9271240234375,1,1.0,1.0,1.0,1.0,45.00
2021-04-09 22:18:53.304,,,,,,,,,,,,,,,,,,,,,,,,,,,,,,,,,,,,,,/muse/elements/jaw_clench
2021-04-09 22:18:53.727,0.6139609,0.35600263,0.4358642,0.7446791,0.71365243,0.32071093,0.29431313,0.69372225,0.96813506,0.33741865,0.72565883,1.0275773,0.84279203,0.69388634,0.7343432,0.87385446,0.2414152,0.062958844,0.16562903,0.33192235,819.9634,776.04395,786.52014,820.7692,641.06226,-0.1795654296875,0.02667236328125,0.98504638671875,5.36834716796875,-8.202056884765625,0.67291259765625,1,1.0,1.0,1.0,1.0,45.00
2021-04-09 22:18:54.228,0.7212411,0.2863048,0.53052956,0.8979273,0.749014,0.3233949,0.29887035,0.8128161,0.71877223,0.2412747,0.44875917,0.8667913,0.8250214,0.6367439,0.70242906,0.8264423,0.32582787,0.10577943,0.26197833,0.43829826,810.293,792.1612,805.4579,826.0073,681.3553,-0.11724853515625,0.02850341796875,0.9932861328125,6.287994384765625,-7.94036865234375,-0.85235595703125,1,1.0,1.0,1.0,1.0,45.00
2021-04-09 22:18:54.435,,,,,,,,,,,,,,,,,,,,,,,,,,,,,,,,,,,,,,/muse/elements/jaw_clench
2021-04-09 22:18:54.738,0.8050648,0.2863048,0.6046555,0.8979273,0.7067504,0.3233949,0.31779632,0.8128161,0.5460193,0.2412747,0.41849414,0.8667913,0.8384753,0.6367439,0.6849723,0.8264423,0.36997452,0.10577943,0.27062726,0.43829826,810.696,789.34064,788.5348,823.5897,876.3736,-0.13311767578125,0.03631591796875,0.9967041015625,5.286102294921875,4.777679443359375,-0.665435791015625,1,1.0,1.0,1.0,1.0,45.00
2021-04-09 22:18:54.938,,,,,,,,,,,,,,,,,,,,,,,,,,,,,,,,,,,,,,/muse/elements/jaw_clench
2021-04-09 22:18:55.248,0.6552243,0.2863048,0.5009881,0.49896064,0.4170475,0.3233949,0.28148153,0.7000052,1.0179952,0.2412747,0.24478148,0.9838326,0.7946662,0.6367439,0.7430103,0.9122381,0.6898417,0.10577943,0.29735142,0.7289047,759.92676,749.85345,764.7619,777.6557,760.32965,-0.14666748046875,0.0435791015625,0.98516845703125,4.807586669921875,-4.366455078125,5.5926513671875,1,1.0,1.0,1.0,1.0,45.00
2021-04-09 22:18:55.565,,,,,,,,,,,,,,,,,,,,,,,,,,,,,,,,,,,,,,/muse/elements/jaw_clench
2021-04-09 22:18:55.760,0.6552243,0.2863048,0.58265865,0.6425163,0.4170475,0.3233949,0.37376708,0.6867815,1.0179952,0.2412747,0.43786058,1.0122526,0.7946662,0.6367439,0.6974503,0.95013,0.6898417,0.10577943,0.28921676,0.7624074,781.685,781.685,791.75824,803.8461,736.1539,-0.160400390625,0.0469970703125,0.987548828125,5.316009521484375,-3.596343994140625,1.92901611328125,1,1.0,1.0,1.0,1.0,45.00
2021-04-09 22:18:55.777,,,,,,,,,,,,,,,,,,,,,,,,,,,,,,,,,,,,,,/muse/elements/jaw_clench
2021-04-09 22:18:56.080,,,,,,,,,,,,,,,,,,,,,,,,,,,,,,,,,,,,,,/muse/elements/jaw_clench
2021-04-09 22:18:56.289,0.57933474,0.2863048,0.601355,0.67806876,0.48220086,0.3233949,0.389695,0.73232085,1.0382138,0.2412747,0.43898404,1.0122102,0.7960887,0.6367439,0.67869085,0.9866522,0.64694333,0.10577943,0.31147876,0.7750554,802.6374,791.75824,780.07324,783.2967,685.38464,-0.17706298828125,0.0535888671875,0.98455810546875,4.777679443359375,-4.044952392578125,-0.5084228515625,1,1.0,1.0,1.0,1.0,45.00
2021-04-09 22:18:56.765,,,,,,,,,,,,,,,,,,,,,,,,,,,,,,,,,,,,,,/muse/elements/jaw_clench
2021-04-09 22:18:56.791,0.3736543,0.2863048,0.6714227,0.743007,0.4858234,0.3233949,0.4498495,0.73827976,0.6016536,0.2412747,0.39571655,1.0122102,0.7770975,0.6367439,0.57950836,1.0283501,0.44957554,0.10577943,0.37964758,0.7950977,787.72894,767.98535,788.1319,790.9524,749.0476,-0.17376708984375,0.0518798828125,0.98797607421875,4.14215087890625,-5.084228515625,1.667327880859375,1,1.0,1.0,1.0,1.0,45.00
2021-04-09 22:18:57.084,,,,,,,,,,,,,,,,,,,,,,,,,,,,,,,,,,,,,,/muse/elements/jaw_clench
2021-04-09 22:18:57.308,0.3723308,0.5557871,0.67376703,0.743007,0.38623103,0.32054543,0.45555598,0.73827976,0.6257305,0.5159824,0.30799764,1.0122102,0.6837056,0.6228628,0.53357625,1.0283501,0.41677418,0.23678903,0.4265383,0.7950977,794.9817,785.31134,788.1319,815.5311,905.78754,-0.15350341796875,0.04541015625,0.98553466796875,5.57769775390625,-3.058013916015625,2.579498291015625,1,1.0,1.0,1.0,1.0,45.00
2021-04-09 22:18:57.381,,,,,,,,,,,,,,,,,,,,,,,,,,,,,,,,,,,,,,/muse/elements/jaw_clench
2021-04-09 22:18:57.578,,,,,,,,,,,,,,,,,,,,,,,,,,,,,,,,,,,,,,/muse/elements/jaw_clench
2021-04-09 22:18:57.743,,,,,,,,,,,,,,,,,,,,,,,,,,,,,,,,,,,,,,/muse/elements/blink
2021-04-09 22:18:57.823,0.40578458,0.5642346,0.67376703,0.743007,0.30100006,0.31328756,0.45555598,0.73827976,0.37954813,0.5159824,0.30799764,1.0122102,0.5928665,0.60559297,0.53357625,1.0283501,0.4069932,0.2819026,0.4265383,0.7950977,796.1905,768.3883,785.31134,809.4872,827.2161,-0.17327880859375,0.0537109375,0.98797607421875,4.777679443359375,-4.015045166015625,2.03369140625,1,1.0,1.0,1.0,1.0,45.00
2021-04-09 22:18:58.346,0.37662116,0.53636014,0.67376703,0.743007,0.23526357,0.21841635,0.45555598,0.73827976,0.3491012,0.3755066,0.30799764,1.0122102,0.5466801,0.5687794,0.53357625,1.0283501,0.43987715,0.3214519,0.4265383,0.7950977,801.8315,773.6264,784.90845,782.8938,579.011,-0.150634765625,0.049560546875,0.9847412109375,11.05072021484375,-3.132781982421875,2.863616943359375,1,1.0,1.0,1.0,1.0,45.00
2021-04-09 22:18:58.712,,,,,,,,,,,,,,,,,,,,,,,,,,,,,,,,,,,,,,/muse/elements/jaw_clench
2021-04-09 22:18:58.875,0.33978203,0.5083245,0.67376703,0.743007,0.20451804,0.16531399,0.45555598,0.73827976,0.347536,0.19037142,0.30799764,1.0122102,0.56630474,0.5194673,0.53357625,1.0283501,0.46869484,0.3704171,0.4265383,0.7950977,821.5751,816.337,785.31134,808.68134,694.65204,-0.17401123046875,0.1324462890625,0.9786376953125,2.87109375,-4.344024658203125,-2.093505859375,1,1.0,1.0,1.0,1.0,45.00
2021-04-09 22:18:59.398,0.59840155,0.5083245,0.8343392,0.29768687,0.2310244,0.16531399,0.40174028,0.23692673,0.11522239,0.19037142,0.37617645,0.2114084,0.6595413,0.5194673,0.6333984,0.8253893,0.46053568,0.3704171,0.51235706,0.44335794,795.38464,777.6557,784.90845,811.0989,834.0659,-0.16766357421875,0.1197509765625,0.981689453125,5.719757080078125,-3.81317138671875,3.207550048828125,1,1.0,1.0,1.0,1.0,45.00
2021-04-09 22:18:59.927,0.6135203,0.5083245,0.795248,0.45945516,0.34155917,0.16531399,0.46581167,0.31326768,0.48510015,0.19037142,0.42372146,0.31268725,0.65632695,0.5194673,0.65027696,0.8482381,0.4519769,0.3704171,0.46925542,0.38360646,763.95605,749.0476,760.7326,776.8498,770.0,-0.15869140625,0.12835693359375,0.99505615234375,7.499237060546875,-10.9161376953125,-6.69921875,1,1.0,1.0,1.0,1.0,45.00
2021-04-09 22:19:00.454,0.64565164,0.5083245,0.77024513,0.638924,0.63697904,0.16531399,0.5777026,0.5594711,0.84113353,0.19037142,0.47913548,0.56281,0.6126058,0.5194673,0.6289592,0.81323534,0.49886855,0.3704171,0.49850106,0.48501515,764.35895,799.81683,780.87915,745.42126,753.8828,-0.19476318359375,0.034423828125,0.9638671875,2.130889892578125,-0.538330078125,-38.199005126953125,1,1.0,1.0,1.0,1.0,45.00
2021-04-09 22:19:00.655,,,,,,,,,,,,,,,,,,,,,,,,,,,,,,,,,,,,,,/muse/elements/blink
2021-04-09 22:19:00.851,,,,,,,,,,,,,,,,,,,,,,,,,,,,,,,,,,,,,,/muse/elements/jaw_clench
2021-04-09 22:19:00.976,0.6719099,1.1489973,0.849377,0.75173753,0.78574955,0.82492286,0.6762161,0.66165197,0.84113353,0.57701313,0.4308023,0.56281,0.5850255,0.533729,0.6312784,0.8130342,0.515934,0.500023,0.52423716,0.50141346,806.6667,774.0293,792.1612,801.02563,553.6264,-0.09454345703125,0.0540771484375,0.99334716796875,13.600311279296875,-3.252410888671875,-17.4359130859375,1,1.0,1.0,1.0,1.0,45.00
2021-04-09 22:19:01.482,0.63145494,1.1489973,0.8376888,0.85007185,0.7839459,0.82492286,0.6154805,0.82804835,0.8267884,0.57701313,0.5169319,0.54395777,0.5671282,0.533729,0.59874564,0.7439052,0.53791285,0.500023,0.48114043,0.66592944,812.3077,797.3993,811.9048,812.71063,710.7692,-0.11767578125,0.07305908203125,0.99005126953125,5.21881103515625,-4.80010986328125,-1.831817626953125,1,1.0,1.0,1.0,1.0,45.00
2021-04-09 22:19:01.668,,,,,,,,,,,,,,,,,,,,,,,,,,,,,,,,,,,,,,/muse/elements/jaw_clench
2021-04-09 22:19:01.993,0.63145494,1.1489973,0.6132518,0.85007185,0.7839459,0.82492286,0.4098531,0.82804835,0.8267884,0.57701313,0.51555735,0.54395777,0.5671282,0.533729,0.56710577,0.7439052,0.53791285,0.500023,0.26805258,0.66592944,786.52014,782.8938,779.67035,786.52014,600.7692,-0.11724853515625,0.0902099609375,0.99017333984375,5.0244140625,-6.05621337890625,0.777587890625,1,1.0,1.0,1.0,1.0,45.00
2021-04-09 22:19:02.496,-0.33393815,0.35894522,0.33375472,0.34221914,0.4224199,-0.41938314,0.2073211,0.20316124,0.9554436,0.23804829,0.51597303,0.8951745,0.69537216,0.5164373,0.5581044,0.82143605,0.2601629,0.13824154,0.11278039,0.350719,792.1612,776.04395,790.14655,786.9231,804.65204,-0.11358642578125,0.09381103515625,0.9912109375,4.493560791015625,-5.061798095703125,2.6617431640625,1,1.0,1.0,1.0,1.0,45.00
2021-04-09 22:19:03.020,-0.106607124,0.21402834,0.22916184,0.3460194,0.27745003,-0.39335102,0.16610172,0.43912962,1.0817474,0.23804829,0.37397075,0.90298474,0.806577,0.48503944,0.5444754,0.7835432,0.2509231,0.09564681,0.1491909,0.34484756,807.47253,794.57874,797.8022,814.3223,721.6484,-0.0902099609375,0.095703125,0.9755859375,5.3533935546875,-8.411407470703125,2.3028564453125,1,1.0,1.0,1.0,1.0,45.00
2021-04-09 22:19:03.545,0.14942244,0.034758016,0.28231555,0.4514754,0.21108702,-0.22787029,0.1773264,0.47739962,1.1044126,0.26837566,0.32295394,0.8901361,0.7890784,0.47708812,0.52885616,0.7799206,0.29725948,0.12820965,0.18189298,0.4003565,771.2088,752.27106,774.43225,809.0842,754.68866,-0.13336181640625,0.150634765625,1.0618896484375,7.0880126953125,-3.177642822265625,-4.987030029296875,1,1.0,1.0,1.0,1.0,45.00
2021-04-09 22:19:04.047,0.5425031,0.18188012,0.2686306,0.47921696,0.0879803,-0.16232018,0.09949139,0.46645316,0.99342775,0.23343667,0.3146064,0.7339085,0.7679597,0.46040988,0.5460621,0.729931,0.34374103,0.121871434,0.1976147,0.47121665,797.3993,786.1172,802.23444,814.7253,620.9158,-0.0733642578125,0.11773681640625,0.98785400390625,0.46356201171875,-8.142242431640625,-16.7181396484375,1,1.0,1.0,1.0,1.0,45.00
2021-04-09 22:19:04.565,0.66408,0.24687041,0.15480869,0.5677539,0.4023435,0.025812108,-0.035611086,0.4067418,0.8991213,0.3320047,0.3876774,0.46321777,0.7222984,0.56834847,0.59678155,0.7250788,0.38222685,0.13475369,0.13100113,0.48300314,807.47253,781.28204,792.1612,805.4579,961.39197,-0.00335693359375,0.02734375,0.9920654296875,2.370147705078125,-11.065673828125,-17.5555419921875,1,1.0,1.0,1.0,1.0,45.00
2021-04-09 22:19:05.070,0.66337305,0.23593573,0.05085075,0.6206525,0.586878,0.092166595,-0.18375412,0.37039462,0.9351027,0.30337965,0.4346387,0.44573873,0.74311614,0.58871484,0.6068761,0.6866785,0.33819002,0.09737887,0.10554388,0.43672734,795.78754,765.16486,792.96704,800.2198,743.8095,0.0384521484375,-0.07208251953125,0.97344970703125,1.652374267578125,-15.850830078125,-21.69769287109375,1,1.0,1.0,1.0,1.0,45.00
2021-04-09 22:19:05.604,0.44984838,0.25149143,0.08947552,0.5906676,0.55696005,0.22337198,0.029647171,0.39665803,0.90129036,0.27218208,0.44049412,0.59492266,0.7691295,0.58426607,0.5841841,0.63662714,0.3139986,0.10005265,0.15131873,0.32478705,801.02563,786.52014,797.8022,813.5165,636.2271,0.10400390625,-0.03173828125,0.98516845703125,3.087921142578125,-9.031982421875,-6.59454345703125,1,1.0,1.0,1.0,1.0,45.00
2021-04-09 22:19:06.127,0.46208182,0.50240874,0.36236972,0.51502687,0.29455996,0.2104246,0.34761685,0.22040696,0.8222269,0.40516537,0.6685604,0.49411654,0.6965725,0.49350795,0.5582137,0.5791544,0.2768314,0.17165698,0.23548457,0.30890957,793.7729,772.8205,788.1319,804.65204,742.6007,0.15362548828125,-0.0028076171875,0.99176025390625,7.738494873046875,-7.932891845703125,1.74957275390625,1,1.0,1.0,1.0,1.0,45.00
2021-04-09 22:19:06.633,0.48104528,0.5991756,0.4594711,0.38523972,0.049959958,0.30943277,0.44262266,0.16925934,0.7363419,0.460342,0.6719373,0.48330808,0.64469445,0.48260638,0.5440126,0.66077673,0.2587711,0.20113909,0.24419075,0.30549648,786.52014,784.90845,805.4579,803.0403,645.09155,0.11077880859375,0.00616455078125,1.0072021484375,8.650665283203125,-0.949554443359375,7.065582275390625,1,1.0,1.0,1.0,1.0,45.00
2021-04-09 22:19:07.145,0.6532963,0.6123376,0.56282353,0.55294716,0.10209472,0.3014753,0.48301068,0.20538142,0.5256512,0.44956768,0.67406195,0.38083723,0.7118997,0.46959728,0.54769236,0.7316253,0.2628356,0.2522552,0.21383236,0.2933489,817.1429,812.3077,817.9487,840.10986,888.46155,-0.046630859375,0.00506591796875,0.99896240234375,10.445098876953125,10.774078369140625,20.037841796875,1,1.0,1.0,1.0,1.0,45.00
2021-04-09 22:19:07.675,0.63570666,0.5749947,0.6358895,0.7940441,0.13192375,0.35478115,0.24415231,0.4095357,0.39987108,0.23993564,0.42085657,0.8369077,0.73520505,0.45516965,0.50849205,0.73460555,0.27672094,0.24209759,0.1597003,0.30024028,752.674,749.85345,753.47986,755.4945,1014.57874,-0.0966796875,0.0985107421875,0.98614501953125,6.347808837890625,3.416900634765625,14.1162109375,1,1.0,1.0,1.0,1.0,45.00
2021-04-09 22:19:08.181,1.208219,0.6732353,0.40576684,1.2057714,0.9923336,0.38854447,0.16150355,0.95249987,0.8412839,0.21729943,0.25855005,1.165442,0.723028,0.398903,0.51513505,0.78122336,0.41227663,0.1886379,0.22404492,0.42894462,771.2088,756.7033,759.92676,778.46155,845.34796,-0.1607666015625,0.1337890625,0.99444580078125,4.822540283203125,-2.474822998046875,32.920379638671875,1,1.0,1.0,1.0,1.0,45.00
2021-04-09 22:19:08.685,1.2174444,0.43921205,0.47647586,1.2940593,1.0875529,0.034131985,0.07829321,1.0490097,0.88535666,0.40023693,0.29843017,1.1664333,0.67535245,0.612514,0.58254766,0.81582564,0.4831008,0.32155278,0.34854835,0.5004739,797.3993,796.5934,793.7729,798.20514,712.7839,-0.14215087890625,0.14495849609375,0.97442626953125,3.072967529296875,6.74407958984375,31.753997802734375,1,1.0,1.0,1.0,1.0,45.00
2021-04-09 22:19:09.201,1.2174444,0.43921205,0.47647586,1.4082545,1.0875529,0.034131985,0.07829321,1.2246833,0.88535666,0.40023693,0.29843017,1.1664333,0.67535245,0.612514,0.58254766,0.87037325,0.4831008,0.32155278,0.34854835,0.5843851,772.01465,758.315,774.83514,783.69965,805.4579,-0.1812744140625,0.10260009765625,0.9735107421875,-4.725341796875,-0.261688232421875,17.06207275390625,1,1.0,1.0,1.0,1.0,45.00
2021-04-09 22:19:09.710,0.8308894,0.41573134,0.60125595,1.239141,0.9578564,-0.020219525,-0.083445266,1.1480914,0.73583674,0.37045297,0.24127224,1.0304474,0.67852527,0.59089124,0.619303,0.8767297,0.52757096,0.26982793,0.36273313,0.6045993,778.46155,751.8681,755.09155,773.22345,898.1319,-0.23602294921875,0.19561767578125,0.98248291015625,5.988922119140625,-4.007568359375,1.2261962890625,1,1.0,1.0,1.0,1.0,45.00
2021-04-09 22:19:10.235,0.8308894,0.41573134,0.60125595,1.239141,0.9578564,-0.020219525,-0.083445266,1.1480914,0.73583674,0.37045297,0.24127224,1.0304474,0.67852527,0.59089124,0.619303,0.8767297,0.52757096,0.26982793,0.36273313,0.6045993,768.3883,771.2088,764.7619,779.2674,776.8498,-0.21490478515625,0.1630859375,0.95013427734375,6.407623291015625,-1.80938720703125,-3.581390380859375,1,1.0,1.0,1.0,1.0,45.00
2021-04-09 22:19:10.504,,,,,,,,,,,,,,,,,,,,,,,,,,,,,,,,,,,,,,/muse/elements/jaw_clench
2021-04-09 22:19:10.765,0.8308894,0.41573134,0.60125595,1.239141,0.9578564,-0.020219525,-0.083445266,1.1480914,0.73583674,0.37045297,0.24127224,1.0304474,0.67852527,0.59089124,0.619303,0.8767297,0.52757096,0.26982793,0.36273313,0.6045993,776.04395,778.46155,788.5348,796.1905,890.07324,-0.2012939453125,0.18829345703125,0.97967529296875,8.815155029296875,-7.245025634765625,-7.8656005859375,1,1.0,1.0,1.0,1.0,45.00
2021-04-09 22:19:11.270,0.8308894,0.41573134,0.60125595,1.239141,0.9578564,-0.020219525,-0.083445266,1.1480914,0.73583674,0.37045297,0.24127224,1.0304474,0.67852527,0.59089124,0.619303,0.8767297,0.52757096,0.26982793,0.36273313,0.6045993,792.1612,761.53845,762.74725,790.9524,748.6447,-0.2861328125,0.20794677734375,0.95025634765625,12.18719482421875,1.48040771484375,-8.665618896484375,1,2.0,1.0,1.0,2.0,45.00
2021-04-09 22:19:11.419,,,,,,,,,,,,,,,,,,,,,,,,,,,,,,,,,,,,,,/muse/elements/blink
2021-04-09 22:19:11.781,0.8308894,0.41573134,0.60125595,1.239141,0.9578564,-0.020219525,-0.083445266,1.1480914,0.73583674,0.37045297,0.24127224,1.0304474,0.67852527,0.59089124,0.619303,0.8767297,0.52757096,0.26982793,0.36273313,0.6045993,792.1612,790.54944,749.0476,774.43225,575.78754,-0.37689208984375,0.18377685546875,0.8951416015625,4.448699951171875,-0.605621337890625,-0.0299072265625,1,2.0,1.0,1.0,2.0,45.00
2021-04-09 22:19:12.286,0.8308894,0.41573134,0.60125595,1.239141,0.9578564,-0.020219525,-0.083445266,1.1480914,0.73583674,0.37045297,0.24127224,1.0304474,0.67852527,0.59089124,0.619303,0.8767297,0.52757096,0.26982793,0.36273313,0.6045993,817.1429,810.293,814.3223,813.91943,869.12085,-0.302001953125,0.21868896484375,0.91009521484375,7.065582275390625,-11.940460205078125,3.75335693359375,1,2.0,1.0,1.0,2.0,45.00
2021-04-09 22:19:12.800,0.8308894,0.41573134,0.60125595,1.239141,0.9578564,-0.020219525,-0.083445266,1.1480914,0.73583674,0.37045297,0.24127224,1.0304474,0.67852527,0.59089124,0.619303,0.8767297,0.52757096,0.26982793,0.36273313,0.6045993,779.2674,785.7143,776.04395,786.9231,750.65936,-0.2991943359375,0.1192626953125,0.9302978515625,8.50860595703125,-0.411224365234375,-12.957305908203125,1,2.0,1.0,1.0,2.0,45.00
2021-04-09 22:19:13.153,,,,,,,,,,,,,,,,,,,,,,,,,,,,,,,,,,,,,,/muse/elements/jaw_clench
2021-04-09 22:19:13.313,1.297513,0.41573134,0.60125595,1.2598282,0.7582359,-0.020219525,-0.083445266,0.80997515,0.8157611,0.37045297,0.24127224,0.7855023,0.7654656,0.59089124,0.619303,0.7741133,0.44711432,0.26982793,0.36273313,0.2961006,762.74725,753.47986,759.5238,760.7326,586.26373,-0.29730224609375,0.139404296875,0.96624755859375,-0.979461669921875,-11.70867919921875,-5.136566162109375,1,1.0,1.0,1.0,1.0,45.00
2021-04-09 22:19:13.743,,,,,,,,,,,,,,,,,,,,,,,,,,,,,,,,,,,,,,/muse/elements/blink
2021-04-09 22:19:13.839,1.297513,0.41573134,0.60125595,1.2598282,0.7582359,-0.020219525,-0.083445266,0.80997515,0.8157611,0.37045297,0.24127224,0.7855023,0.7654656,0.59089124,0.619303,0.7741133,0.44711432,0.26982793,0.36273313,0.2961006,873.95605,813.91943,788.1319,886.4469,759.92676,-0.2978515625,0.07037353515625,0.96380615234375,1.323394775390625,2.400054931640625,3.81317138671875,1,1.0,1.0,1.0,1.0,45.00
2021-04-09 22:19:13.967,,,,,,,,,,,,,,,,,,,,,,,,,,,,,,,,,,,,,,/muse/elements/jaw_clench
2021-04-09 22:19:14.365,1.297513,0.41573134,0.60125595,1.3287051,0.7582359,-0.020219525,-0.083445266,0.8721763,0.8157611,0.37045297,0.24127224,0.7821979,0.7654656,0.59089124,0.619303,0.7913174,0.44711432,0.26982793,0.36273313,0.22843999,772.4176,780.87915,746.2271,742.6007,850.18317,-0.3194580078125,0.11883544921875,0.94390869140625,1.2261962890625,-1.4654541015625,12.501220703125,1,1.0,1.0,1.0,1.0,45.00
2021-04-09 22:19:14.873,1.297513,0.41573134,0.60125595,1.3287051,0.7582359,-0.020219525,-0.083445266,0.8721763,0.8157611,0.37045297,0.24127224,0.7821979,0.7654656,0.59089124,0.619303,0.7913174,0.44711432,0.26982793,0.36273313,0.22843999,830.84247,814.7253,812.3077,801.02563,843.73627,-0.32470703125,0.09967041015625,0.9468994140625,1.996307373046875,-6.3104248046875,-4.3365478515625,1,1.0,1.0,1.0,1.0,45.00
2021-04-09 22:19:15.380,1.297513,0.95919406,0.60125595,1.3287051,0.7582359,0.5363714,-0.083445266,0.8721763,0.8157611,0.6801116,0.24127224,0.7821979,0.7654656,0.65145797,0.619303,0.7913174,0.44711432,0.10396992,0.36273313,0.22843999,810.696,791.3553,799.81683,802.6374,665.64105,-0.298828125,0.09124755859375,0.947265625,3.671112060546875,-6.317901611328125,-3.4393310546875,1,1.0,1.0,1.0,1.0,45.00
2021-04-09 22:19:15.893,1.297513,0.9588776,0.60125595,1.3287051,0.7582359,0.50070214,-0.083445266,0.8721763,0.8157611,0.6801116,0.24127224,0.7821979,0.7654656,0.65324783,0.619303,0.7913174,0.44711432,0.1182057,0.36273313,0.22843999,787.326,780.87915,795.38464,784.10254,668.46155,-0.2874755859375,0.07855224609375,0.95416259765625,4.029998779296875,-7.603912353515625,0.381317138671875,1,2.0,1.0,1.0,2.0,45.00
2021-04-09 22:19:16.403,0.67196804,0.9615332,0.60125595,0.7139159,0.48790902,0.38983962,-0.083445266,0.5536835,0.6734804,0.7567191,0.24127224,0.5672585,0.90088344,0.6757117,0.619303,0.8738859,0.42944795,0.17295954,0.36273313,0.1530311,805.8608,797.3993,817.1429,810.696,873.5531,-0.28558349609375,0.06689453125,0.955322265625,3.93280029296875,-4.02252197265625,1.667327880859375,1,1.0,1.0,1.0,1.0,45.00
2021-04-09 22:19:16.880,,,,,,,,,,,,,,,,,,,,,,,,,,,,,,,,,,,,,,/muse/elements/blink
2021-04-09 22:19:16.904,0.6962887,0.87183815,0.60125595,0.71419793,0.5309558,0.4153158,-0.083445266,0.5151767,0.6988532,0.7475472,0.24127224,0.57523423,0.8558721,0.6634122,0.619303,0.8504096,0.40479416,0.16965497,0.36273313,0.16412096,837.28937,792.1612,796.1905,851.79486,1120.5494,-0.3004150390625,0.06549072265625,0.95184326171875,4.583282470703125,-4.433746337890625,0.94207763671875,1,1.0,1.0,1.0,1.0,45.00
2021-04-09 22:19:17.411,0.6606123,0.8780556,0.60125595,0.71419793,0.5236463,0.4138578,-0.083445266,0.5151767,0.6988532,0.8273557,0.24127224,0.57523423,0.8470869,0.60017985,0.619303,0.8504096,0.39563298,0.21449068,0.36273313,0.16412096,788.5348,774.83514,791.3553,794.9817,778.46155,-0.2996826171875,0.06573486328125,0.95098876953125,4.852447509765625,-4.463653564453125,0.934600830078125,1,1.0,1.0,1.0,1.0,45.00
2021-04-09 22:19:17.913,0.61658585,0.7939878,0.60125595,0.60235804,0.5052488,0.3341006,-0.083445266,0.35070035,0.5340209,0.71518326,0.24127224,0.29144284,0.74916387,0.5409908,0.619303,0.82171655,0.33436605,0.18112089,0.36273313,0.13696136,801.4286,791.75824,794.57874,798.20514,706.7399,-0.3057861328125,0.06500244140625,0.9501953125,4.852447509765625,-4.85992431640625,0.58319091796875,1,1.0,1.0,1.0,1.0,45.00
2021-04-09 22:19:18.423,0.61658585,0.6591122,0.4769332,0.60235804,0.5052488,0.19685234,0.07146011,0.35070035,0.5340209,0.71556175,0.223421,0.29144284,0.74916387,0.5181674,0.5329736,0.82171655,0.33436605,0.15751152,0.13738327,0.13696136,782.8938,780.4762,779.2674,788.5348,924.7253,-0.310791015625,0.06170654296875,0.95562744140625,4.5159912109375,-4.44122314453125,-0.456085205078125,1,1.0,1.0,1.0,1.0,45.00
2021-04-09 22:19:18.930,0.42248258,0.33097857,0.4769332,0.6284046,0.3556262,-0.08810814,0.07146011,0.43088794,0.8932019,0.4985554,0.223421,0.18182804,0.6489948,0.51132333,0.5329736,0.7194237,0.11969114,0.07081114,0.13738327,0.30486497,784.90845,767.1795,780.87915,789.34064,699.89014,-0.31134033203125,0.05816650390625,0.95184326171875,5.14404296875,-4.97955322265625,0.25421142578125,1,1.0,1.0,1.0,1.0,45.00
2021-04-09 22:19:19.443,0.41912925,0.37453645,0.48328435,0.7779614,0.3587327,0.14274201,0.09963055,0.45656568,0.9729218,0.5268192,0.20891172,0.227907,0.67764354,0.4749601,0.51478004,0.7285361,0.18817076,0.15338051,0.15014231,0.32436693,809.4872,796.99634,811.0989,817.9487,809.4872,-0.30816650390625,0.05621337890625,0.9495849609375,4.852447509765625,-5.6524658203125,0.545806884765625,1,1.0,1.0,1.0,1.0,45.00
2021-04-09 22:19:19.939,,,,,,,,,,,,,,,,,,,,,,,,,,,,,,,,,,,,,,/muse/elements/blink
2021-04-09 22:19:19.951,0.40537217,0.4253286,0.2899166,0.6921221,0.40725514,0.23520973,0.3040883,0.46671554,0.9738299,0.45834172,0.37269154,0.18519522,0.66478217,0.4835608,0.5032281,0.71875805,0.2232472,0.22130816,0.33551374,0.3456328,809.89014,765.9707,774.43225,794.9817,592.3077,-0.30364990234375,0.05340576171875,0.950927734375,4.388885498046875,-4.762725830078125,-0.01495361328125,1,1.0,1.0,1.0,1.0,45.00
2021-04-09 22:19:20.467,0.3830144,0.4253286,0.61183196,0.72662693,0.32656538,0.23520973,0.434235,0.42068872,0.95220625,0.45834172,0.46474475,0.1695879,0.69796413,0.4835608,0.53913176,0.74406445,0.26484922,0.22130816,0.35720202,0.3842828,782.8938,778.0586,777.6557,790.9524,792.96704,-0.30035400390625,0.04498291015625,0.95849609375,4.119720458984375,-6.258087158203125,0.052337646484375,1,1.0,1.0,1.0,1.0,45.00
2021-04-09 22:19:20.972,0.26976416,0.27296954,0.61183196,0.72662693,0.14400652,0.1171279,0.434235,0.42068872,0.7112015,0.31787932,0.46474475,0.1695879,0.70014006,0.5564047,0.53913176,0.74406445,0.25078094,0.149301,0.35720202,0.3842828,801.4286,788.93774,805.8608,807.8755,652.3443,-0.2960205078125,0.04571533203125,0.95733642578125,4.613189697265625,-4.015045166015625,1.98883056640625,1,1.0,1.0,1.0,1.0,45.00
2021-04-09 22:19:21.488,0.26976416,0.27296954,0.78898036,0.72662693,0.14400652,0.1171279,0.5114405,0.42068872,0.7112015,0.31787932,0.3162179,0.1695879,0.70014006,0.5564047,0.5958179,0.74406445,0.25078094,0.149301,0.3953618,0.3842828,766.3736,755.09155,768.3883,780.4762,718.022,-0.292236328125,0.05096435546875,0.95770263671875,5.136566162109375,-4.987030029296875,0.7476806640625,1,1.0,1.0,1.0,1.0,45.00
2021-04-09 22:19:21.991,0.26976416,0.27296954,0.7402615,0.72662693,0.14400652,0.1171279,0.2412599,0.42068872,0.7112015,0.31787932,0.3017467,0.1695879,0.70014006,0.5564047,0.5765792,0.74406445,0.25078094,0.149301,0.13077761,0.3842828,793.7729,781.28204,805.8608,806.6667,777.6557,-0.287841796875,0.0528564453125,0.95733642578125,5.001983642578125,-6.093597412109375,0.844879150390625,1,1.0,1.0,1.0,1.0,45.00
2021-04-09 22:19:22.505,0.26976416,0.983099,0.64650637,0.5364384,0.14400652,0.38524276,0.27388123,0.46698257,0.7112015,0.6691046,0.42804042,0.45338425,0.70014006,0.6281879,0.64694566,0.8234323,0.25078094,0.27376014,0.12642646,0.44705996,791.75824,820.7692,763.1502,776.8498,690.6227,-0.28680419921875,0.050537109375,0.9599609375,4.508514404296875,-4.433746337890625,-0.007476806640625,1,1.0,1.0,1.0,1.0,45.00
2021-04-09 22:19:23.030,0.33124933,0.84997666,0.6162568,0.55209726,-0.112974264,0.5639443,0.25748083,0.42856297,0.5567612,0.92098546,0.43151876,0.50415987,0.6684997,0.56887394,0.63452023,0.79159147,0.24094686,0.18644945,0.1088309,0.4348135,768.7912,763.5531,772.8205,770.80585,719.2308,-0.2825927734375,0.0428466796875,0.951171875,7.955322265625,-5.72723388671875,1.51031494140625,1,1.0,1.0,1.0,1.0,45.00
2021-04-09 22:19:23.550,0.25128648,0.87675893,0.4993221,0.8548421,-0.056041818,0.6231409,0.26870716,0.37108475,0.5909641,0.94416344,0.39144465,0.6287966,0.7142724,0.5836281,0.67163277,0.73308426,0.18068078,0.06715105,0.09244662,0.3503059,807.8755,788.5348,811.9048,815.5311,981.13556,-0.275390625,0.1121826171875,0.9588623046875,1.472930908203125,-6.57958984375,1.861724853515625,1,1.0,1.0,1.0,1.0,45.00
2021-04-09 22:19:24.067,0.28606093,0.82546574,0.45769536,0.9639332,0.17233515,0.5905734,0.41965288,0.31490085,0.7991285,0.9633124,0.34997594,0.77226686,0.7354862,0.60683495,0.5950537,0.7288914,0.13086353,-0.07718368,0.015846083,0.19297053,788.1319,778.0586,786.1172,774.83514,782.49084,-0.2513427734375,0.0673828125,0.96795654296875,3.96270751953125,-5.4132080078125,-0.456085205078125,1,1.0,1.0,1.0,1.0,45.00
2021-04-09 22:19:24.569,0.45485622,0.7292051,0.4013765,0.88706756,0.30117902,0.47023022,0.34941322,0.2766428,0.7867965,0.9436647,0.40027183,0.77226686,0.7143539,0.56709427,0.5887974,0.74960065,0.06435967,-0.057549503,0.09706042,0.16265576,772.4176,770.0,776.4469,776.04395,857.4359,-0.2528076171875,0.0694580078125,0.96624755859375,4.91973876953125,-5.0543212890625,0.97198486328125,1,1.0,1.0,1.0,1.0,45.00
2021-04-09 22:19:25.078,0.5321264,0.62073207,0.43058893,0.80182034,0.33605042,0.29248565,0.3048253,0.2369518,0.7595573,0.47974858,0.40604788,0.774317,0.6859631,0.5561979,0.597037,0.77009946,0.22081463,8.977478E-4,0.13086326,0.29357004,813.5165,793.36993,806.6667,803.44324,827.2161,-0.2470703125,0.0556640625,0.9658203125,4.568328857421875,-5.03936767578125,1.06170654296875,1,1.0,1.0,1.0,1.0,45.00
2021-04-09 22:19:25.404,,,,,,,,,,,,,,,,,,,,,,,,,,,,,,,,,,,,,,/muse/elements/blink
2021-04-09 22:19:25.599,0.5450404,0.7251539,0.49224475,0.7478281,0.23353517,0.35448533,0.14497231,0.1706763,0.5865038,0.32527155,0.6336931,0.61989754,0.59665006,0.50458264,0.55415326,0.75066483,0.29621223,0.07064607,0.12826295,0.35615605,810.293,771.6117,799.41394,802.6374,705.5311,-0.2528076171875,0.0531005859375,0.96575927734375,4.8748779296875,-3.96270751953125,1.495361328125,1,1.0,1.0,1.0,1.0,45.00
2021-04-09 22:19:26.127,0.4005629,0.5225357,0.48501053,0.89784354,0.10850159,-0.022079784,0.1274193,0.21025497,0.23103917,0.48899868,0.6012352,0.42872617,0.60165924,0.51762927,0.40797725,0.73983943,0.40789855,0.19232282,0.06781468,0.52894664,778.46155,763.5531,776.8498,767.1795,682.96704,-0.2711181640625,0.0528564453125,0.9639892578125,4.246826171875,-4.127197265625,1.173858642578125,1,1.0,1.0,1.0,1.0,45.00
2021-04-09 22:19:26.641,0.1833476,0.4642942,0.48849264,0.89784354,0.061145972,-0.0058740554,0.1322403,0.21025497,0.14700542,0.57158464,0.59047973,0.42872617,0.48896188,0.5084573,0.3188043,0.73983943,0.41240084,0.25698283,0.1102049,0.52894664,790.9524,771.2088,784.10254,781.685,738.97437,-0.25927734375,0.04931640625,0.96734619140625,4.20196533203125,-4.239349365234375,0.55328369140625,1,1.0,1.0,1.0,1.0,45.00
2021-04-09 22:19:27.147,0.8992109,0.45641002,0.41539228,0.95189476,0.9062699,0.155437,0.17769268,0.60730696,0.7318536,0.57158464,0.33556223,0.5841746,0.64819753,0.49369413,0.42867458,0.7657097,0.37352234,0.26909813,0.21026872,0.4836665,780.07324,773.6264,772.8205,768.7912,634.61536,-0.2647705078125,0.04571533203125,0.96417236328125,4.433746337890625,-5.241241455078125,0.61309814453125,1,1.0,1.0,1.0,1.0,40.00
2021-04-09 22:19:27.673,0.8216534,0.47327015,0.46528035,0.96280956,0.81849223,0.21158576,0.22895148,0.60430384,0.73281527,0.5297535,0.34861434,0.6416992,0.6794474,0.49848932,0.49332112,0.8240645,0.36766568,0.28858328,0.25282785,0.47219512,796.1905,776.4469,796.99634,812.3077,767.5824,-0.25885009765625,0.0426025390625,0.96685791015625,4.0673828125,-5.63751220703125,1.00189208984375,1,1.0,1.0,1.0,1.0,40.00
2021-04-09 22:19:28.200,0.78088623,0.40006295,0.38646477,0.96632445,0.76973575,0.30038106,0.2787686,0.5957738,0.72222805,0.3065544,0.37205863,0.6383244,0.70080876,0.49351066,0.5724016,0.84088993,0.36564794,0.20223005,0.27856797,0.48671106,795.78754,786.9231,792.96704,798.20514,700.293,-0.252197265625,0.04437255859375,0.97003173828125,4.725341796875,-4.987030029296875,1.9140625,1,1.0,1.0,1.0,1.0,40.00
2021-04-09 22:19:28.708,0.05886236,0.28425315,0.4197554,0.9470302,-0.023104366,0.16801174,0.13275509,0.51785624,0.4979824,0.08332113,0.50420547,0.5912199,0.7105914,0.53234935,0.41508955,0.8515985,0.35883728,0.13103743,0.19285946,0.44112968,794.57874,779.67035,780.07324,761.53845,643.47986,-0.251708984375,0.04693603515625,0.97235107421875,4.97955322265625,-4.7552490234375,1.218719482421875,1,1.0,1.0,1.0,1.0,40.00
2021-04-09 22:19:29.237,-0.0810603,0.4676446,0.3349712,0.98406404,0.22353874,0.17374076,0.07833482,0.52789736,0.359829,0.119902276,0.43874672,0.48391104,0.6173479,0.53315187,0.39124286,0.8502633,0.32902488,0.121314324,0.13523968,0.44398206,812.3077,790.54944,791.3553,789.7436,670.4762,-0.270263671875,0.06060791015625,0.947265625,4.792633056640625,-4.029998779296875,10.8563232421875,1,1.0,1.0,1.0,1.0,40.00
2021-04-09 22:19:29.765,-0.1891577,0.49080935,0.26495728,0.5098164,0.35409892,0.22138672,0.052613884,0.412272,0.3864386,0.2190289,0.42765707,0.46339408,0.55968946,0.5360358,0.44719538,0.65527654,0.307515,0.12717818,0.09698959,0.24877658,808.68134,800.2198,794.17584,780.4762,739.3773,-0.21600341796875,0.04046630859375,0.93365478515625,2.31781005859375,-5.510406494140625,17.86956787109375,1,1.0,1.0,1.0,1.0,40.00
2021-04-09 22:19:30.266,-0.10683868,0.48009592,0.276954,0.5320523,0.43336815,0.21892928,0.08217577,0.36038828,0.53313243,0.32117945,0.14315803,0.46535715,0.5511132,0.51521367,0.47660062,0.68083555,0.3237295,0.12954584,0.17807892,0.38224268,806.6667,814.3223,793.36993,805.4579,842.9304,-0.2261962890625,0.095703125,0.95074462890625,8.6431884765625,-7.177734375,-24.0753173828125,1,1.0,1.0,1.0,1.0,40.00
2021-04-09 22:19:30.768,0.10122591,0.40736568,0.33010167,0.73881185,0.45052835,0.21035504,0.1048889,0.29461777,0.49514946,0.6275633,0.18625452,0.4783422,0.61122614,0.50769395,0.47941458,0.7211151,0.48536664,0.28127417,0.31548142,0.44153658,831.2454,801.4286,812.71063,819.15753,1105.641,-0.13818359375,0.11187744140625,0.98541259765625,11.551666259765625,-9.562835693359375,-39.799041748046875,1,1.0,1.0,1.0,1.0,40.00
2021-04-09 22:19:31.296,0.4776796,0.49445093,0.46571425,0.73633116,0.3629406,0.16362636,0.2002142,0.098247,0.5905988,0.631771,0.21651454,0.2990001,0.5701635,0.44518405,0.44615355,0.69570065,0.45585665,0.2766532,0.30160886,0.3813638,784.90845,775.2381,785.31134,790.54944,729.304,-0.205810546875,0.0067138671875,0.987548828125,7.379608154296875,3.33465576171875,-9.22637939453125,1,1.0,1.0,1.0,1.0,40.00
2021-04-09 22:19:31.820,0.5929444,0.52234524,0.4989183,0.76542115,0.28333676,0.10829435,0.16493118,0.26705796,0.62992364,0.631771,0.2471328,0.33974653,0.5338809,0.45003083,0.43347022,0.69462955,0.3589394,0.18573307,0.19449934,0.25530323,790.54944,786.52014,792.5641,807.8755,656.3736,-0.158447265625,-0.0103759765625,0.98822021484375,15.50689697265625,-6.1309814453125,-18.961181640625,1,1.0,1.0,1.0,1.0,40.00
2021-04-09 22:19:32.345,0.59108555,0.32652074,0.37611404,0.6694464,0.059832938,0.058221012,0.08104745,0.2920436,0.57729083,0.5329384,0.26754463,0.46913,0.5651349,0.44156927,0.48363397,0.6673638,0.031088,-0.14684802,-0.065156244,0.03735201,778.86444,793.7729,789.34064,789.7436,807.0696,-0.167236328125,0.0623779296875,0.96124267578125,4.762725830078125,-8.792724609375,-30.796966552734375,1,1.0,1.0,1.0,1.0,40.00
