TimeStamp,Delta_TP9,Delta_AF7,Delta_AF8,Delta_TP10,Theta_TP9,Theta_AF7,Theta_AF8,Theta_TP10,Alpha_TP9,Alpha_AF7,Alpha_AF8,Alpha_TP10,Beta_TP9,Beta_AF7,Beta_AF8,Beta_TP10,Gamma_TP9,Gamma_AF7,Gamma_AF8,Gamma_TP10,RAW_TP9,RAW_AF7,RAW_AF8,RAW_TP10,AUX_RIGHT,Accelerometer_X,Accelerometer_Y,Accelerometer_Z,Gyro_X,Gyro_Y,Gyro_Z,HeadBandOn,HSI_TP9,HSI_AF7,HSI_AF8,HSI_TP10,Battery,Elements
2021-04-16 22:39:40.912,1.0657933,1.2349762,0.17900828,1.0254495,0.53923094,0.7176341,-0.40501684,0.57615644,0.8875476,1.011667,0.042290647,0.5484044,0.3673963,0.4027463,-0.080550544,0.40003866,-0.15288687,-0.06718429,-0.46179324,0.21325746,768.7912,792.1612,795.78754,753.8828,597.9487,0.19403076171875,-0.15606689453125,0.9808349609375,4.269256591796875,-4.26177978515625,0.665435791015625,1,1.0,1.0,1.0,1.0,95.00
2021-04-16 22:39:41.421,1.0214704,1.0168507,0.05011869,1.0254495,0.657425,0.9735586,-0.3974781,0.57615644,0.7638148,1.0814784,0.15307486,0.5484044,0.35241765,0.38468793,-0.098001644,0.40003866,-0.22767274,-0.15070227,-0.4281015,0.21325746,798.60803,797.8022,796.99634,809.0842,866.30035,0.1990966796875,-0.14990234375,0.98089599609375,5.241241455078125,-5.4730224609375,2.310333251953125,1,1.0,1.0,1.0,1.0,95.00
2021-04-16 22:39:41.932,1.0486512,1.1951213,-0.056028754,1.0871321,0.7681649,0.9616314,-0.24138793,0.5848114,0.71138865,1.0307591,0.23087338,0.73156893,0.3254918,0.48153833,-0.09233998,0.46288761,-0.27437085,-0.18312328,-0.44401506,0.13085297,804.2491,809.0842,801.02563,820.7692,857.8388,0.19232177734375,-0.14202880859375,0.9810791015625,2.9010009765625,-1.457977294921875,1.517791748046875,1,1.0,1.0,1.0,1.0,95.00
2021-04-16 22:39:42.442,0.9295808,1.2983145,0.009734982,0.9541938,0.74491847,0.92753476,-0.116308816,0.6009637,0.687013,0.9458955,0.22913513,0.6987747,0.37816316,0.6754416,-0.0890697,0.40918276,-0.28899398,-0.25641102,-0.55615216,0.06633218,782.8938,795.78754,795.38464,790.14655,757.50916,0.12469482421875,-0.174560546875,0.97930908203125,1.084136962890625,5.921630859375,-3.15521240234375,1,1.0,1.0,1.0,1.0,95.00
2021-04-16 22:39:42.954,0.789887,1.3105148,0.11084272,0.9440378,0.61158717,0.93403596,-0.15492941,0.57772803,0.61733395,0.94188255,0.22950871,0.72462976,0.39267102,0.6744962,0.008827111,0.39007118,-0.25867808,-0.22735246,-0.65663636,0.10039549,829.6337,807.0696,807.8755,823.9927,755.09155,0.04290771484375,-0.10418701171875,1.00640869140625,19.1107177734375,2.0037841796875,-49.967498779296875,1,1.0,1.0,1.0,1.0,95.00
2021-04-16 22:39:43.050,,,,,,,,,,,,,,,,,,,,,,,,,,,,,,,,,,,,,,/muse/elements/blink
2021-04-16 22:39:43.475,0.77666456,1.2292732,0.77902985,0.88324064,0.5934453,0.9776862,-0.024656007,0.6450093,0.57851845,0.976117,0.18906592,0.7125359,0.4269595,0.6843301,0.042592276,0.29122993,-0.2586014,-0.16212103,-0.71018195,0.1450482,814.3223,799.011,806.6667,829.6337,817.9487,0.0242919921875,-0.052978515625,0.99652099609375,15.319976806640625,3.925323486328125,-28.329620361328125,1,1.0,1.0,1.0,1.0,95.00
2021-04-16 22:39:43.996,0.8296219,1.0605665,0.9842235,0.7866244,0.44485942,0.9989231,-0.046774488,0.46852797,0.473937,1.0293431,0.26354894,0.56230026,0.44768015,0.56682736,0.0793505,0.208327,-0.2666367,-0.042839143,-0.68272525,0.20927905,809.89014,772.8205,808.68134,806.6667,843.3333,-0.05078125,0.03179931640625,1.00250244140625,11.671295166015625,0.73272705078125,-14.9835205078125,1,1.0,1.0,1.0,1.0,95.00
2021-04-16 22:39:44.530,0.5157013,1.1196933,1.029015,0.8815811,0.29747373,0.88794583,0.19983259,0.52759016,0.54429656,0.9902483,0.33232915,0.41842842,0.11387441,0.6228813,0.072968036,0.38505068,-0.15539199,0.002879121,-0.54128265,-0.28103268,814.3223,854.21246,803.0403,827.2161,1064.1392,-0.1239013671875,0.17059326171875,0.97344970703125,1.5252685546875,3.24493408203125,-3.69354248046875,1,1.0,1.0,1.0,1.0,95.00
2021-04-16 22:39:45.032,0.7078097,1.1019083,0.6843176,0.96708614,0.43707067,0.86058253,0.13204503,0.6318938,0.64410245,0.9898746,0.27511233,0.43519858,0.27604032,0.6249683,0.053927004,0.26437014,-0.18930174,0.023494933,-0.5037439,-0.27988988,794.57874,780.07324,817.5458,787.72894,617.28937,-0.27215576171875,-0.01019287109375,0.96746826171875,-3.3795166015625,12.99468994140625,-3.372039794921875,1,1.0,1.0,1.0,1.0,95.00
2021-04-16 22:39:45.564,0.7939196,1.1019083,0.86960775,0.9798668,0.64070606,0.86058253,0.28838924,0.7483592,0.66228104,0.9898746,0.41306058,0.56008387,0.27712667,0.6249683,0.032743745,0.3279651,-0.23958264,0.023494933,-0.47152138,-0.21048361,769.19415,869.5238,793.36993,764.35895,678.5348,-0.3665771484375,0.037841796875,0.9312744140625,5.375823974609375,-1.114044189453125,8.83758544921875,1,1.0,1.0,1.0,1.0,95.00
2021-04-16 22:39:46.080,0.9897201,1.1019083,0.95596945,1.0350735,0.7101924,0.86058253,0.21710646,0.82565475,0.59671074,0.9898746,0.30478233,0.5509176,0.33224037,0.6249683,-0.0014108707,0.30995753,-0.3296645,0.023494933,-0.56336665,-0.14253622,765.9707,836.8865,765.16486,757.50916,675.7143,-0.27294921875,0.03192138671875,0.97210693359375,-10.848846435546875,-10.64697265625,-6.6094970703125,1,1.0,1.0,1.0,1.0,95.00
2021-04-16 22:39:46.584,1.0511051,1.1019083,1.158896,1.04873,0.7859911,0.86058253,0.353853,0.8819239,0.40148312,0.9898746,0.3020915,0.54981184,0.28027228,0.6249683,-0.03972905,0.41186315,-0.36320496,0.023494933,-0.4671666,-0.0638006,819.5604,834.0659,812.71063,822.7839,767.1795,-0.27056884765625,-0.02203369140625,0.9605712890625,4.104766845703125,-1.936492919921875,-3.401947021484375,1,1.0,1.0,1.0,1.0,95.00
2021-04-16 22:39:47.112,1.0824853,1.1019083,1.2408557,1.0311478,0.64308506,0.86058253,0.42871326,0.8571881,0.2179401,0.9898746,0.3020915,0.5040771,0.30195373,0.6249683,-0.044558313,0.4051058,-0.36399698,0.023494933,-0.40463105,3.711417E-4,626.9597,704.3223,794.57874,637.4359,669.67035,-0.2796630859375,-0.00982666015625,0.96856689453125,4.80010986328125,-8.815155029296875,5.2337646484375,1,1.0,1.0,1.0,1.0,95.00
2021-04-16 22:39:47.210,,,,,,,,,,,,,,,,,,,,,,,,,,,,,,,,,,,,,,/muse/elements/blink
2021-04-16 22:39:47.614,1.0824853,1.1019083,1.189624,1.0311478,0.64308506,0.86058253,0.90340036,0.8571881,0.2179401,0.9898746,0.5360038,0.5040771,0.30195373,0.6249683,0.52059495,0.4051058,-0.36399698,0.023494933,-0.1381281,3.711417E-4,770.80585,805.4579,777.6557,760.7326,576.5934,-0.25537109375,0.00469970703125,0.97406005859375,4.523468017578125,-4.17205810546875,1.2261962890625,1,1.0,1.0,1.0,1.0,95.00
2021-04-16 22:39:48.135,1.0824853,1.1019083,1.1615222,1.0311478,0.64308506,0.86058253,1.0467025,0.8571881,0.2179401,0.9898746,0.6504147,0.5040771,0.30195373,0.6249683,0.42110658,0.4051058,-0.36399698,0.023494933,-0.13587914,3.711417E-4,785.31134,798.20514,790.9524,771.2088,705.12823,-0.24420166015625,-0.0155029296875,0.9669189453125,2.2430419921875,-4.8150634765625,3.3795166015625,1,1.0,1.0,1.0,1.0,95.00
2021-04-16 22:39:48.641,1.0824853,1.1019083,1.1598197,1.0311478,0.64308506,0.86058253,0.9712509,0.8571881,0.2179401,0.9898746,0.6504147,0.5040771,0.30195373,0.6249683,0.33825517,0.4051058,-0.36399698,0.023494933,-0.20834786,3.711417E-4,761.9414,777.25275,787.72894,762.3443,742.6007,-0.2451171875,-0.00927734375,0.973388671875,4.05242919921875,-6.519775390625,2.863616943359375,1,2.0,1.0,1.0,2.0,95.00
2021-04-16 22:39:48.939,,,,,,,,,,,,,,,,,,,,,,,,,,,,,,,,,,,,,,/muse/elements/blink
2021-04-16 22:39:49.169,1.0824853,1.1019083,1.1592523,1.0311478,0.64308506,0.86058253,0.94942874,0.8571881,0.2179401,0.9898746,0.58659667,0.5040771,0.30195373,0.6249683,0.19623508,0.4051058,-0.36399698,0.023494933,-0.24405214,3.711417E-4,826.0073,832.8571,825.6044,840.9158,786.9231,-0.2261962890625,-0.0048828125,0.9781494140625,5.719757080078125,-8.08990478515625,0.9869384765625,1,2.0,1.0,1.0,2.0,95.00
2021-04-16 22:39:49.689,1.0824853,1.1019083,1.342333,1.0311478,0.64308506,0.86058253,0.70159185,0.8571881,0.2179401,0.9898746,0.55962616,0.5040771,0.30195373,0.6249683,0.16350988,0.4051058,-0.36399698,0.023494933,-0.41648576,3.711417E-4,801.8315,808.68134,785.7143,805.4579,790.14655,-0.19891357421875,0.0224609375,0.97991943359375,5.555267333984375,-2.52716064453125,2.340240478515625,1,2.0,1.0,1.0,2.0,95.00
2021-04-16 22:39:50.194,1.0824853,1.1019083,1.4721127,1.0311478,0.64308506,0.86058253,0.62867415,0.8571881,0.2179401,0.9898746,0.47704992,0.5040771,0.30195373,0.6249683,0.21783267,0.4051058,-0.36399698,0.023494933,-0.42898282,3.711417E-4,770.80585,817.5458,763.1502,771.2088,782.49084,-0.2330322265625,0.0130615234375,0.97039794921875,2.594451904296875,-5.211334228515625,-2.49725341796875,1,2.0,1.0,1.0,2.0,95.00
2021-04-16 22:39:50.705,1.0824853,1.1019083,1.5192589,1.0311478,0.64308506,0.86058253,0.55519634,0.8571881,0.2179401,0.9898746,0.42902902,0.5040771,0.30195373,0.6249683,0.2016891,0.4051058,-0.36399698,0.023494933,-0.47783256,3.711417E-4,735.34796,788.1319,731.31866,739.7802,666.8498,-0.21942138671875,-0.00164794921875,0.97894287109375,3.641204833984375,-4.717864990234375,-0.07476806640625,1,2.0,1.0,1.0,2.0,85.00
2021-04-16 22:39:51.210,1.0824853,1.1019083,1.5192589,1.0311478,0.64308506,0.86058253,0.55519634,0.8571881,0.2179401,0.9898746,0.42902902,0.5040771,0.30195373,0.6249683,0.2016891,0.4051058,-0.36399698,0.023494933,-0.47783256,3.711417E-4,836.08057,846.55676,832.8571,828.4249,933.9927,-0.220703125,-0.00665283203125,0.97998046875,3.529052734375,-4.62066650390625,0.1495361328125,1,2.0,1.0,1.0,2.0,85.00
2021-04-16 22:39:51.716,1.0824853,1.1019083,1.5192589,1.0311478,0.64308506,0.86058253,0.55519634,0.8571881,0.2179401,0.9898746,0.42902902,0.5040771,0.30195373,0.6249683,0.2016891,0.4051058,-0.36399698,0.023494933,-0.47783256,3.711417E-4,813.1135,814.7253,823.5897,822.381,819.9634,-0.2276611328125,-0.02349853515625,0.9769287109375,4.4561767578125,-3.887939453125,1.07666015625,1,2.0,1.0,1.0,2.0,85.00
2021-04-16 22:39:52.244,1.0824853,1.1019083,1.5192589,1.0311478,0.64308506,0.86058253,0.55519634,0.8571881,0.2179401,0.9898746,0.42902902,0.5040771,0.30195373,0.6249683,0.2016891,0.4051058,-0.36399698,0.023494933,-0.47783256,3.711417E-4,814.7253,826.4103,814.7253,814.7253,736.55676,-0.267578125,7.9345703125E-4,0.973388671875,8.1646728515625,-1.323394775390625,4.463653564453125,1,2.0,1.0,1.0,2.0,85.00
2021-04-16 22:39:52.758,0.83240527,1.0161675,0.8173542,1.0311478,0.86456466,0.9360811,0.57038295,0.8571881,0.3987125,1.0427313,0.37639308,0.5040771,0.20161939,0.56046796,0.04068117,0.4051058,-0.019973997,-0.08554616,-0.24216029,3.711417E-4,831.2454,826.0073,828.022,827.2161,624.5421,-0.260009765625,-0.016845703125,0.962158203125,6.362762451171875,-6.81884765625,2.2430419921875,1,1.0,1.0,1.0,1.0,85.00
2021-04-16 22:39:52.790,,,,,,,,,,,,,,,,,,,,,,,,,,,,,,,,,,,,,,/muse/elements/blink
2021-04-16 22:39:53.265,0.83240527,1.2451652,1.0689021,1.0311478,0.86456466,1.0708674,0.7492156,0.8571881,0.3987125,1.0427313,0.687772,0.5040771,0.20161939,0.5540547,0.07092442,0.4051058,-0.019973997,-0.072758704,-0.23568867,3.711417E-4,793.7729,806.26373,819.5604,792.5641,699.0842,-0.257568359375,-0.0201416015625,0.9725341796875,4.553375244140625,-4.702911376953125,-0.889739990234375,1,1.0,1.0,1.0,1.0,85.00
2021-04-16 22:39:53.793,0.83240527,1.3185921,1.0842372,1.0311478,0.86456466,0.98495996,0.6909533,0.8571881,0.3987125,1.0693905,0.68776196,0.5040771,0.20161939,0.56700146,0.04742963,0.4051058,-0.019973997,-0.08164645,-0.22377534,3.711417E-4,821.978,821.978,839.304,833.2601,968.6447,-0.25408935546875,-0.0435791015625,0.9686279296875,-0.291595458984375,-9.40582275390625,-1.45050048828125,1,1.0,1.0,1.0,1.0,85.00
2021-04-16 22:39:54.316,0.6155567,1.4066886,1.1243825,1.0311478,0.37568527,0.9452025,0.66848916,0.8571881,0.26670423,1.0428985,0.68207794,0.5040771,0.22740862,0.5520119,0.04761434,0.4051058,-0.04309172,-0.06507941,-0.27143908,3.711417E-4,816.337,834.0659,809.89014,823.1868,779.2674,-0.250244140625,-0.0546875,0.96875,3.715972900390625,-2.444915771484375,-1.443023681640625,1,1.0,1.0,1.0,1.0,85.00
2021-04-16 22:39:54.843,0.65967244,1.3161699,1.0865793,0.45738748,0.30320162,0.7276592,0.43392724,0.3334896,0.29009402,1.1056969,0.25378332,0.3353346,0.36155653,0.5142761,0.05449221,0.3794594,-0.053537805,-0.08126944,-0.27986312,-0.0068317847,807.47253,805.05493,789.7436,782.8938,630.58606,-0.25994873046875,-0.06878662109375,0.96466064453125,4.20196533203125,-4.5758056640625,-2.968292236328125,1,1.0,1.0,1.0,1.0,85.00
2021-04-16 22:39:55.369,0.55257684,1.2144798,1.1699123,0.51257825,0.29306254,0.72910035,0.65768176,0.52799904,0.3483455,1.0775617,0.53636354,0.3587511,0.3773599,0.521791,0.10770883,0.35928786,-0.044328902,-0.09801258,-0.22760618,0.013103415,787.72894,816.337,808.68134,781.685,690.6227,-0.243408203125,-0.0841064453125,0.9678955078125,2.893524169921875,-5.00946044921875,-1.42059326171875,1,1.0,1.0,1.0,1.0,85.00
2021-04-16 22:39:55.894,0.6497798,1.094648,1.0622463,0.5984887,0.19662656,0.668192,0.6898315,0.59889627,0.28054255,1.0422288,0.54103386,0.38406402,0.3818049,0.5055189,0.16285093,0.26483443,-0.102286346,-0.11611685,-0.26866788,-0.03438483,802.23444,815.9341,809.0842,796.5934,749.45056,-0.21820068359375,-0.09417724609375,0.98052978515625,4.17205810546875,-5.226287841796875,1.77947998046875,1,1.0,1.0,1.0,1.0,85.00
2021-04-16 22:39:56.404,0.618462,1.1452986,0.90654856,0.66511905,0.27745184,0.6821637,0.6176016,0.6063344,0.51831394,0.84702843,0.54579914,0.43087006,0.39371318,0.555187,0.21662661,0.16328292,-0.17470993,-0.13707177,-0.2944294,-0.12754826,799.011,795.38464,823.9927,791.3553,724.4689,-0.22998046875,-0.09576416015625,0.97222900390625,4.26177978515625,-5.450592041015625,0.34393310546875,1,1.0,1.0,1.0,1.0,85.00
2021-04-16 22:39:56.910,0.73591095,1.1762842,0.78887427,0.7027726,0.3439333,0.6989796,0.31699955,0.44393435,0.55658805,0.98459315,0.3957538,0.4405287,0.41710675,0.57948035,0.24098329,0.11878744,-0.20363432,-0.17534287,-0.3872952,-0.279894,802.6374,783.69965,806.26373,805.05493,869.92676,-0.2227783203125,-0.0963134765625,0.9739990234375,5.016937255859375,-3.970184326171875,1.9140625,1,1.0,1.0,1.0,1.0,85.00
2021-04-16 22:39:57.051,,,,,,,,,,,,,,,,,,,,,,,,,,,,,,,,,,,,,,/muse/elements/blink
2021-04-16 22:39:57.413,0.6575112,1.2436998,0.8914533,0.6592177,0.4543158,0.7809055,0.15337607,0.3454532,0.55658805,0.93262947,0.43900374,0.43632218,0.4733692,0.6298841,0.26294369,0.17072219,-0.21180098,-0.16505867,-0.34095308,-0.41327673,800.2198,838.9011,812.71063,790.54944,684.9817,-0.22802734375,-0.09454345703125,0.97119140625,3.910369873046875,-5.2337646484375,-0.216827392578125,1,1.0,1.0,1.0,1.0,85.00
2021-04-16 22:39:57.938,0.7357937,1.0581697,0.9577441,0.72040087,0.47154856,0.7872563,0.121128134,0.18610029,0.40233803,0.92355454,0.40719888,0.15589587,0.48486683,0.7023243,0.21867634,0.24396674,-0.0664859,-0.17694232,-0.2695538,-0.3625595,797.3993,802.6374,797.8022,785.7143,819.9634,-0.2274169921875,-0.10284423828125,0.97454833984375,4.44122314453125,-3.910369873046875,0.43365478515625,1,1.0,1.0,1.0,1.0,85.00
2021-04-16 22:39:58.464,0.7338712,1.0581697,0.987504,0.5411402,0.23364246,0.7872563,0.14254293,0.4613168,0.37596622,0.92355454,0.37312156,0.26573682,0.3390286,0.7023243,0.12274989,0.064511605,-0.18860972,-0.17694232,-0.20001647,-0.29290262,811.9048,826.8132,804.2491,817.5458,1084.6886,-0.2364501953125,-0.1036376953125,0.97015380859375,3.955230712890625,-3.521575927734375,1.143951416015625,1,1.0,1.0,1.0,1.0,85.00
2021-04-16 22:39:58.967,0.88455516,1.1484762,0.9098178,0.693818,0.3109309,0.9586018,0.1612895,0.5420158,0.4944657,0.62711334,0.3998118,0.3621449,0.28622684,0.59600717,0.055896405,0.12149317,-0.25461933,0.1816738,-0.12645486,-0.2508904,806.6667,786.52014,780.87915,815.5311,758.315,-0.2406005859375,-0.1053466796875,0.96405029296875,3.775787353515625,-4.26177978515625,0.710296630859375,1,1.0,1.0,1.0,1.0,85.00
2021-04-16 22:39:59.484,0.9907912,1.2131288,1.0970143,0.8785356,0.32532465,1.0173272,0.36690703,0.55074173,0.5031705,0.8895827,0.3484109,0.4111952,0.29179102,0.64197063,0.16936696,0.13282669,-0.2634871,0.15535557,-0.15917931,-0.25348774,801.02563,803.8461,797.8022,801.8315,680.14655,-0.23919677734375,-0.1077880859375,0.968017578125,4.747772216796875,-5.031890869140625,2.03369140625,1,1.0,1.0,1.0,1.0,85.00
2021-04-16 22:39:59.990,1.1042095,1.2228535,1.0934141,1.0063239,0.41272584,1.0684117,0.47396728,0.61618435,0.4668008,1.240117,0.31193307,0.35258,0.26554567,0.63790035,0.26785287,0.15317531,-0.3323599,0.063182056,-0.17136854,-0.2517307,792.1612,796.99634,795.78754,792.1612,661.6117,-0.2418212890625,-0.10003662109375,0.969970703125,4.2169189453125,-4.583282470703125,2.385101318359375,1,1.0,1.0,1.0,1.0,85.00
2021-04-16 22:40:00.504,0.96020126,1.1094298,1.0240633,0.9727645,0.5313645,1.1187342,0.44385087,0.58180016,0.5209543,1.255699,0.39401343,0.24867932,0.32644114,0.5903818,0.2914226,0.20244232,-0.33650964,-0.15051423,-0.23431881,-0.286588,803.8461,819.15753,786.52014,780.4762,754.2857,-0.2757568359375,-0.07257080078125,0.97369384765625,10.16845703125,-2.190704345703125,0.59814453125,1,1.0,1.0,1.0,1.0,85.00
2021-04-16 22:40:01.015,0.8290506,0.93450326,0.40926933,0.8105405,0.4738956,1.0657026,0.3757715,0.50026536,0.4998889,1.2483523,0.4490288,0.21601605,0.3408258,0.5633984,0.10770083,0.2203313,-0.27754086,-0.19408636,-0.1851887,-0.2702565,818.7546,831.6484,807.47253,830.0366,813.5165,-0.24969482421875,-0.07257080078125,0.97235107421875,4.134674072265625,-4.538421630859375,0.16448974609375,1,1.0,1.0,1.0,1.0,90.00
2021-04-16 22:40:01.528,0.66937244,0.7717974,0.51832384,0.60551846,0.34967282,1.0141624,0.45079643,0.36528188,0.5184489,1.0662576,0.4698053,0.2632863,0.38720912,0.5366356,0.1445092,0.19088417,-0.22119911,-0.045415387,-0.17755222,-0.255065,803.0403,803.44324,816.337,815.12823,729.304,-0.2567138671875,-0.07818603515625,0.97467041015625,3.970184326171875,-4.90478515625,1.24114990234375,1,1.0,1.0,1.0,1.0,90.00
2021-04-16 22:40:02.054,0.6636996,0.7656858,0.7181364,0.68045783,0.18036126,1.0720747,0.53093183,0.2514167,0.35927436,0.87212855,0.4356018,0.50645393,0.31898463,0.53002274,0.16112615,0.10406145,-0.19589213,0.021831578,-0.1854119,-0.2720444,794.57874,789.34064,807.47253,793.7729,705.12823,-0.25408935546875,-0.0755615234375,0.96649169921875,4.523468017578125,-4.568328857421875,1.12152099609375,1,1.0,1.0,1.0,1.0,90.00
2021-04-16 22:40:02.572,0.4259641,0.9066595,0.7616236,0.56465405,0.3097861,1.1105316,0.48550254,0.2513022,0.54158384,0.6467211,0.4464662,0.7479716,0.2922925,0.505589,0.16443002,0.16648556,-0.2855473,0.0115048485,-0.132583,-0.28682774,796.5934,834.4689,818.3516,789.34064,731.31866,-0.26812744140625,-0.0762939453125,0.96630859375,3.401947021484375,-3.252410888671875,1.906585693359375,1,1.0,1.0,1.0,1.0,90.00
2021-04-16 22:40:03.059,,,,,,,,,,,,,,,,,,,,,,,,,,,,,,,,,,,,,,/muse/elements/blink
2021-04-16 22:40:03.087,0.5225764,1.0673519,0.7428092,0.5883677,0.430934,1.1696514,0.4264661,0.22636506,0.5595874,0.6270174,0.29460788,0.7616949,0.24225827,0.56125057,0.16311777,0.29549387,-0.3731894,-0.086082555,-0.12628646,-0.27126116,832.8571,810.696,795.38464,830.84247,803.0403,-0.27490234375,-0.09112548828125,0.957763671875,4.26177978515625,-4.88983154296875,1.173858642578125,1,1.0,1.0,1.0,1.0,90.00
2021-04-16 22:40:03.591,0.50352794,1.2275243,0.7231858,0.25989076,0.55411386,1.1549369,0.33682844,0.33643952,0.53882235,0.5523513,0.31409997,0.7616949,0.33027768,0.6029433,0.14046004,0.4173793,-0.5206699,-0.1030103,-0.1460303,-0.20122662,834.87177,805.4579,805.05493,828.8278,906.5934,-0.26861572265625,-0.08721923828125,0.965087890625,4.71038818359375,-4.927215576171875,1.375732421875,1,1.0,1.0,1.0,1.0,90.00
2021-04-16 22:40:04.096,0.6724268,1.2275243,0.6684337,0.32917792,0.6276908,1.1549369,0.20275228,0.312551,0.5171412,0.5523513,0.36760786,0.6507095,0.36659557,0.6029433,0.07164463,0.54601693,-0.6494584,-0.1030103,-0.25041184,-0.14081012,809.4872,803.44324,790.14655,806.6667,728.0952,-0.26336669921875,-0.08978271484375,0.9644775390625,4.942169189453125,-4.777679443359375,0.620574951171875,1,1.0,1.0,1.0,1.0,90.00
2021-04-16 22:40:04.610,0.70736134,1.2202461,0.74087244,0.32616472,0.36828512,0.91597074,0.34310302,0.23843166,0.31181708,0.6488255,0.56120056,0.49761504,0.035126645,0.6177206,0.048865773,0.026326716,-0.44927335,0.02028621,-0.37649214,-0.20848326,819.9634,828.4249,811.0989,819.15753,754.68866,-0.2626953125,-0.08880615234375,0.96270751953125,4.643096923828125,-4.747772216796875,0.73272705078125,1,1.0,1.0,1.0,1.0,90.00
2021-04-16 22:40:05.115,0.7308163,1.1267006,0.7474372,0.39567402,0.5512258,1.0051509,0.32888067,0.35071412,0.5574138,0.9077275,0.5866298,0.4986154,0.2029506,0.60547984,0.10141749,0.31893,-0.347262,0.02343595,-0.39527836,-0.03834006,806.6667,836.08057,768.7912,774.0293,801.02563,-0.2596435546875,-0.08447265625,0.96734619140625,4.71038818359375,-4.463653564453125,1.024322509765625,1,1.0,1.0,1.0,1.0,90.00
2021-04-16 22:40:05.637,0.8200942,1.1881878,1.035877,0.6933778,0.56983227,1.2084036,0.4582782,0.44112298,0.5653265,1.0722387,0.5866298,0.5697903,0.25644523,0.5915774,0.18393932,0.34025973,-0.29215506,0.031744763,-0.2819634,-0.052945457,801.02563,794.17584,792.1612,798.60803,905.38464,-0.25714111328125,-0.0894775390625,0.96978759765625,4.5159912109375,-4.94964599609375,1.114044189453125,1,1.0,1.0,1.0,1.0,90.00
2021-04-16 22:40:06.167,0.8542178,1.1932106,1.1639789,0.8241473,0.5022626,1.2100121,0.45950115,0.47382897,0.5701338,1.1765064,0.45830697,0.53773546,0.30738252,0.5459518,0.14531164,0.43295386,-0.22811729,0.022844637,-0.23452008,-0.079871595,787.326,808.68134,785.31134,775.2381,658.3883,-0.25201416015625,-0.0941162109375,0.9671630859375,4.44122314453125,-4.66552734375,0.560760498046875,1,1.0,1.0,1.0,1.0,90.00
2021-04-16 22:40:06.679,0.74978834,1.2552272,1.1054721,0.81517977,0.3893547,1.1777956,0.40421873,0.49902079,0.5748424,1.1789997,0.41917795,0.5537208,0.3748954,0.52570736,0.051046208,0.38320947,-0.23571222,0.034605037,-0.23926246,-0.12890126,796.99634,809.89014,796.5934,802.6374,697.47253,-0.2589111328125,-0.0899658203125,0.97161865234375,4.53094482421875,-4.837493896484375,1.368255615234375,1,1.0,1.0,1.0,1.0,90.00
2021-04-16 22:40:07.201,0.76361966,1.2320292,0.87927693,0.7173805,0.18665816,0.8339516,0.30283183,0.3996426,0.6260602,1.1025838,0.42411032,0.5435885,0.36566564,0.5011208,0.03763692,0.3243534,-0.29102954,0.026084023,-0.38373008,-0.13474417,803.0403,801.4286,803.8461,791.75824,666.4469,-0.251708984375,-0.090576171875,0.9659423828125,4.344024658203125,-4.329071044921875,0.8673095703125,1,1.0,1.0,1.0,1.0,90.00
2021-04-16 22:40:07.705,0.7468219,1.1301028,0.54448825,0.80693346,0.5122415,0.75912833,0.30194518,0.54006636,0.77362096,0.94951576,0.6005311,0.7125457,0.45657492,0.5113992,0.15155283,0.37921575,-0.22438529,0.12619738,-0.44661823,-0.025972825,810.293,800.2198,806.26373,811.0989,762.74725,-0.2591552734375,-0.08984375,0.9578857421875,4.807586669921875,-3.521575927734375,0.059814453125,1,1.0,1.0,1.0,1.0,90.00
2021-04-16 22:40:08.210,0.7328332,1.1427132,0.6697216,0.7683829,0.56056726,0.7687213,0.4262693,0.50798696,0.7496047,0.9031386,0.6136381,0.7162236,0.40907684,0.53816104,0.16737896,0.31071812,-0.31146637,0.04729699,-0.43468046,-0.09067823,808.68134,829.6337,799.011,820.3663,837.6923,-0.2584228515625,-0.09478759765625,0.9622802734375,4.306640625,-4.65057373046875,0.112152099609375,1,1.0,1.0,1.0,1.0,90.00
2021-04-16 22:40:08.724,0.33568096,1.1909293,0.6338628,0.5993156,0.54253393,0.80815077,0.42818063,0.44985417,0.67336196,0.908312,0.60965574,0.68224597,0.34938887,0.4942978,0.123409286,0.2889085,-0.37143508,-0.016928295,-0.24643686,-0.1410045,795.78754,815.9341,807.0696,802.6374,732.9304,-0.2579345703125,-0.0865478515625,0.96722412109375,4.867401123046875,-4.366455078125,1.039276123046875,1,1.0,1.0,1.0,1.0,90.00
2021-04-16 22:40:09.239,0.29673856,1.2055234,0.81241196,0.3066153,0.31836143,0.8165507,0.45961192,0.32293946,0.47796828,0.91651756,0.24423094,0.50408643,0.24089879,0.5059113,0.06711905,0.1778952,-0.50682276,-0.027282111,-0.16439271,-0.2387236,789.7436,788.5348,778.0586,785.7143,788.5348,-0.2574462890625,-0.0902099609375,0.96319580078125,4.373931884765625,-4.747772216796875,1.06170654296875,1,1.0,1.0,1.0,1.0,90.00
2021-04-16 22:40:09.755,0.5690976,1.2236183,0.926404,0.61489195,0.15580888,0.76334,0.50613546,0.25248244,0.21323146,0.88629335,0.31642255,0.2811388,0.2115916,0.45395526,0.10571114,0.2152261,-0.45310915,-0.016458279,-0.12799865,-0.18430932,818.7546,805.4579,796.99634,824.7985,927.5458,-0.25396728515625,-0.093017578125,0.96533203125,4.605712890625,-4.35150146484375,1.128997802734375,1,1.0,1.0,1.0,1.0,90.00
2021-04-16 22:40:10.271,0.7325415,1.1629543,0.9709417,0.7049986,0.20738684,0.68537587,0.5296968,0.35716677,0.45277238,1.190696,0.23166156,0.31633937,0.27503252,0.42086497,0.11837681,0.2415275,-0.36160925,-0.016128013,-0.14103672,-0.10336758,790.9524,807.47253,796.99634,806.26373,741.39197,-0.25372314453125,-0.09075927734375,0.96636962890625,3.970184326171875,-5.301055908203125,0.9869384765625,1,1.0,1.0,1.0,1.0,90.00
2021-04-16 22:40:10.783,0.7292259,1.1667215,0.92274433,0.7510572,0.31171885,0.61239356,0.41133258,0.2464909,0.46312067,1.189238,0.14584225,0.3021036,0.2135608,0.45100984,0.07961038,0.20128807,-0.3092774,-0.0015821743,-0.19000234,-0.051723585,780.07324,813.1135,813.91943,782.49084,970.65936,-0.25152587890625,-0.0911865234375,0.96612548828125,4.717864990234375,-4.605712890625,1.1962890625,1,1.0,1.0,1.0,1.0,90.00
2021-04-16 22:40:11.317,0.73850846,1.1642272,0.95094895,0.79536986,0.24520914,0.6617029,0.3551139,0.1820543,0.448101,1.1691177,0.4500269,0.31340513,0.14452,0.5061864,-0.0059645083,0.16945823,-0.21871875,-0.0029335527,-0.18855694,-0.08712956,798.20514,830.84247,773.6264,763.1502,689.41394,-0.2491455078125,-0.09564208984375,0.96636962890625,4.373931884765625,-4.725341796875,0.695343017578125,1,1.0,1.0,1.0,1.0,85.00
2021-04-16 22:40:11.839,0.70272875,1.0610173,0.97750145,0.81846595,0.15798561,0.60999495,0.5096862,0.25944826,0.41072884,0.7318088,0.45287374,0.5077905,0.19212358,0.5788204,-0.103018194,0.14134157,-0.26418087,-0.036666032,-0.17942779,-0.13292788,807.0696,808.68134,792.96704,805.05493,854.61536,-0.25201416015625,-0.092529296875,0.9642333984375,4.5758056640625,-4.74029541015625,1.51031494140625,1,1.0,1.0,1.0,1.0,85.00
2021-04-16 22:40:12.344,0.71759605,1.049398,0.84813464,0.7341434,0.011857275,0.9991348,0.53342575,0.3899606,0.43176872,0.834,0.4286676,0.51063615,0.18629724,0.5564056,-0.11503465,0.11088342,-0.272099,-0.13678552,-0.18951762,-0.15754645,811.50183,812.71063,807.47253,812.71063,726.08057,-0.24798583984375,-0.09112548828125,0.9691162109375,4.605712890625,-4.493560791015625,0.755157470703125,1,1.0,1.0,1.0,1.0,85.00
2021-04-16 22:40:12.846,0.5732526,1.0160546,0.6589301,0.49569488,0.03535674,1.0832866,0.5311044,0.4432297,0.35901266,0.8193021,0.40360323,0.51474655,0.17093691,0.5925168,-0.06986953,0.09573051,-0.30235243,-0.20129229,-0.27100864,-0.2228413,826.0073,827.2161,791.75824,821.1722,764.35895,-0.24957275390625,-0.09576416015625,0.97015380859375,4.403839111328125,-4.68048095703125,0.500946044921875,1,1.0,1.0,1.0,1.0,85.00
2021-04-16 22:40:13.371,0.5811138,1.013694,0.48359376,0.34186706,0.2038745,1.0683075,0.37118,0.38143197,0.2849221,0.94805354,0.37005606,0.5482595,0.13782276,0.59657,0.042082146,0.1138984,-0.21424192,-0.21853867,-0.38630837,-0.27995932,791.3553,785.7143,800.2198,780.4762,657.5824,-0.24261474609375,-0.08624267578125,0.96807861328125,4.822540283203125,-4.702911376953125,1.57012939453125,1,1.0,1.0,1.0,1.0,85.00
2021-04-16 22:40:13.894,0.48820287,0.9920928,0.5893351,0.2464071,0.313223,0.84747636,0.38163537,0.3014143,0.34089676,0.97500616,0.35574883,0.59120935,0.2480916,0.6316396,0.103500925,0.1124067,-0.15716074,-0.19509734,-0.30167443,-0.34035596,806.26373,822.7839,803.8461,798.60803,751.06226,-0.2464599609375,-0.08837890625,0.9644775390625,4.18701171875,-5.21881103515625,0.2392578125,1,1.0,1.0,1.0,1.0,85.00
2021-04-16 22:40:14.403,0.4055963,0.95720947,0.5459575,0.2789895,0.3606897,0.8653347,0.27106607,0.38132107,0.48596266,1.0862042,0.3379159,0.7280388,0.3090585,0.62313193,0.08222639,0.17229721,-0.14680038,-0.18732911,-0.24304157,-0.2544872,785.31134,799.41394,798.60803,782.49084,669.2674,-0.24212646484375,-0.09307861328125,0.97088623046875,4.777679443359375,-4.119720458984375,0.538330078125,1,1.0,1.0,1.0,1.0,85.00
2021-04-16 22:40:14.909,0.3291854,1.3148855,0.5518728,0.31951377,0.32567102,1.0315223,0.2697007,0.46244565,0.52013004,1.1525124,0.30595434,0.76812285,0.33633667,0.65627396,0.0055436785,0.19011128,-0.19406274,-0.09419931,-0.23710895,-0.21274719,813.91943,823.9927,801.02563,811.0989,805.05493,-0.2451171875,-0.0863037109375,0.97088623046875,4.85992431640625,-4.388885498046875,0.8673095703125,1,1.0,1.0,1.0,1.0,85.00
2021-04-16 22:40:15.420,0.14161468,1.2073386,0.25761417,0.20234402,0.27563432,1.0347152,0.14939912,0.38551947,0.5015431,1.1556371,0.20268,0.725988,0.32095718,0.6597506,-0.12328955,0.1826732,-0.22502314,-0.06398976,-0.3168444,-0.1961967,801.4286,811.9048,796.1905,811.50183,760.32965,-0.2459716796875,-0.08953857421875,0.97271728515625,4.284210205078125,-4.358978271484375,1.1065673828125,1,1.0,1.0,1.0,1.0,85.00
2021-04-16 22:40:15.942,0.4131946,1.1971751,0.14624998,0.5270787,0.4833367,1.1319534,0.07759848,0.4203163,0.50542885,1.1531631,0.19972706,0.6477824,0.29759404,0.6293054,-0.1663493,0.22338231,-0.21224059,-0.026153367,-0.349555,-0.2793428,805.8608,804.65204,796.5934,799.011,714.3956,-0.2474365234375,-0.092529296875,0.97027587890625,4.583282470703125,-4.4561767578125,1.024322509765625,1,1.0,1.0,1.0,1.0,85.00
2021-04-16 22:40:16.449,0.65418196,1.2298436,-0.25650033,0.683849,0.6506227,1.153416,-0.22891381,0.58594835,0.41269928,1.0330857,0.007585664,0.35599467,0.3393747,0.5617454,-0.12674767,0.28446248,-0.1782825,0.06764334,-0.32676938,-0.31626633,821.978,799.81683,796.5934,824.7985,854.21246,-0.23480224609375,-0.07666015625,0.97698974609375,0.919647216796875,-7.31231689453125,-0.560760498046875,1,1.0,1.0,1.0,1.0,85.00
2021-04-16 22:40:16.977,0.8083078,1.3342526,0.10070467,0.91713715,0.8422791,1.1635543,-0.29917407,0.9652963,0.8358472,1.0756291,0.08481493,0.9250293,0.38565612,0.53387976,-0.06935606,0.2874804,-0.18515046,0.048789117,-0.2906728,-0.20373383,812.3077,811.9048,797.8022,823.1868,801.02563,-0.19732666015625,-0.12774658203125,0.96234130859375,1.39068603515625,-18.983612060546875,9.31610107421875,1,1.0,1.0,1.0,1.0,85.00
2021-04-16 22:40:17.500,1.0111042,1.3629043,0.25225526,1.0529131,0.91863513,0.95510525,-0.24896914,1.0457145,0.8358472,1.0904467,0.0690349,0.95281583,0.36813855,0.620506,0.043289386,0.23346366,-0.2553366,0.026228186,-0.3024187,-0.16323654,812.71063,791.3553,805.05493,811.0989,714.7985,-0.06561279296875,-0.14996337890625,0.97119140625,7.125396728515625,-9.233856201171875,0.127105712890625,1,1.0,1.0,1.0,1.0,85.00
2021-04-16 22:40:18.023,0.9846519,1.3119096,0.46930614,1.0411847,0.8440861,0.803678,-0.17943801,0.9703438,0.80482334,1.0904605,0.052663807,0.9355145,0.32655096,0.7109138,0.039780036,0.27921075,-0.31318077,-0.095826514,-0.36630818,-0.09763134,807.8755,796.1905,793.36993,798.20514,799.41394,-0.02801513671875,-0.1278076171875,0.99066162109375,6.80389404296875,-6.273040771484375,3.12530517578125,1,1.0,1.0,1.0,1.0,85.00
2021-04-16 22:40:18.555,0.9244514,1.3083918,0.5597611,0.9763211,0.5664128,0.8528824,-0.14813094,0.644593,0.65415597,1.0483196,0.015553501,0.7005517,0.21206199,0.6975264,0.05376788,0.3474518,-0.41588488,-0.021207608,-0.3655678,-0.11990837,767.5824,641.06226,801.02563,756.7033,666.04395,-0.0369873046875,-0.112548828125,0.99639892578125,4.628143310546875,-9.906768798828125,4.717864990234375,1,1.0,1.0,1.0,1.0,85.00
2021-04-16 22:40:18.721,,,,,,,,,,,,,,,,,,,,,,,,,,,,,,,,,,,,,,/muse/elements/blink
2021-04-16 22:40:19.082,0.6041875,1.3540945,0.6130458,0.7334301,0.1612483,0.92299265,0.016151195,0.3502656,0.11256864,0.9108691,0.09581594,0.31286624,0.2101159,0.6489419,0.034753896,0.3997716,-0.41809383,-0.027825914,-0.3617754,-0.09714807,802.6374,799.81683,811.9048,792.96704,773.22345,-0.03179931640625,-0.09771728515625,0.999755859375,6.392669677734375,-3.611297607421875,-1.2860107421875,1,1.0,1.0,1.0,1.0,85.00
2021-04-16 22:40:19.590,0.7278657,1.3613812,0.6528729,0.8054133,0.28394678,1.0598986,0.12652284,0.31839937,0.08077507,0.88930064,0.1909238,0.24908313,0.026924517,0.5163972,-0.03567913,0.3911151,-0.55973333,0.028417967,-0.37505957,-0.16257499,813.1135,803.44324,809.89014,807.0696,641.06226,-0.0037841796875,-0.07861328125,1.00299072265625,2.370147705078125,-6.10107421875,4.4561767578125,1,1.0,1.0,1.0,1.0,85.00
2021-04-16 22:40:20.094,0.7278657,1.3613812,0.62670165,0.8054133,0.28394678,1.0598986,0.1724694,0.31839937,0.08077507,0.88930064,0.16206922,0.24908313,0.026924517,0.5163972,-0.06279566,0.3911151,-0.55973333,0.028417967,-0.3959863,-0.16257499,816.7399,834.0659,813.5165,818.7546,803.8461,-0.05450439453125,-0.1036376953125,0.9893798828125,5.443115234375,-2.579498291015625,-1.8841552734375,1,1.0,1.0,1.0,1.0,85.00
2021-04-16 22:40:20.606,0.7278657,1.3613812,0.63959223,0.8054133,0.28394678,1.0598986,0.21552278,0.31839937,0.08077507,0.88930064,0.13928649,0.24908313,0.026924517,0.5163972,-0.18599142,0.3911151,-0.55973333,0.028417967,-0.43962845,-0.16257499,801.02563,809.89014,802.23444,797.3993,741.39197,-0.03643798828125,-0.1275634765625,0.9910888671875,2.220611572265625,-5.0244140625,-1.18133544921875,1,1.0,1.0,1.0,1.0,85.00
2021-04-16 22:40:21.111,0.7278657,1.3613812,0.69763744,0.8054133,0.28394678,1.0598986,0.27797392,0.31839937,0.08077507,0.88930064,0.2639351,0.24908313,0.026924517,0.5163972,0.012752063,0.3911151,-0.55973333,0.028417967,-0.52561045,-0.16257499,823.1868,815.5311,811.50183,830.0366,828.022,-0.017822265625,-0.121826171875,1.0029296875,4.97955322265625,-8.73291015625,-1.1065673828125,1,1.0,1.0,1.0,1.0,85.00
2021-04-16 22:40:21.630,0.37830886,1.3613812,0.432303,0.63738793,-0.040274695,1.0598986,0.10696436,0.4770744,0.09804726,0.88930064,0.2253021,0.55072755,0.16535607,0.5163972,0.039148293,0.6019112,-0.22510567,0.028417967,-0.5574101,-0.022611938,827.619,780.07324,808.68134,833.663,784.90845,0.0745849609375,-0.1407470703125,0.9864501953125,3.087921142578125,-6.62445068359375,-3.491668701171875,1,1.0,1.0,1.0,1.0,95.00
2021-04-16 22:40:22.138,0.23786612,1.3613812,0.47584885,0.67224866,0.15201212,1.0598986,0.23731865,0.49902648,0.10787505,0.88930064,0.25402066,0.58483434,0.18375331,0.5163972,0.034997795,0.53283066,-0.28999323,0.028417967,-0.49459523,0.029309142,802.23444,785.31134,803.0403,792.96704,661.2088,0.0643310546875,-0.1412353515625,0.99530029296875,3.506622314453125,-2.699127197265625,-0.067291259765625,1,1.0,1.0,1.0,1.0,95.00
2021-04-16 22:40:22.664,0.28840855,1.3613812,0.60543245,0.69618315,0.23179086,1.0598986,0.5427905,0.5497046,0.12146651,0.88930064,0.29953778,0.49678826,0.1583455,0.5163972,0.060958944,0.39245248,-0.33980554,0.028417967,-0.49538064,-0.052688688,809.4872,787.72894,802.6374,813.5165,723.663,0.07818603515625,-0.157470703125,0.97869873046875,6.14593505859375,-4.306640625,0.657958984375,1,1.0,1.0,1.0,1.0,95.00
2021-04-16 22:40:22.966,,,,,,,,,,,,,,,,,,,,,,,,,,,,,,,,,,,,,,/muse/elements/blink
2021-04-16 22:40:23.171,0.39632258,1.3613812,0.7954605,0.76504123,0.34075996,1.0598986,0.6476456,0.58797836,0.045963336,0.88930064,0.30188063,0.34856832,0.15937693,0.5163972,0.039364565,0.30246845,-0.40009806,0.028417967,-0.46436498,-0.081998006,783.2967,823.5897,794.9817,790.9524,634.61536,0.101806640625,-0.125732421875,0.99609375,5.779571533203125,-5.2935791015625,-0.755157470703125,1,1.0,1.0,1.0,1.0,95.00
2021-04-16 22:40:23.684,0.50776505,1.3613812,0.9605422,0.7663409,0.35265535,1.0598986,0.5977954,0.6072418,0.01795153,0.88930064,0.3416764,0.19670871,0.12441928,0.5163972,0.10250583,0.21531811,-0.38944587,0.028417967,-0.42641717,-0.20477106,828.4249,749.45056,803.8461,842.52747,907.8022,0.10003662109375,-0.12420654296875,0.983154296875,6.41510009765625,-6.018829345703125,1.951446533203125,1,1.0,1.0,1.0,1.0,95.00
2021-04-16 22:40:24.188,0.6558952,1.3613812,0.8860836,0.32211328,0.4510511,1.0598986,0.30066276,0.15995666,0.01795153,0.88930064,0.342553,0.1479914,0.065444574,0.5163972,0.05004357,0.21369366,-0.28199258,0.028417967,-0.32305464,-0.31624028,832.8571,692.6374,805.8608,822.7839,871.13556,0.14453125,-0.13580322265625,0.97857666015625,5.585174560546875,-8.127288818359375,-4.628143310546875,1,1.0,1.0,1.0,1.0,95.00
2021-04-16 22:40:24.705,-0.05754476,1.3613812,0.7319257,0.1522803,0.070551075,1.0598986,0.07925343,0.102659665,0.5535142,0.88930064,0.35124615,0.034515694,0.4213307,0.5163972,0.053176522,0.3406281,0.077098295,0.028417967,-0.3419274,-0.21153994,798.60803,640.65936,806.26373,792.1612,649.92676,0.233154296875,-0.15362548828125,0.95782470703125,2.4822998046875,-11.005859375,0.127105712890625,1,1.0,1.0,1.0,1.0,95.00
2021-04-16 22:40:25.006,,,,,,,,,,,,,,,,,,,,,,,,,,,,,,,,,,,,,,/muse/elements/blink
2021-04-16 22:40:25.213,0.022827743,1.3613812,0.12530458,0.1522803,0.17588164,1.0598986,0.016617458,0.102659665,0.5707272,0.88930064,0.290263,0.034515694,0.4566747,0.5163972,-0.060151946,0.3406281,0.12316481,0.028417967,-0.4279473,-0.21153994,799.41394,749.0476,795.38464,797.3993,617.28937,0.23333740234375,-0.13568115234375,0.97357177734375,4.583282470703125,-8.067474365234375,-1.36077880859375,1,1.0,1.0,1.0,1.0,95.00
2021-04-16 22:40:25.721,-0.02798912,1.3613812,-0.08480157,-0.0143180415,0.2758283,1.0598986,0.020195814,0.09782132,0.5707272,0.88930064,0.2905195,-0.12981355,0.49458262,0.5163972,-0.062073868,0.3749938,0.20327085,0.028417967,-0.5946427,-0.18182172,828.022,680.54944,799.011,819.15753,888.46155,0.27490234375,-0.1417236328125,0.960205078125,4.02252197265625,-5.14404296875,0.037384033203125,1,1.0,1.0,1.0,1.0,95.00
2021-04-16 22:40:26.231,0.0277564,1.3613812,0.0850382,-0.0102258725,0.40039125,1.0598986,0.059532233,0.060009528,0.5707272,0.88930064,-0.010939529,-0.20881894,0.54564524,0.5163972,-0.057012856,0.3883003,0.3082516,0.028417967,-0.6132036,-0.16346353,823.5897,767.5824,805.05493,834.0659,850.58606,0.27130126953125,-0.13519287109375,0.951416015625,4.42626953125,-4.493560791015625,-0.411224365234375,1,1.0,1.0,1.0,1.0,95.00
2021-04-16 22:40:26.746,0.3549911,1.3613812,0.4185097,0.53273267,0.4388837,1.0598986,0.18420616,0.21597652,0.5723316,0.88930064,0.015234807,0.4966256,0.7252407,0.5163972,-0.049993653,0.4025031,0.14423986,0.028417967,-0.5898952,-0.28012407,801.4286,804.65204,794.9817,783.2967,702.3077,0.279296875,-0.1329345703125,0.95587158203125,5.323486328125,-4.299163818359375,0.9271240234375,1,1.0,1.0,1.0,1.0,95.00
2021-04-16 22:40:27.268,0.41154027,1.3613812,0.8718165,0.39549622,0.5053151,1.0598986,0.20508467,0.39438343,0.69218266,0.88930064,0.1704029,0.5436267,0.6277767,0.5163972,-0.028983073,0.39315253,0.17331165,0.028417967,-0.52856505,-0.293055,790.14655,810.696,808.2784,770.80585,643.8828,0.27557373046875,-0.15460205078125,0.94989013671875,3.768310546875,-5.5029296875,0.13458251953125,1,1.0,1.0,1.0,1.0,95.00
2021-04-16 22:40:27.799,0.2812715,1.3613812,0.90060073,0.35805118,0.39034933,1.0598986,0.21221508,0.3294658,0.69218266,0.88930064,0.29473025,0.5517426,0.62432307,0.5163972,-0.014423038,0.36164787,0.16013017,0.028417967,-0.55542684,-0.2807859,808.2784,775.64105,811.9048,811.0989,794.17584,0.28778076171875,-0.12060546875,0.970947265625,5.90667724609375,-6.1309814453125,2.863616943359375,1,1.0,1.0,1.0,1.0,95.00
2021-04-16 22:40:28.307,0.06528769,1.3846692,0.7362685,0.24563543,0.17228292,0.5453822,0.16298811,0.23360972,0.5983573,0.894253,0.33971128,0.39308557,0.4866091,0.8018086,-8.587882E-4,0.264842,0.29537338,0.059259206,-0.48542717,-0.21743147,807.8755,778.0586,816.337,788.5348,816.337,0.2725830078125,-0.13189697265625,0.95611572265625,5.1739501953125,-6.048736572265625,1.203765869140625,1,1.0,1.0,1.0,1.0,95.00
2021-04-16 22:40:28.835,-0.2169538,1.3987135,0.39680263,0.25584581,0.12258166,0.63308203,0.23519011,-0.008534812,0.5874097,0.91662914,0.42256406,0.6258029,0.4557254,0.7928135,0.012437279,0.24122441,0.3144154,0.07156997,-0.46386585,-0.1554078,810.696,805.4579,805.8608,804.65204,702.71063,0.2755126953125,-0.13055419921875,0.94879150390625,4.007568359375,-4.127197265625,1.039276123046875,1,1.0,1.0,1.0,1.0,95.00
2021-04-16 22:40:29.361,-0.09248568,1.4194409,0.40374854,0.29135066,0.25897747,0.7097646,0.16532516,0.021722864,0.6049664,0.9047799,0.37319577,0.65456903,0.4161487,0.7715976,-0.051803626,0.21643873,0.37503812,0.03064002,-0.4085884,-0.12231491,822.7839,813.5165,807.8755,839.304,741.39197,0.27435302734375,-0.1263427734375,0.9500732421875,3.596343994140625,-3.461761474609375,0.740203857421875,1,1.0,1.0,1.0,1.0,95.00
2021-04-16 22:40:29.854,,,,,,,,,,,,,,,,,,,,,,,,,,,,,,,,,,,,,,/muse/elements/blink
2021-04-16 22:40:29.890,0.008739308,1.4332913,0.43068853,0.34434927,0.3604917,0.7595484,0.043510552,0.095827825,0.45817733,0.7872525,0.3754633,0.66716766,0.5179845,0.7928996,-0.072160706,0.20410317,0.35495472,0.047209665,-0.46005827,-0.1463181,827.2161,746.2271,814.3223,823.1868,616.8865,0.28179931640625,-0.128662109375,0.954345703125,4.0972900390625,-5.704803466796875,0.1495361328125,1,1.0,1.0,1.0,1.0,95.00
2021-04-16 22:40:30.414,-0.015052423,1.4332913,0.44647548,0.3642906,0.17356335,0.7595484,-0.32819805,0.030672641,0.36079478,0.7872525,0.17415401,0.46931684,0.5975706,0.7928996,-0.10766953,0.1530658,0.38563386,0.047209665,-0.42183757,-0.14940898,790.14655,765.9707,801.8315,781.685,654.7619,0.27862548828125,-0.12890625,0.95269775390625,5.001983642578125,-4.366455078125,1.62994384765625,1,1.0,1.0,1.0,1.0,95.00
2021-04-16 22:40:30.914,-0.13047974,1.4332913,0.30511138,0.18919754,0.13291495,0.7595484,-0.43495604,0.02619891,0.027404537,0.7872525,0.17650546,0.35098016,0.67763215,0.7928996,-0.06800281,0.043534473,0.38483173,0.047209665,-0.45169988,-0.14677796,823.5897,794.57874,805.05493,821.1722,826.0073,0.28363037109375,-0.12408447265625,0.9527587890625,3.626251220703125,-3.57391357421875,-0.01495361328125,1,1.0,1.0,1.0,1.0,95.00
2021-04-16 22:40:31.435,0.102622285,1.4332913,0.21098149,0.03647937,0.1765099,0.7595484,-0.19068682,0.06663354,0.32443672,0.7872525,0.030312678,0.44690996,0.4670199,0.7928996,-0.05327552,0.15058742,0.1172704,0.047209665,-0.4254625,-0.31761956,838.49817,799.011,810.696,842.1245,927.9487,0.286865234375,-0.114013671875,0.956298828125,6.078643798828125,-4.194488525390625,3.15521240234375,1,1.0,1.0,1.0,1.0,95.00
2021-04-16 22:40:31.943,0.11977327,1.4332913,-0.02657179,-0.09640127,0.049420673,0.7595484,-0.08140965,-0.011375614,0.40968505,0.7872525,0.020727675,0.5105465,0.4672447,0.7928996,-0.008998458,0.18625869,0.1635286,0.047209665,-0.44102514,-0.35937434,803.44324,774.0293,797.8022,795.38464,641.4652,0.30145263671875,-0.1298828125,0.9505615234375,5.12908935546875,-4.194488525390625,1.428070068359375,1,1.0,1.0,1.0,1.0,95.00
2021-04-16 22:40:32.448,0.091353536,1.4332913,-0.10203813,-0.01683203,0.094076194,0.7595484,-0.044461876,0.10432868,0.42211586,0.7872525,-0.01749848,0.5224127,0.44453716,0.7928996,-0.075250484,0.14290823,0.19488472,0.047209665,-0.45586047,-0.41887873,778.46155,805.4579,806.26373,779.67035,645.4945,0.28546142578125,-0.1439208984375,0.9356689453125,5.06927490234375,-9.144134521484375,1.435546875,1,1.0,1.0,1.0,1.0,95.00
2021-04-16 22:40:32.965,0.12018837,1.4332913,-0.026251823,0.1468512,0.10848083,0.7595484,0.07710091,0.27522892,0.28390068,0.7872525,0.12504183,0.5222243,0.41174206,0.7928996,-0.00978682,0.13652949,0.22097674,0.047209665,-0.49249005,-0.46851987,830.0366,729.304,806.6667,837.28937,926.7399,0.31243896484375,-0.16571044921875,0.94061279296875,5.151519775390625,-5.181427001953125,1.2261962890625,1,1.0,1.0,1.0,1.0,95.00
2021-04-16 22:40:33.488,0.22760229,1.4332913,0.038142756,0.2798389,0.16465533,0.7595484,0.080518365,0.3698599,0.46525475,0.7872525,0.097095296,0.4579919,0.45430848,0.7928996,-0.022737583,0.09784398,0.2384009,0.047209665,-0.5544478,-0.39444375,805.8608,811.50183,803.44324,796.99634,606.4103,0.310546875,-0.13330078125,0.94805908203125,5.779571533203125,-4.927215576171875,1.8841552734375,1,1.0,1.0,1.0,1.0,95.00
2021-04-16 22:40:33.998,0.21548459,1.4332913,0.13315497,0.2939644,0.14264332,0.7595484,0.043664042,0.465789,0.45100674,0.7872525,0.083089314,0.4880001,0.4354947,0.7928996,0.06594645,0.09124776,0.18277322,0.047209665,-0.58929807,-0.2981211,799.011,815.5311,804.65204,791.3553,641.06226,0.31591796875,-0.15167236328125,0.94207763671875,4.5758056640625,-4.598236083984375,0.22430419921875,1,1.0,1.0,1.0,1.0,95.00
2021-04-16 22:40:34.503,0.106123306,1.4332913,0.084159,0.15576378,0.10407034,0.7595484,-0.22239552,0.40367466,0.42515525,0.7872525,-0.06757065,0.45673642,0.4903995,0.7928996,-8.8535086E-4,0.04114706,0.27234626,0.047209665,-0.6191811,-0.26931283,814.7253,819.5604,809.89014,810.696,1027.8755,0.3079833984375,-0.15020751953125,0.94140625,4.418792724609375,-3.81317138671875,1.89910888671875,1,1.0,1.0,1.0,1.0,95.00
2021-04-16 22:40:35.012,0.03319534,1.4332913,-0.052376926,0.1729451,0.17552629,0.7595484,-0.21548375,0.35922268,0.3716962,0.7872525,0.17807838,0.45629388,0.49198195,0.7928996,0.025999686,0.09175601,0.32864982,0.047209665,-0.5292448,-0.30857015,833.2601,801.02563,806.26373,845.34796,829.2308,0.29937744140625,-0.15838623046875,0.9285888671875,4.224395751953125,-3.2000732421875,-0.52337646484375,1,1.0,1.0,1.0,1.0,95.00
2021-04-16 22:40:35.524,-0.06772491,1.1993238,-0.10380688,0.11048817,0.14211828,1.3576405,-0.21451822,0.17880748,0.57479465,1.2625577,0.17734742,0.52843887,0.5544977,0.7842957,-0.018077843,0.16947491,0.38672236,0.14062324,-0.40794504,-0.3063722,807.47253,768.7912,800.6227,815.5311,722.8571,0.31903076171875,-0.1097412109375,0.9681396484375,7.289886474609375,-3.386993408203125,3.48419189453125,1,1.0,1.0,1.0,1.0,95.00
2021-04-16 22:40:36.034,0.007373867,1.1399455,0.09417078,0.18796565,0.18666166,1.2489176,-0.0789566,0.18359977,0.58367467,1.1575167,0.18655589,0.54523295,0.55022216,0.8488404,-0.06500054,0.28372413,0.30442214,-0.003853303,-0.3670012,-0.14817517,788.93774,827.2161,801.8315,788.1319,721.2454,0.2939453125,-0.12353515625,0.96807861328125,1.293487548828125,-1.31591796875,-2.213134765625,1,1.0,1.0,1.0,1.0,95.00
2021-04-16 22:40:36.455,,,,,,,,,,,,,,,,,,,,,,,,,,,,,,,,,,,,,,/muse/elements/blink
2021-04-16 22:40:36.547,-0.038638957,1.1836731,0.1339817,0.0713008,0.2366255,1.0999739,-0.100153655,0.31450006,0.56364924,1.1670076,0.11486891,0.58849823,0.45563906,0.8189558,-0.09932395,0.30681872,0.22065915,-0.07739583,-0.36584342,-0.0026014363,777.6557,809.0842,813.5165,794.17584,761.13556,0.20904541015625,-0.19610595703125,0.94622802734375,4.448699951171875,1.07666015625,8.05999755859375,1,1.0,1.0,1.0,1.0,95.00
2021-04-16 22:40:37.053,0.46742103,1.1812357,0.28101435,0.68612427,0.5905484,1.0865532,0.076668,0.69382817,0.82239425,1.1536603,0.29080382,1.0135798,0.5377746,0.80488116,-0.09245495,0.45943975,0.12641758,-0.120602,-0.39941314,-0.0025190082,826.8132,842.1245,822.7839,830.0366,955.7509,0.17218017578125,-0.19232177734375,0.96954345703125,1.98883056640625,-0.97198486328125,4.5159912109375,1,1.0,1.0,1.0,1.0,95.00
2021-04-16 22:40:37.556,0.46844733,1.283173,0.22311266,0.6975897,0.5689117,0.957097,0.14412802,0.6844128,0.7989808,1.1029079,0.35526118,0.9992661,0.5472344,0.711694,-0.0500582,0.52747893,0.12830254,-0.0750849,-0.4135252,-0.046939224,805.05493,840.5128,807.47253,823.9927,818.3516,0.1358642578125,-0.18939208984375,0.9869384765625,7.559051513671875,-0.94207763671875,1.891632080078125,1,1.0,1.0,1.0,1.0,95.00
2021-04-16 22:40:38.066,0.38879848,1.283173,0.26377285,0.677991,0.45511767,0.957097,0.15019488,0.6105067,0.7989808,1.1029079,0.31871036,0.9992661,0.5943599,0.711694,-0.13360792,0.54020375,0.015478384,-0.0750849,-0.5257393,-0.18066613,809.0842,862.674,820.3663,811.50183,649.12085,0.02557373046875,-0.21527099609375,0.98974609375,0.85235595703125,0.88226318359375,0.55328369140625,1,1.0,1.0,1.0,1.0,95.00
2021-04-16 22:40:38.579,-0.08110913,1.283173,0.4368421,0.22289196,0.07109079,0.957097,0.15331185,0.25991538,0.37887496,1.1029079,0.32722855,0.5190191,0.44460785,0.711694,-0.17182605,0.43561804,-0.046721507,-0.0750849,-0.59165996,-0.20538272,790.9524,803.8461,815.5311,788.5348,721.2454,-0.01287841796875,-0.20660400390625,0.9825439453125,8.41888427734375,2.489776611328125,7.2076416015625,1,1.0,1.0,1.0,1.0,95.00
2021-04-16 22:40:39.106,0.9238062,1.283173,0.73661834,0.29146057,0.66594315,0.957097,0.067099325,0.3427073,0.7498622,1.1029079,0.16616043,0.41781363,0.43936485,0.711694,-0.10676013,0.31059107,-0.19438884,-0.0750849,-0.644024,-0.3194349,808.68134,861.4652,817.1429,822.381,756.7033,-0.0687255859375,-0.12548828125,0.99481201171875,12.374114990234375,-2.280426025390625,3.93280029296875,1,1.0,1.0,1.0,1.0,95.00
2021-04-16 22:40:39.619,1.0785735,1.283173,0.86605203,0.8974294,0.7770411,0.957097,0.16923048,0.31423262,0.75451887,1.1029079,0.1953186,0.38652584,0.47118363,0.711694,-0.027189814,0.40975264,-0.18897197,-0.0750849,-0.57339805,-0.23682724,811.50183,886.8498,810.293,813.5165,833.2601,-0.108642578125,-0.0880126953125,0.9908447265625,11.7236328125,0.94207763671875,1.65985107421875,1,1.0,1.0,1.0,1.0,95.00
2021-04-16 22:40:40.135,1.1564686,1.283173,0.81650215,1.1583507,0.7112373,0.957097,0.14384633,0.27603763,0.7572788,1.1029079,0.2999439,0.31461877,0.42607126,0.711694,0.045762036,0.44189978,-0.24795923,-0.0750849,-0.5184193,-0.1466279,794.57874,859.85345,803.0403,785.31134,718.4249,-0.1180419921875,-0.06121826171875,0.99609375,4.5458984375,-3.648681640625,0.052337646484375,1,1.0,1.0,1.0,1.0,95.00
2021-04-16 22:40:40.638,0.96958256,1.3238025,0.63923436,1.0283868,0.5004521,1.1602865,0.14940578,0.68152994,0.60040873,1.0401751,0.35938853,0.8150245,0.34254724,1.2448189,0.07175295,0.45467418,-0.2591161,0.4725599,-0.49971554,-0.17208925,826.4103,850.58606,803.0403,824.3956,742.1978,-0.119384765625,-0.06280517578125,0.99420166015625,7.603912353515625,-3.626251220703125,-0.07476806640625,1,1.0,1.0,1.0,1.0,95.00
2021-04-16 22:40:41.146,0.9485641,1.37475,0.1399328,1.0172261,0.3342479,1.0602787,0.20989038,0.74262786,0.70216936,1.3024606,0.446801,0.8350054,0.31184253,1.1186069,0.04786555,0.5181129,-0.18504664,0.43973663,-0.47773382,-0.1486651,829.2308,824.3956,810.696,821.5751,925.9341,-0.14141845703125,-0.05242919921875,0.9854736328125,7.424468994140625,-6.35528564453125,10.96099853515625,1,1.0,1.0,1.0,1.0,95.00
2021-04-16 22:40:41.666,0.93904436,1.3499218,0.06291942,1.0627048,0.500781,0.84876335,0.18851185,0.8680239,0.75339496,1.2780606,0.32768172,0.8786117,0.423999,0.8915808,0.043725118,0.5637767,-0.16877718,0.3418634,-0.40063038,-0.15087108,814.7253,824.3956,809.89014,819.15753,892.49084,-0.0980224609375,-0.028564453125,0.99603271484375,2.25799560546875,-6.512298583984375,4.015045166015625,1,1.0,1.0,1.0,1.0,95.00
2021-04-16 22:40:41.949,,,,,,,,,,,,,,,,,,,,,,,,,,,,,,,,,,,,,,/muse/elements/blink
2021-04-16 22:40:42.170,1.0091017,1.3386724,0.25731954,1.1604861,0.5359335,0.68516725,0.2757076,0.84305286,0.6570541,1.1867324,0.45763612,0.69817454,0.5010037,0.6589762,0.0026389079,0.5706111,-0.14423798,0.25919905,-0.43453774,-0.1271024,802.6374,860.65936,805.05493,791.75824,617.28937,-0.01788330078125,-0.0377197265625,0.996337890625,0.777587890625,-12.837677001953125,-8.86749267578125,1,1.0,1.0,1.0,1.0,80.00
2021-04-16 22:40:42.688,1.0660256,1.288521,0.318637,1.2278241,0.6877491,0.6638742,0.22263108,0.93993574,0.56579566,0.9248258,0.4460677,0.6221693,0.51706845,0.6678651,0.039754584,0.53952104,-0.29616883,0.21704742,-0.32887855,-0.17062731,814.7253,817.1429,811.0989,811.0989,796.99634,-0.0250244140625,-0.057373046875,0.998779296875,7.947845458984375,-6.377716064453125,4.59075927734375,1,1.0,1.0,1.0,1.0,80.00
2021-04-16 22:40:43.190,0.969107,1.2558781,0.32710707,1.1621681,0.70193154,0.7037369,0.19748351,0.8884998,0.51035607,0.7054456,0.45161647,0.56355417,0.41967914,0.7106503,0.05635031,0.56283826,-0.3292703,0.18440306,-0.27199292,-0.22005695,815.5311,819.9634,803.44324,822.7839,826.0073,0.0380859375,-0.06500244140625,1.0006103515625,3.529052734375,-8.052520751953125,-3.289794921875,1,1.0,1.0,1.0,1.0,80.00
2021-04-16 22:40:43.707,0.6170112,1.2558781,0.06528191,0.44513133,0.12455036,0.7037369,-0.028279174,0.07506358,-0.1444255,0.7054456,0.25321713,0.25258607,0.18752596,0.7106503,0.04562592,0.27478242,-0.28747636,0.18440306,-0.2650057,-0.15427794,835.6777,829.6337,786.52014,823.1868,719.6337,0.0325927734375,-0.05712890625,1.0068359375,4.029998779296875,-5.00946044921875,3.087921142578125,1,1.0,1.0,1.0,1.0,80.00
2021-04-16 22:40:43.775,,,,,,,,,,,,,,,,,,,,,,,,,,,,,,,,,,,,,,/muse/elements/blink
2021-04-16 22:40:44.235,0.6170112,1.2558781,0.3237646,0.44513133,0.12455036,0.7037369,0.2722533,0.07506358,-0.1444255,0.7054456,0.549364,0.25258607,0.18752596,0.7106503,0.020761594,0.27478242,-0.28747636,0.18440306,-0.2967735,-0.15427794,794.57874,816.7399,799.011,790.54944,744.21246,0.02618408203125,-0.05511474609375,1.00439453125,4.433746337890625,-4.127197265625,0.994415283203125,1,1.0,1.0,1.0,1.0,80.00
2021-04-16 22:40:44.759,0.5628189,1.2558781,0.37898266,0.31560147,0.09142331,0.7037369,0.39185604,0.17760126,-0.18501152,0.7054456,0.5498246,0.21361463,0.19840866,0.7106503,-0.058673125,0.190403,-0.30402684,0.18440306,-0.34536815,-0.22966701,794.9817,817.5458,807.47253,790.14655,721.2454,0.028564453125,-0.063232421875,1.0074462890625,4.388885498046875,-4.486083984375,-0.0,1,1.0,1.0,1.0,1.0,80.00
2021-04-16 22:40:45.290,0.111810744,1.2558781,0.3907763,0.06979845,0.54681164,0.7037369,0.42443007,0.4805251,0.32577097,0.7054456,0.5417393,0.52543443,0.33725673,0.7106503,-0.12418571,0.21434553,-0.39342645,0.18440306,-0.34555477,0.008617277,811.50183,795.78754,807.47253,809.89014,714.3956,0.02191162109375,-0.05865478515625,1.00164794921875,4.94964599609375,-4.523468017578125,1.57012939453125,1,1.0,1.0,1.0,1.0,80.00
2021-04-16 22:40:45.790,0.19145702,1.4773571,0.121258415,0.15377784,0.35342875,0.77623785,0.15348922,0.41812798,0.45095038,0.81879467,0.4422904,0.5276731,0.23904113,1.064276,-0.19923553,0.12917255,-0.18428338,0.20261545,-0.35237452,-0.05631963,814.3223,830.0366,796.99634,812.3077,773.6264,0.0115966796875,-0.0343017578125,0.9998779296875,6.6693115234375,0.7177734375,-1.712188720703125,1,1.0,1.0,1.0,1.0,80.00
2021-04-16 22:40:46.302,0.48384032,1.4773571,-0.046598785,0.5142946,0.2649041,0.77623785,-0.07835565,0.29580417,0.5153766,0.81879467,0.16107787,0.5533885,0.2848281,1.064276,-0.13550837,0.2144,-0.05671858,0.20261545,-0.4651749,0.026816376,803.0403,815.5311,806.6667,801.8315,561.28204,0.01995849609375,-0.037109375,1.00543212890625,4.50103759765625,-5.151519775390625,1.607513427734375,1,1.0,1.0,1.0,1.0,80.00
2021-04-16 22:40:46.811,0.5452817,1.4773571,-0.009979863,0.6638563,0.0823636,0.77623785,-0.15006837,0.19777344,0.62542456,0.81879467,-0.0018945137,0.5584476,0.31062874,1.064276,-0.10470133,0.28949705,0.048600357,0.20261545,-0.5082523,0.1031163,794.17584,825.6044,809.0842,789.34064,709.9634,0.0106201171875,-0.03741455078125,1.00421142578125,4.598236083984375,-4.26177978515625,1.15142822265625,1,1.0,1.0,1.0,1.0,80.00
2021-04-16 22:40:47.321,0.53974086,1.4773571,0.0693877,0.68860584,0.068980694,0.77623785,-0.08093408,0.06918329,0.64022565,0.81879467,-0.14254591,0.5841943,0.3877573,1.064276,-0.1287375,0.37515232,0.023481203,0.20261545,-0.47682646,0.08241287,802.6374,800.2198,797.8022,807.0696,791.75824,0.0147705078125,-0.04193115234375,1.0003662109375,3.701019287109375,-4.9346923828125,0.276641845703125,1,1.0,1.0,1.0,1.0,80.00
2021-04-16 22:40:47.825,,,,,,,,,,,,,,,,,,,,,,,,,,,,,,,,,,,,,,/muse/elements/blink
2021-04-16 22:40:47.838,0.42595842,1.4303348,0.4639568,0.5373482,0.03431413,1.156566,0.23861006,0.32162532,0.4408141,1.112802,-0.025507627,0.59204805,0.39201707,0.9470589,-0.21132563,0.3985861,-0.12863702,0.31565455,-0.34817943,-0.098477006,846.9597,822.7839,799.81683,853.00366,806.6667,0.0185546875,-0.04315185546875,1.00189208984375,3.087921142578125,-3.33465576171875,1.98883056640625,1,1.0,1.0,1.0,1.0,80.00
2021-04-16 22:40:48.352,0.43963444,1.4303348,0.6060339,0.40082586,-0.025552263,1.156566,0.40294385,0.37724674,0.34673062,1.112802,0.26427138,0.5529761,0.38739985,0.9470589,-0.21598303,0.4064253,-0.2779111,0.31565455,-0.3133807,-0.33138657,815.12823,797.8022,803.8461,813.91943,753.0769,0.01092529296875,-0.05523681640625,1.0064697265625,4.284210205078125,-4.44122314453125,1.936492919921875,1,1.0,1.0,1.0,1.0,80.00
2021-04-16 22:40:48.861,0.5595109,1.2889377,0.8128062,0.44378346,-0.10277815,0.9983401,0.5267189,0.56726587,0.24405858,1.2593024,0.4009359,0.29665777,0.36918366,0.9567529,-0.15484986,0.4355249,-0.38488606,0.3513856,-0.37150228,-0.42428502,791.3553,806.26373,815.5311,784.90845,639.45056,0.03167724609375,-0.06463623046875,1.0032958984375,6.08612060546875,-3.431854248046875,1.457977294921875,1,1.0,1.0,1.0,1.0,80.00
2021-04-16 22:40:49.369,0.17677705,1.1379813,0.76313317,0.094775364,0.19786872,0.59019923,0.40280077,0.07703793,0.34228688,1.352868,0.4012452,0.34453282,0.072873905,0.84061545,-0.12166402,0.36149928,-0.25898147,0.375066,-0.38449848,-0.17596373,812.3077,842.52747,769.19415,789.34064,800.2198,-0.0196533203125,-0.01629638671875,1.00445556640625,3.57391357421875,-2.983245849609375,0.58319091796875,1,1.0,1.0,1.0,1.0,80.00
2021-04-16 22:40:49.895,0.10080714,1.2124883,0.7979519,0.1291317,0.1424498,0.7856539,0.4331256,0.11166091,0.41345668,1.3553195,0.43675065,0.652448,0.04667479,0.83840513,-0.028853685,0.35047546,-0.3130341,0.37728754,-0.34477895,-0.05757442,810.293,816.7399,807.8755,817.5458,801.8315,-0.00762939453125,-0.02899169921875,1.010986328125,0.695343017578125,-2.55706787109375,2.3626708984375,1,1.0,1.0,1.0,1.0,80.00
2021-04-16 22:40:50.151,,,,,,,,,,,,,,,,,,,,,,,,,,,,,,,,,,,,,,/muse/elements/blink
2021-04-16 22:40:50.398,0.1504078,1.2257768,0.7470503,0.20920652,0.19286522,0.80276704,0.4190981,0.15007584,0.41662332,1.2502439,0.42748743,0.66160995,0.050370507,0.8533332,0.19753,0.3890526,-0.316777,0.3878763,-0.29403085,-0.047794428,813.5165,802.23444,803.44324,832.8571,704.7253,-0.0670166015625,-0.11639404296875,0.99151611328125,0.3887939453125,5.241241455078125,8.26934814453125,1,1.0,1.0,1.0,1.0,80.00
2021-04-16 22:40:50.903,0.122333415,1.2847793,0.73111546,0.29968774,0.1878034,1.0380971,0.46592933,0.2125807,0.3789109,1.1344792,0.55013597,0.66160995,0.026637048,0.86973023,0.23716895,0.41496164,-0.383462,0.44116998,-0.27624372,0.051042452,800.2198,848.97437,806.6667,792.1612,702.71063,-0.14617919921875,-0.050048828125,0.989990234375,6.1907958984375,-11.147918701171875,0.49346923828125,1,1.0,1.0,1.0,1.0,80.00
2021-04-16 22:40:51.422,0.1953666,1.299003,0.598029,0.37775302,0.24178717,1.0774599,0.21525007,0.2663578,0.3508277,1.0280538,0.52193105,0.66160995,0.04171743,0.8736038,0.16318502,0.46449208,-0.38736352,0.4503748,-0.28626916,0.07560788,818.7546,788.93774,802.6374,817.1429,888.86444,-0.0257568359375,-0.0555419921875,1.0009765625,4.62066650390625,-8.29925537109375,-0.5084228515625,1,1.0,1.0,1.0,1.0,80.00
2021-04-16 22:40:51.926,0.2696675,1.299003,0.33891988,0.46682408,-0.016026108,1.0774599,-0.006336629,-0.14273918,0.21977192,1.0280538,0.4925593,0.23895425,0.093555324,0.8736038,0.03703913,0.35350853,-0.13527796,0.4503748,-0.35492775,-0.2142268,811.0989,828.4249,798.20514,811.9048,727.28937,-0.00909423828125,-0.05230712890625,1.00909423828125,6.003875732421875,-3.611297607421875,-11.36474609375,1,1.0,1.0,1.0,1.0,80.00
2021-04-16 22:40:52.435,0.25138447,1.299003,0.37284228,0.40777257,0.01655136,1.0774599,0.15829217,-0.07956459,0.3115833,1.0280538,0.35529563,0.2657189,0.13188417,0.8736038,0.018802125,0.27874812,-0.17993808,0.4503748,-0.43489373,-0.18431093,799.011,800.2198,794.57874,789.7436,628.97437,0.00469970703125,-0.046630859375,0.99798583984375,13.226470947265625,5.1141357421875,-11.955413818359375,1,1.0,1.0,1.0,1.0,95.00
2021-04-16 22:40:52.937,0.22729573,1.2445601,0.30263028,0.33635393,0.02587088,1.1490977,0.17320575,-0.017291464,0.23029582,1.0901492,0.22758447,0.28637072,0.12610745,1.2040666,0.018038196,0.20537497,-0.20373438,0.47296035,-0.45412308,-0.2009951,813.1135,770.40295,797.8022,814.7253,867.9121,-0.2021484375,0.07122802734375,0.97552490234375,11.686248779296875,4.0673828125,-25.25665283203125,1,1.0,1.0,1.0,1.0,95.00
2021-04-16 22:40:53.453,0.12164217,1.2445601,0.39126375,0.15030861,0.22229986,1.1490977,0.18085127,0.19926006,0.5819145,1.0901492,0.11949646,0.4705498,0.1396564,1.2040666,-0.05646826,0.10006774,-0.36288363,0.47296035,-0.3894629,-0.26820883,806.26373,848.97437,800.6227,811.9048,773.6264,-0.16168212890625,0.07025146484375,0.9559326171875,0.575714111328125,-13.6676025390625,-4.23187255859375,1,1.0,1.0,1.0,1.0,95.00
2021-04-16 22:40:53.975,0.25718963,1.240839,0.34550563,0.41623127,0.262711,1.0830055,-0.16867223,0.29784277,0.6181583,1.0879117,-0.17421857,0.4491145,0.13840346,1.2043971,-0.19873834,0.103756465,-0.48737934,0.45560524,-0.37114757,-0.36878332,689.41394,733.3333,804.2491,695.4579,778.46155,-0.05023193359375,-0.05523681640625,0.99359130859375,-0.590667724609375,-12.030181884765625,-2.452392578125,1,1.0,1.0,1.0,1.0,95.00
2021-04-16 22:40:54.175,,,,,,,,,,,,,,,,,,,,,,,,,,,,,,,,,,,,,,/muse/elements/blink
2021-04-16 22:40:54.502,0.2965894,1.240839,0.20769864,0.5455877,0.33870944,1.0830055,-0.3020123,0.37131125,0.6181583,1.0879117,-0.32319114,0.44717047,0.16428228,1.2043971,-0.17164399,0.12558073,-0.58404493,0.45560524,-0.31663346,-0.38153693,796.99634,802.23444,799.81683,799.41394,879.59705,-0.04052734375,-0.03375244140625,0.99859619140625,5.226287841796875,-9.413299560546875,-2.213134765625,1,1.0,1.0,1.0,1.0,95.00
2021-04-16 22:40:55.028,0.4935093,1.240839,-0.040451553,0.7437692,0.21670868,1.0830055,-0.32244554,0.34683937,0.49361315,1.0879117,-0.038876165,0.18997592,0.18356074,1.2043971,-0.16094461,0.13390574,-0.6535406,0.45560524,-0.3533732,-0.40958852,786.1172,812.3077,799.81683,796.1905,643.0769,-0.01104736328125,-0.0152587890625,1.008056640625,4.433746337890625,-6.093597412109375,2.639312744140625,1,1.0,1.0,1.0,1.0,95.00
2021-04-16 22:40:55.554,0.5422862,1.240839,-0.39934346,0.740817,0.12578563,1.0830055,-0.08200093,0.288956,0.3724544,1.0879117,0.27914095,0.18638018,0.16261262,1.2043971,-0.0857597,0.104239196,-0.6540415,0.45560524,-0.3163781,-0.3905117,801.8315,797.8022,803.44324,805.4579,819.15753,-0.01446533203125,-0.0240478515625,1.0023193359375,4.702911376953125,-3.78326416015625,0.67291259765625,1,1.0,1.0,1.0,1.0,95.00
2021-04-16 22:40:56.082,0.21328317,1.3626084,-0.1100002,0.29691336,0.106980935,1.0726535,-0.05494467,0.31748778,1.1708053,1.0546771,0.28138778,1.2259836,0.36907715,0.9243156,-0.019396579,0.49513224,-0.37841412,0.094530985,-0.3640938,-0.21792145,813.1135,833.663,802.23444,826.0073,755.89746,-0.02239990234375,-0.029541015625,1.00115966796875,4.94964599609375,-4.47113037109375,1.016845703125,1,1.0,1.0,1.0,1.0,95.00
2021-04-16 22:40:56.593,0.271769,1.2917145,-0.031372376,0.19357187,0.11490902,0.86828333,-0.031375036,0.21423276,1.1708053,1.0969929,0.24958852,1.2259836,0.28231135,0.8012684,0.09519272,0.4344812,-0.27668393,0.20547958,-0.3733469,-0.24061036,813.91943,815.9341,795.78754,806.6667,794.57874,-0.03570556640625,0.0194091796875,1.0086669921875,1.383209228515625,-3.970184326171875,-2.773895263671875,1,1.0,1.0,1.0,1.0,95.00
2021-04-16 22:40:57.112,0.5545929,1.1653069,0.24175186,0.08678026,0.23224892,0.73244387,0.043669544,0.2124525,0.77585196,1.0666138,0.2112178,0.8598124,0.29494208,0.68513125,0.23850213,0.42149428,-0.062475838,0.18643515,-0.48544708,-0.1577887,821.5751,805.05493,801.4286,817.5458,834.4689,-0.05120849609375,-0.0128173828125,0.9971923828125,2.489776611328125,-3.701019287109375,3.42437744140625,1,1.0,1.0,1.0,1.0,95.00
2021-04-16 22:40:57.489,,,,,,,,,,,,,,,,,,,,,,,,,,,,,,,,,,,,,,/muse/elements/blink
2021-04-16 22:40:57.621,0.68866223,1.148977,0.25060347,0.0879403,0.30289903,0.67653394,0.14008906,0.31905827,0.3796457,1.1355718,0.21387745,0.626,0.2924949,0.71891063,0.19540346,0.3366939,0.0193154,0.15826012,-0.5703572,-0.12935795,820.7692,805.8608,813.91943,812.3077,653.5531,-0.045654296875,-0.0228271484375,1.00750732421875,4.762725830078125,-4.388885498046875,0.55328369140625,1,1.0,1.0,1.0,1.0,95.00
2021-04-16 22:40:58.156,0.7939362,1.3296307,0.55439246,0.16691066,0.37051532,1.0132751,0.2882628,0.44640797,0.28618416,1.1012541,0.20796576,0.53202266,0.39067838,0.70932007,0.0799171,0.3276802,0.081371896,0.25090942,-0.5289089,-0.043766208,788.1319,831.2454,810.293,799.81683,830.4396,-0.0416259765625,-0.0252685546875,1.005615234375,4.553375244140625,-4.433746337890625,1.891632080078125,1,1.0,1.0,1.0,1.0,95.00
2021-04-16 22:40:58.674,0.76168984,1.3619765,0.5558286,0.22729601,0.3229909,1.1195685,0.3511477,0.42881325,0.26752612,1.1577536,0.2256569,0.50916153,0.36667654,0.81713057,-0.089270055,0.23235726,0.021127423,0.37246287,-0.55467147,-0.10394848,799.81683,797.8022,795.78754,792.1612,652.3443,-0.0302734375,-0.01995849609375,1.00213623046875,4.97955322265625,-5.2935791015625,0.276641845703125,1,1.0,1.0,1.0,1.0,95.00
2021-04-16 22:40:59.181,0.25515682,1.3711627,0.580766,0.42757007,0.1379786,1.1792623,0.38414347,0.3713467,0.2733346,1.1345903,0.37859866,-0.03218441,0.23913667,0.7941292,-0.095480435,0.21911784,-0.27653193,0.41734284,-0.53971314,-0.15848754,805.4579,802.6374,804.2491,809.89014,828.4249,-0.03729248046875,-0.022705078125,1.00299072265625,4.358978271484375,-4.553375244140625,0.83740234375,1,1.0,1.0,1.0,1.0,95.00
2021-04-16 22:40:59.703,0.46553236,1.1274034,0.73851943,0.61127836,0.13660693,1.1022636,0.5649304,0.4980497,0.3116416,1.0470432,0.54906803,0.3006256,0.33804345,0.959837,-0.06548082,0.29728252,-0.28270248,0.40215668,-0.5744343,-0.23007631,814.7253,792.96704,809.89014,807.0696,761.9414,-0.03472900390625,-0.0225830078125,0.9967041015625,4.35150146484375,-5.0543212890625,0.7177734375,1,1.0,1.0,1.0,1.0,95.00
2021-04-16 22:41:00.223,0.4135381,1.1274034,0.78959835,0.53797364,0.0831229,1.1022636,0.53462094,0.39321846,0.32886356,1.0470432,0.49230632,0.36474398,0.41054416,0.959837,-0.011605572,0.30378562,-0.20531206,0.40215668,-0.4342815,-0.23966394,802.23444,803.0403,799.011,802.23444,620.9158,-0.0352783203125,-0.0267333984375,1.0040283203125,4.254302978515625,-4.702911376953125,2.056121826171875,1,1.0,1.0,1.0,1.0,95.00
2021-04-16 22:41:00.728,0.35515863,1.1274034,0.9121373,0.50758106,0.034109734,1.1022636,0.56085825,0.2532871,0.3241876,1.0470432,0.5367683,0.36474398,0.46155003,0.959837,0.04763867,0.27966517,-0.14797188,0.40215668,-0.37951016,-0.22118345,798.20514,807.0696,807.0696,790.54944,665.2381,-0.0313720703125,-0.017333984375,1.00274658203125,4.538421630859375,-4.2169189453125,1.1663818359375,1,1.0,1.0,1.0,1.0,95.00
2021-04-16 22:41:01.243,0.15614921,1.2612907,0.6925605,0.27476352,0.08013679,0.87349313,0.24084699,-0.20062427,0.36698675,1.222316,0.3240368,0.5525483,0.36976203,0.8875219,0.06284162,0.23125307,-0.13483247,0.26514164,-0.27047548,-0.18207473,808.68134,821.978,798.20514,805.8608,729.707,-0.02923583984375,-0.018798828125,1.00323486328125,4.344024658203125,-4.05242919921875,0.95703125,1,1.0,1.0,1.0,1.0,95.00
2021-04-16 22:41:01.746,0.24927212,1.3574722,0.6142047,0.37013096,0.16197851,0.79560137,0.20124593,-0.054088347,0.45271993,1.2184708,0.34616557,0.63850415,0.21740052,0.8192491,0.102392904,0.24206316,-0.19228925,0.1911573,-0.26043665,-0.17420107,812.3077,811.9048,795.78754,816.337,761.9414,-0.0374755859375,-0.02606201171875,1.00244140625,4.658050537109375,-4.68048095703125,0.276641845703125,1,1.0,1.0,1.0,1.0,95.00
2021-04-16 22:41:02.255,0.30405828,1.394094,0.85931116,0.47879288,0.23040661,0.7390627,0.4791896,0.2927202,0.48789927,1.2176008,0.3279782,0.62791944,0.0904882,0.7882604,0.11586683,0.3168517,-0.1737831,0.21371582,-0.24901208,-0.19794849,805.05493,830.4396,801.02563,795.78754,750.2564,-0.02850341796875,-0.02410888671875,0.99725341796875,4.463653564453125,-4.71038818359375,1.375732421875,1,1.0,1.0,1.0,1.0,95.00
2021-04-16 22:41:02.758,0.44079384,1.317943,0.8673715,0.516142,0.29443118,0.85419863,0.492112,0.39573005,0.5569696,1.0885384,0.3257029,0.6966728,0.06895553,0.6964433,0.072851494,0.29016423,-0.19631071,0.2821451,-0.30863166,-0.25718674,794.9817,806.6667,799.41394,801.8315,808.2784,-0.03118896484375,-0.02288818359375,1.003173828125,4.717864990234375,-4.463653564453125,0.904693603515625,1,1.0,1.0,1.0,1.0,95.00
2021-04-16 22:41:03.275,0.41803223,1.1984268,0.83882093,0.41464788,0.30024338,0.8728057,0.5309873,0.3830355,0.49610832,1.0840925,0.32618237,0.6483685,0.099819556,0.7590374,-2.808226E-5,0.20543563,-0.12377747,0.27091268,-0.33750746,-0.36161876,823.5897,812.71063,803.0403,819.15753,724.87177,-0.023193359375,-0.02557373046875,1.00628662109375,4.882354736328125,-5.510406494140625,2.594451904296875,1,1.0,1.0,1.0,1.0,95.00
2021-04-16 22:41:03.797,0.44556838,1.2176408,0.33269003,0.1621548,0.42802098,1.0483608,0.15765063,0.23726545,0.54149824,1.1242162,0.17288965,0.6360906,0.060692567,0.75369656,-0.08917884,0.14476092,-0.20077594,0.30437964,-0.3711405,-0.50548524,801.02563,824.3956,801.02563,806.6667,846.55676,-0.03790283203125,0.00274658203125,0.99908447265625,4.66552734375,2.100982666015625,8.38897705078125,1,1.0,1.0,1.0,1.0,95.00
2021-04-16 22:41:04.326,0.4737608,1.2928851,0.10158973,0.576023,0.5919312,1.0559556,0.2470385,0.6389822,0.536779,1.119132,0.15674785,0.6068082,0.03418838,0.7914545,-0.012218866,0.12282471,-0.20879202,0.2700371,-0.39891464,-0.4411951,801.02563,826.8132,802.6374,792.5641,672.49084,-0.0872802734375,-0.02838134765625,0.99725341796875,1.00189208984375,-3.087921142578125,8.23944091796875,1,1.0,1.0,1.0,1.0,95.00
2021-04-16 22:41:04.843,0.67760867,1.3474435,0.21119086,0.84072065,0.6703666,1.263686,0.22351493,0.82249194,0.53228885,1.3252416,0.41769522,0.63871855,0.10673045,0.89323187,0.1666698,0.17610043,-0.25199613,0.41843572,-0.43091542,-0.36669952,801.02563,804.65204,799.81683,795.78754,761.53845,-0.05999755859375,-0.07269287109375,1.0032958984375,-1.33087158203125,-11.521759033203125,18.594818115234375,1,1.0,1.0,1.0,1.0,95.00
2021-04-16 22:41:05.364,0.75214154,1.11254,0.22573128,0.87800163,0.5986315,1.1506745,0.23363028,0.8453015,0.53542155,1.3215339,0.41980526,0.6240022,0.25054356,0.84865165,0.17390157,0.26473722,-0.20534113,0.41752136,-0.46086422,-0.20035817,786.52014,845.34796,787.326,784.10254,689.011,0.00225830078125,-0.07525634765625,1.00311279296875,8.187103271484375,-8.635711669921875,-2.930908203125,1,1.0,1.0,1.0,1.0,95.00
2021-04-16 22:41:05.883,0.70800555,1.1247753,0.1201381,0.78520155,0.37125778,1.1117861,-0.05637195,0.614186,0.44479552,1.3473126,0.42732814,0.5936119,0.3200538,0.8052379,0.14796363,0.2583382,-0.24275696,0.3037107,-0.5315556,-0.0976935,790.54944,824.7985,799.41394,785.7143,662.8205,-0.00518798828125,-0.04217529296875,1.0062255859375,6.198272705078125,-5.316009521484375,-2.175750732421875,1,1.0,1.0,1.0,1.0,95.00
2021-04-16 22:41:06.398,0.67080915,1.072907,0.37441838,0.64083844,0.29648244,1.0533936,0.12729862,0.33207932,0.52324694,1.2411082,0.28712276,0.39349404,0.3681553,0.72332233,-0.038655713,0.32097188,-0.34723023,0.20567566,-0.65007037,-0.12120067,809.89014,768.7912,796.5934,800.6227,794.57874,-0.00152587890625,-0.0712890625,0.997314453125,1.218719482421875,-5.465545654296875,3.028106689453125,1,1.0,1.0,1.0,1.0,95.00
2021-04-16 22:41:06.711,,,,,,,,,,,,,,,,,,,,,,,,,,,,,,,,,,,,,,/muse/elements/blink
2021-04-16 22:41:06.909,0.69485724,1.124677,0.62210065,0.7365692,0.4200383,1.0630879,0.37620035,0.36684576,0.6001828,1.2143859,0.24213113,0.40481737,0.3793712,0.7224352,-0.10270069,0.29260463,-0.4233748,0.030438382,-0.62321687,-0.21770331,821.978,803.0403,801.8315,820.3663,702.3077,0.0283203125,-0.04437255859375,1.01214599609375,6.901092529296875,-7.005767822265625,4.687957763671875,1,1.0,1.0,1.0,1.0,95.00
2021-04-16 22:41:07.414,0.8024017,1.1260736,1.015992,0.7238249,0.57986224,1.0885595,0.8725586,0.37343764,0.5933845,1.1901877,0.46200013,0.39810902,0.4478386,0.7399489,-0.1820512,0.4161067,-0.43502617,-6.277006E-4,-0.5267103,-0.4434656,800.2198,812.3077,800.6227,805.4579,689.011,0.02423095703125,-0.06390380859375,0.95977783203125,6.721649169921875,-0.76263427734375,9.46563720703125,1,1.0,1.0,1.0,1.0,95.00
2021-04-16 22:41:07.929,0.9281289,1.1260736,0.97770596,0.8139293,0.6850856,1.0885595,0.8322634,0.43705133,0.5933845,1.1901877,0.59477216,0.3749614,0.48894122,0.7399489,-0.08185828,0.49973777,-0.47243714,-6.277006E-4,-0.49919343,-0.54931164,806.6667,825.2015,800.2198,798.20514,738.97437,0.0611572265625,-0.09197998046875,0.9979248046875,4.23187255859375,-7.349700927734375,5.899200439453125,1,1.0,1.0,1.0,1.0,95.00
2021-04-16 22:41:08.458,0.5832687,1.1260736,0.9070537,0.46158752,-0.19347218,1.0885595,0.7758352,0.14052208,0.20500693,1.1901877,0.59477216,0.30259985,0.08229475,0.7399489,0.021538483,0.35404533,-0.10640556,-6.277006E-4,-0.52682483,-0.13502055,692.23444,811.0989,817.9487,691.4286,670.87915,0.05792236328125,-0.08184814453125,0.99603271484375,5.390777587890625,-4.134674072265625,-0.4486083984375,1,1.0,1.0,1.0,1.0,95.00
2021-04-16 22:41:08.538,,,,,,,,,,,,,,,,,,,,,,,,,,,,,,,,,,,,,,/muse/elements/blink
2021-04-16 22:41:08.970,0.5832687,1.1260736,0.40933344,0.46158752,-0.19347218,1.0885595,0.22178099,0.14052208,0.20500693,1.1901877,0.45623794,0.30259985,0.08229475,0.7399489,0.05381366,0.35404533,-0.10640556,-6.277006E-4,-0.56531453,-0.13502055,827.2161,798.20514,806.26373,823.9927,804.2491,0.03900146484375,-0.08526611328125,1.00299072265625,1.24114990234375,-3.790740966796875,1.77947998046875,1,1.0,1.0,1.0,1.0,95.00
2021-04-16 22:41:09.476,0.5013392,1.0504196,0.3614735,0.42226842,-0.25950852,1.3345124,0.27115235,0.06393577,0.17686562,1.1998146,0.24482307,0.29173467,0.09521642,1.0063972,-0.022997778,0.4242118,-0.117071494,0.48390794,-0.5485413,-0.13203348,801.02563,832.4542,807.8755,791.3553,678.93774,0.02545166015625,-0.1146240234375,0.99951171875,1.375732421875,-5.87677001953125,0.515899658203125,1,1.0,1.0,1.0,1.0,95.00
2021-04-16 22:41:09.995,0.5013392,1.1722853,0.31167635,0.42226842,-0.25950852,1.1882836,0.26781657,0.06393577,0.17686562,1.2367649,0.05190968,0.29173467,0.09521642,0.9578112,-0.045171715,0.4242118,-0.117071494,0.39788914,-0.5468531,-0.13203348,803.0403,813.5165,810.293,798.60803,545.16486,0.038818359375,-0.08154296875,1.00836181640625,2.519683837890625,-7.648773193359375,5.90667724609375,1,1.0,1.0,1.0,1.0,95.00
2021-04-16 22:41:10.527,0.536378,1.242555,-0.0037349667,0.26647946,-0.13791211,1.1727166,0.051431455,0.014815713,0.2945779,1.2419904,-0.046684217,0.18906154,0.25889397,0.9400505,-0.07093481,0.27722526,-0.3629804,0.38667074,-0.49039924,-0.2152015,831.2454,810.293,798.60803,818.3516,957.76556,0.00445556640625,-0.1156005859375,0.99365234375,6.422576904296875,-0.740203857421875,-5.734710693359375,1,1.0,1.0,1.0,1.0,95.00
2021-04-16 22:41:11.049,0.49041396,1.3558054,0.20098545,0.15591563,-0.102868065,0.96776843,0.13125604,-0.02806011,0.3292932,0.9051875,0.39927927,0.3864655,0.23893562,0.875786,0.00915145,0.26503497,-0.34370494,0.28478223,-0.43150508,-0.2419353,828.8278,747.4359,797.8022,832.0513,850.989,0.12591552734375,-0.1259765625,0.9940185546875,5.091705322265625,-11.065673828125,0.34393310546875,1,1.0,1.0,1.0,1.0,95.00
2021-04-16 22:41:11.579,0.5385118,1.468527,0.39392918,0.07320852,-0.0035310185,0.9809541,0.2196118,0.1031309,0.32200724,0.7884425,0.405973,0.49038646,0.26598805,0.8475982,-0.008170376,0.26637346,-0.21449268,0.28985697,-0.37110865,-0.16987197,815.9341,837.28937,805.8608,810.696,750.65936,0.1441650390625,-0.09027099609375,0.99847412109375,5.301055908203125,-4.66552734375,-0.396270751953125,1,1.0,1.0,1.0,1.0,95.00
2021-04-16 22:41:12.104,0.40169173,1.468527,0.38143164,-0.035556886,0.017145678,0.9809541,0.21298765,0.13968737,0.21300617,0.7884425,0.42541215,0.49724114,0.22235332,0.8475982,0.071675934,0.31786168,-0.20371537,0.28985697,-0.4023514,-0.21398816,784.5055,818.7546,802.23444,787.72894,674.5055,0.1065673828125,-0.1107177734375,0.9912109375,4.673004150390625,-7.476806640625,2.235565185546875,1,1.0,1.0,1.0,1.0,95.00
2021-04-16 22:41:12.630,0.23485242,1.468527,0.07227854,0.054531768,0.15715343,0.9809541,0.059186038,0.1764527,0.55442524,0.7884425,0.22507139,0.49890316,0.346446,0.8475982,-0.02063162,0.31646365,-0.23498781,0.28985697,-0.46945456,-0.27241957,792.1612,707.1429,800.6227,794.9817,628.1685,0.2235107421875,-0.092041015625,0.99713134765625,4.867401123046875,-7.439422607421875,4.18701171875,1,1.0,1.0,1.0,1.0,95.00
2021-04-16 22:41:13.132,0.03200423,1.468527,-0.12986022,0.10458506,0.18646093,0.9809541,-0.12394979,0.010642934,0.5480761,0.7884425,0.1579643,0.52943605,0.4453752,0.8475982,-0.030587537,0.29140058,-0.3611565,0.28985697,-0.5423266,-0.36564058,786.9231,808.2784,809.89014,792.5641,836.08057,0.17999267578125,-0.08758544921875,0.98193359375,3.75335693359375,-3.170166015625,-0.52337646484375,1,1.0,1.0,1.0,1.0,95.00
2021-04-16 22:41:13.651,-0.032294683,1.468527,-0.010927369,0.112520814,0.16711539,0.9809541,-0.15328103,0.027486295,0.5440422,0.7884425,0.08319838,0.5216529,0.46999913,0.8475982,-0.052075207,0.26110116,-0.37011236,0.28985697,-0.5375915,-0.27038306,818.3516,831.6484,806.26373,818.7546,730.9158,0.1815185546875,-0.09539794921875,0.9791259765625,4.44122314453125,-5.57769775390625,0.186920166015625,1,1.0,1.0,1.0,1.0,95.00
2021-04-16 22:41:14.168,0.0862861,1.468527,0.13025643,0.047710773,0.1460551,0.9809541,-0.13558608,0.055196427,0.48402303,0.7884425,0.06746508,0.5515723,0.375769,0.8475982,-0.020351382,0.2903947,-0.28087434,0.28985697,-0.46569496,-0.22952463,761.9414,718.022,803.8461,759.92676,853.4066,0.18780517578125,-0.07586669921875,0.98260498046875,5.443115234375,-4.179534912109375,0.19439697265625,1,1.0,1.0,1.0,1.0,95.00
2021-04-16 22:41:14.429,,,,,,,,,,,,,,,,,,,,,,,,,,,,,,,,,,,,,,/muse/elements/blink
2021-04-16 22:41:14.684,0.08402598,1.468527,0.18466677,0.04298832,0.14124341,0.9809541,-0.012344074,0.117291264,0.15896364,0.7884425,0.052928027,0.46178642,0.259626,0.8475982,-0.009542604,0.3128268,-0.23524594,0.28985697,-0.38724372,-0.20068148,817.9487,833.2601,786.52014,823.5897,781.28204,0.1812744140625,-0.08782958984375,0.98175048828125,3.715972900390625,-4.538421630859375,1.7645263671875,1,1.0,1.0,1.0,1.0,95.00
2021-04-16 22:41:15.215,0.16476265,1.468527,0.24492972,-0.088734165,0.30604276,0.9809541,0.14269088,0.11319352,0.13426436,0.7884425,0.052928027,0.45358667,0.15440324,0.8475982,-0.012454852,0.3212895,-0.17812559,0.28985697,-0.34105596,-0.37296638,773.6264,805.4579,784.10254,782.49084,562.0879,0.18060302734375,-0.07427978515625,0.98931884765625,5.286102294921875,-4.26177978515625,1.009368896484375,1,1.0,1.0,1.0,1.0,95.00
2021-04-16 22:41:15.739,0.14570938,1.468527,0.2687651,-0.14971276,0.3533122,0.9809541,0.20916417,0.1470162,0.13426436,0.7884425,0.052928027,0.45358667,0.12349003,0.8475982,0.02926457,0.34889832,-0.21124838,0.28985697,-0.31029907,-0.46041664,803.0403,812.71063,786.52014,796.1905,733.73627,0.19317626953125,-0.07122802734375,0.9827880859375,5.24871826171875,-4.299163818359375,0.755157470703125,1,1.0,1.0,1.0,1.0,95.00
2021-04-16 22:41:16.267,0.19549204,1.468527,0.4804325,-0.06073779,-0.13467813,0.9809541,0.422586,-0.0059033874,0.24502954,0.7884425,0.089415714,0.22977716,-0.0033875054,0.8475982,-0.23003677,0.0131510245,-0.3512256,0.28985697,-0.5425136,-0.28336555,824.7985,815.12823,794.17584,816.7399,822.381,0.19329833984375,-0.08770751953125,0.98516845703125,4.269256591796875,-6.7889404296875,2.594451904296875,1,1.0,1.0,1.0,1.0,95.00
2021-04-16 22:41:16.770,0.13438188,0.9752168,0.59569776,0.0351289,-0.032938708,0.7553032,0.3626045,0.052493285,0.36605614,0.7594409,0.14739896,0.28227955,0.061939947,0.6753739,-0.18982899,0.1013509,-0.28569672,0.059771415,-0.6187344,-0.3461067,821.1722,830.0366,799.41394,824.3956,722.0513,0.18096923828125,-0.06060791015625,0.986572265625,4.5758056640625,-3.446807861328125,1.622467041015625,1,1.0,1.0,1.0,1.0,95.00
2021-04-16 22:41:17.273,0.1953478,1.1689463,0.5501438,0.016548857,0.0059948224,0.989703,0.25609463,0.10911262,0.36444083,1.139431,-0.03428766,0.37676725,0.24604614,0.6860761,-0.13659522,0.15787177,-0.15922469,-0.029804751,-0.61104375,-0.43202856,795.78754,825.6044,801.02563,795.38464,739.7802,0.18511962890625,-0.07666015625,0.988037109375,3.686065673828125,-4.66552734375,1.8841552734375,1,1.0,1.0,1.0,1.0,95.00
2021-04-16 22:41:17.784,0.14109457,1.2026855,0.44095695,-0.04390024,-0.021376444,1.0344462,0.020674108,0.21766958,0.31078562,1.1525724,-0.15013766,0.35459143,0.31734377,0.632724,-0.055140436,0.18430409,-0.15724286,-0.048910793,-0.6330689,-0.48258552,788.5348,797.3993,803.44324,792.96704,642.674,0.19378662109375,-0.0751953125,0.9813232421875,4.538421630859375,-4.732818603515625,-0.052337646484375,1,1.0,1.0,1.0,1.0,95.00
2021-04-16 22:41:18.294,0.06526355,1.3158325,0.1237325,-0.224876,-0.062345974,1.0020568,-0.15629748,0.2338172,0.22125018,1.1851572,0.119412005,0.40521416,0.28670144,0.5199306,-0.08027214,0.17570767,-0.12317294,-0.033663083,-0.5751085,-0.24907203,826.4103,806.6667,796.99634,806.6667,805.8608,0.187744140625,-0.07757568359375,0.98260498046875,5.196380615234375,-3.42437744140625,1.06170654296875,1,1.0,1.0,1.0,1.0,95.00
2021-04-16 22:41:18.800,-0.142437,1.187584,-0.048926655,0.038794678,-0.016755758,0.82075214,-0.13183008,0.21285066,0.24384117,0.8392472,0.123147525,0.29499146,0.14945097,0.48000485,-0.110474944,0.31714615,-0.1248184,0.0060197087,-0.56200933,-0.17421332,821.5751,805.4579,805.4579,828.022,1046.8132,0.17486572265625,-0.0823974609375,0.9847412109375,4.000091552734375,-4.463653564453125,0.6280517578125,1,1.0,1.0,1.0,1.0,95.00
2021-04-16 22:41:19.302,0.06308484,1.2053893,-0.118412614,0.25199533,0.06336308,0.97862166,-0.12088455,0.09413814,0.18573803,0.9125835,0.13421677,0.41842595,0.13512816,0.5049532,-0.13011958,0.33960494,-0.10503111,0.06583594,-0.5095592,-0.15459819,788.93774,796.99634,799.81683,782.0879,672.49084,0.19171142578125,-0.0789794921875,0.979736328125,4.53094482421875,-5.615081787109375,2.4822998046875,1,1.0,1.0,1.0,1.0,95.00
2021-04-16 22:41:19.814,0.26605085,1.1169597,-0.3882855,0.32549226,0.10767887,1.0916998,-0.14771692,0.19736275,0.21672344,1.0428553,0.03592688,0.42413333,0.13878833,0.5245837,-0.09910846,0.3335991,-0.12624137,0.04799277,-0.45746425,-0.18526673,815.9341,781.685,802.6374,816.337,816.7399,0.1732177734375,-0.06561279296875,0.98291015625,5.929107666015625,-4.20196533203125,2.654266357421875,1,1.0,1.0,1.0,1.0,95.00
2021-04-16 22:41:20.323,0.3298594,1.1633207,-0.19116804,0.22250462,0.17068139,1.2459359,-0.18725306,0.15094341,0.33988026,1.008469,0.014450959,0.3769768,0.085999705,0.48840916,-0.11259996,0.1657479,-0.14057674,0.1007747,-0.4614601,-0.24244809,819.9634,807.8755,804.65204,821.5751,831.2454,0.18011474609375,-0.072021484375,0.98699951171875,3.81317138671875,-4.284210205078125,1.3458251953125,1,1.0,1.0,1.0,1.0,95.00
2021-04-16 22:41:20.841,0.2417336,1.0865659,-0.014555513,-0.059090596,0.1748279,1.1032712,-0.17457765,0.1254676,0.36058047,1.0022006,0.020417815,0.30072838,0.05137176,0.47977233,-0.12297214,0.1279208,-0.07214784,0.052064937,-0.539747,-0.27995735,800.2198,829.2308,799.41394,795.38464,603.1868,0.16455078125,-0.0870361328125,0.98828125,2.51220703125,-5.929107666015625,0.7476806640625,1,1.0,1.0,1.0,1.0,95.00
2021-04-16 22:41:21.346,0.099110015,1.227026,0.068195805,0.22035536,0.15605426,1.1103003,-0.25417492,0.16652168,0.33759573,0.9903577,-0.021306774,0.17525071,0.054042324,0.8068293,-0.044295963,0.19195758,-0.10492342,0.2294865,-0.6035903,-0.4203982,785.31134,803.0403,800.2198,787.72894,613.2601,0.17828369140625,-0.0819091796875,0.9910888671875,6.92352294921875,-6.003875732421875,2.392578125,1,1.0,1.0,1.0,1.0,95.00
2021-04-16 22:41:21.864,0.12902555,1.1955353,-0.019991478,0.3174716,0.13432424,1.1612898,-0.20583087,0.27548653,0.24662189,1.5088514,0.10263051,0.15299946,0.060018335,0.9334929,-0.06741392,0.19093628,-0.28313786,0.32278788,-0.65870064,-0.39443687,805.8608,828.4249,808.68134,802.23444,809.89014,0.16363525390625,-0.079833984375,0.98858642578125,5.90667724609375,-5.084228515625,3.162689208984375,1,1.0,1.0,1.0,1.0,95.00
2021-04-16 22:41:22.375,0.090915196,1.1109202,-0.065084055,0.29201955,0.113201864,1.2494913,-0.14192112,0.23801419,0.14370042,1.653177,0.14039032,-0.025211489,0.1559993,1.0686098,-0.03664756,0.17729864,-0.35449177,0.4471609,-0.6067209,-0.18838961,828.022,793.36993,805.8608,823.5897,771.6117,0.1746826171875,-0.0906982421875,0.98529052734375,4.209442138671875,-4.9945068359375,1.71966552734375,1,1.0,1.0,1.0,1.0,95.00
2021-04-16 22:41:22.887,-0.020938547,1.067478,-0.03947658,-0.05992343,0.21419932,1.2210097,0.06136495,0.016315011,0.17581914,1.6652437,0.095288254,-0.015166648,0.13093887,1.1859571,-0.043955658,0.06352385,-0.32705078,0.51208866,-0.52653664,-0.120869584,825.6044,810.696,806.26373,817.9487,773.6264,0.16729736328125,-0.0740966796875,0.98779296875,4.18701171875,-3.887939453125,0.770111083984375,1,1.0,1.0,1.0,1.0,95.00
2021-04-16 22:41:23.394,-0.07219886,1.0995294,-0.0764825,-0.17157121,0.22873165,1.2366278,0.087533705,-0.15281336,0.41288173,1.5815254,0.14180167,-0.023395073,0.18886647,1.2372065,-0.00555956,0.07625557,-0.2262315,0.56585705,-0.45003852,-0.09037226,782.8938,776.8498,799.41394,777.25275,621.31866,0.16351318359375,-0.0858154296875,0.98187255859375,4.74029541015625,-3.7982177734375,0.2392578125,1,1.0,1.0,1.0,1.0,95.00
2021-04-16 22:41:23.905,-0.006957953,1.1680675,-0.020375565,0.0041857758,0.21674785,1.2011247,0.03946792,-0.076618105,0.50128406,1.5017664,0.05758369,0.182617,0.15084057,1.2802047,-0.06588728,0.043263502,-0.21259588,0.5947604,-0.3793981,-0.2223384,790.9524,779.67035,811.0989,792.96704,654.7619,0.166015625,-0.08770751953125,0.981689453125,3.60382080078125,-5.21881103515625,1.727142333984375,1,1.0,1.0,1.0,1.0,95.00
2021-04-16 22:41:24.412,-0.0366602,1.2247598,-0.009523583,-0.011555655,0.07417424,1.2417512,-0.18724827,-0.13991709,0.5172831,1.4278587,0.061122365,0.19942525,0.19671483,1.2604516,-0.17498489,0.13060617,-0.1863698,0.6078781,-0.41528186,-0.30687466,827.2161,787.72894,808.68134,815.5311,826.4103,0.16705322265625,-0.09002685546875,0.984375,3.626251220703125,-5.091705322265625,0.889739990234375,1,1.0,1.0,1.0,1.0,95.00
2021-04-16 22:41:24.926,-0.06479474,1.2247598,0.0116622485,0.028265288,-0.061275784,1.2417512,-0.33254558,-0.07192754,0.519428,1.4278587,0.075284034,0.23766562,0.18612662,1.2604516,-0.16926983,0.20692143,-0.18355659,0.6078781,-0.4418708,-0.27505252,790.9524,799.81683,803.0403,798.20514,634.61536,0.173828125,-0.0892333984375,0.98248291015625,4.613189697265625,-4.44122314453125,1.772003173828125,1,1.0,1.0,1.0,1.0,95.00
2021-04-16 22:41:25.434,-0.12314572,1.5279983,0.03404139,-0.044222295,-0.10763299,0.89337647,-0.29489195,-0.049451966,0.31871527,0.9748523,-0.06475721,0.3080621,0.16694535,0.9264823,-0.16215836,0.25873175,-0.18038079,0.51826334,-0.5424665,-0.26217404,796.1905,788.1319,807.0696,792.1612,622.1245,0.16021728515625,-0.0821533203125,0.9871826171875,5.5029296875,-4.127197265625,2.3626708984375,1,1.0,1.0,1.0,1.0,95.00
2021-04-16 22:41:25.952,-0.097055286,1.5279983,0.13981684,0.019343704,-0.1098051,0.89337647,-0.12882712,0.028238792,0.34633747,0.9748523,0.16266616,0.4918609,0.16499645,0.9264823,-0.17374004,0.29224834,-0.20482272,0.51826334,-0.5910541,-0.24020557,814.3223,803.8461,807.0696,813.5165,921.50183,0.1607666015625,-0.07489013671875,0.98760986328125,4.41131591796875,-4.194488525390625,2.31781005859375,1,1.0,1.0,1.0,1.0,95.00
2021-04-16 22:41:26.484,-0.075036965,1.5279983,0.19086057,-0.052163724,-0.040730637,0.89337647,-0.08008154,-0.062716804,0.33302477,0.9748523,0.13980535,0.4830624,0.18688415,0.9264823,-0.15493092,0.24053232,-0.22060707,0.51826334,-0.62530285,-0.35839283,788.1319,801.02563,805.05493,789.34064,621.7216,0.16461181640625,-0.0889892578125,0.98492431640625,5.443115234375,-7.8057861328125,3.656158447265625,1,1.0,1.0,1.0,1.0,95.00
2021-04-16 22:41:27.013,-0.019550378,1.5279983,0.19236904,0.040592827,0.18544799,0.89337647,-0.16648643,-0.04165728,0.41750368,0.9748523,0.23711102,0.51969856,0.16306916,0.9264823,-0.13151394,0.17632593,-0.23422484,0.51826334,-0.56528926,-0.34593475,823.5897,817.9487,794.17584,836.08057,918.2784,0.16668701171875,-0.075927734375,0.98895263671875,5.256195068359375,-2.49725341796875,0.91217041015625,1,1.0,1.0,1.0,1.0,95.00
2021-04-16 22:41:27.515,0.2421264,1.1316338,0.3825075,0.12442376,0.20570667,0.9357658,-0.34451386,0.08237329,0.37615448,1.0441494,0.21157742,0.40806803,0.18286668,0.76663506,-0.13233763,0.20883305,-0.28321567,0.2992001,-0.6196954,-0.26952407,804.2491,810.696,804.65204,809.0842,892.0879,0.146240234375,-0.113525390625,0.98577880859375,0.979461669921875,-6.602020263671875,-1.80938720703125,1,1.0,1.0,1.0,1.0,95.00
2021-04-16 22:41:28.034,0.42797366,1.1442695,0.33839053,0.15833203,0.09682371,0.98743767,-0.34608048,0.100745015,0.51933783,1.176317,0.24004056,0.47197893,0.121372424,0.6793346,-0.16706811,0.27130377,-0.30791736,0.21805583,-0.6100931,-0.25967172,785.7143,782.49084,802.6374,786.9231,609.2308,0.17755126953125,-0.09844970703125,0.98028564453125,5.263671875,-3.895416259765625,1.62994384765625,1,1.0,1.0,1.0,1.0,95.00
2021-04-16 22:41:28.547,0.36526668,1.2717122,0.2759269,0.35216337,-0.13996972,1.0427788,-0.19210224,0.2549277,0.3799352,1.1690803,0.31723467,0.3904514,0.043296073,0.628055,-0.13884789,0.208615,-0.32729813,0.13422066,-0.6408797,-0.26218724,793.36993,819.9634,799.81683,794.57874,720.4396,0.19244384765625,-0.09759521484375,0.98223876953125,4.91973876953125,-4.9346923828125,1.1663818359375,1,1.0,1.0,1.0,1.0,95.00
2021-04-16 22:41:29.062,0.25027597,1.2930446,-0.1069739,0.31161815,-0.17227079,1.1294451,-0.13648376,0.22641031,0.44106022,1.1270252,0.29219046,0.44171834,-0.0055017257,0.57761556,-0.07982078,0.070958346,-0.31112012,0.054472283,-0.6275751,-0.25491664,813.91943,820.7692,804.65204,808.2784,688.60803,0.17364501953125,-0.09088134765625,0.98980712890625,5.674896240234375,-4.747772216796875,0.0299072265625,1,1.0,1.0,1.0,1.0,95.00
2021-04-16 22:41:29.579,-0.010317435,1.2781125,-0.15362544,0.28952762,-0.08340618,1.0598226,-0.10093283,0.2680205,0.4355451,1.0771967,0.27619955,0.48166206,0.06318417,0.5689016,-0.08314122,0.04486722,-0.32503593,-0.022462845,-0.6912588,-0.22436428,792.96704,796.99634,798.20514,791.75824,626.9597,0.17388916015625,-0.09686279296875,0.9791259765625,5.921630859375,-5.241241455078125,4.23187255859375,1,1.0,1.0,1.0,1.0,95.00
2021-04-16 22:41:30.093,-0.014623781,1.1568319,-0.1996242,0.14737912,-0.0016624599,1.0137008,-0.16079324,0.19499321,0.3136833,1.0176448,0.12953304,0.4844679,0.18707821,0.5659482,-0.15323786,0.23922789,-0.3751825,0.02803217,-0.7111892,-0.26932597,805.8608,797.3993,805.05493,795.78754,665.2381,0.181396484375,-0.0924072265625,0.982177734375,4.4561767578125,-3.409423828125,-0.800018310546875,1,1.0,1.0,1.0,1.0,95.00
2021-04-16 22:41:30.612,0.04322981,1.2231156,-0.13454269,0.2949494,0.069917865,0.72274077,-0.12799509,0.13500038,0.46463913,0.9914279,0.12075213,0.4826783,0.26969215,0.58348906,-0.16826175,0.32954654,-0.377395,0.050332505,-0.6626505,-0.3353452,813.5165,792.1612,798.60803,811.50183,879.59705,0.18707275390625,-0.0926513671875,0.98028564453125,4.17205810546875,-4.299163818359375,2.1234130859375,1,1.0,1.0,1.0,1.0,95.00
2021-04-16 22:41:31.123,-0.027683232,1.3472493,0.25075266,0.28655073,0.18311928,0.725535,-0.17313404,0.10819983,0.54734975,0.5633877,0.15773414,0.5786976,0.20067987,0.62541586,-0.106503226,0.38095817,-0.28619635,0.063547924,-0.5373859,-0.39871424,823.9927,801.8315,792.1612,826.8132,847.3626,0.17791748046875,-0.09423828125,0.99139404296875,2.041168212890625,-4.089813232421875,-3.7384033203125,1,1.0,1.0,1.0,1.0,95.00
2021-04-16 22:41:31.646,-0.19421522,1.2425377,0.43289846,0.14132652,0.17097308,0.7351106,-0.13428745,0.032195974,0.5539774,0.8197854,0.19753373,0.5709739,0.15948823,0.72585106,-0.119537674,0.3735795,-0.2473922,0.13013536,-0.53376377,-0.32906178,809.89014,828.4249,805.05493,817.9487,706.7399,0.16107177734375,-0.091064453125,0.986572265625,4.164581298828125,-4.613189697265625,-0.2392578125,1,1.0,1.0,1.0,1.0,95.00
2021-04-16 22:41:32.155,-0.041952506,1.2000736,0.41304743,0.34926635,0.20898229,0.85218954,-0.22638829,0.20811097,0.5181477,1.082195,0.20075238,0.55161625,0.16838036,0.7703883,-0.17664608,0.36588705,-0.22947156,0.18214726,-0.47883344,-0.30135778,776.4469,809.89014,801.02563,771.2088,577.3993,0.1553955078125,-0.08685302734375,0.98779296875,4.089813232421875,-2.9608154296875,0.620574951171875,1,1.0,1.0,1.0,1.0,95.00
2021-04-16 22:41:32.664,0.14423771,1.0557332,0.1994805,0.4858833,0.2272024,1.0548757,-0.27067745,0.27190393,0.5768843,1.1242396,0.08413932,0.538603,0.28724957,0.7632183,-0.24839036,0.31111506,-0.31744096,0.116573624,-0.52428144,-0.274998,792.96704,807.47253,797.3993,800.2198,735.7509,0.15411376953125,-0.0849609375,0.98870849609375,5.301055908203125,-3.745880126953125,1.95892333984375,1,1.0,1.0,1.0,1.0,95.00
2021-04-16 22:41:33.196,0.3035086,1.0625122,-0.23479064,0.5571883,0.2491013,1.1101028,-0.105697565,0.31465435,0.65311986,1.0909667,0.23542795,0.5197829,0.3006263,0.62933683,-0.20980085,0.30208036,-0.3582583,0.082846686,-0.5463372,-0.30885628,836.4835,821.5751,803.44324,839.707,1116.1172,0.16522216796875,-0.08319091796875,0.9884033203125,7.10296630859375,-2.91595458984375,2.6019287109375,1,1.0,1.0,1.0,1.0,95.00
2021-04-16 22:41:33.528,,,,,,,,,,,,,,,,,,,,,,,,,,,,,,,,,,,,,,/muse/elements/blink
2021-04-16 22:41:33.711,0.32884562,0.8765135,-0.2700782,0.4645467,0.21026035,1.1371619,0.04585741,0.26831323,0.6725617,0.94800574,0.17404215,0.56452554,0.26869822,0.56871814,-0.10587176,0.26617694,-0.39232105,0.014779921,-0.67359114,-0.34329104,826.0073,784.10254,795.38464,829.2308,709.9634,0.12481689453125,-0.07476806640625,0.9874267578125,6.7291259765625,-3.252410888671875,5.360870361328125,1,1.0,1.0,1.0,1.0,95.00
2021-04-16 22:41:34.216,0.36607036,1.0510854,-0.17714912,0.4419681,0.089852706,0.96207273,0.18315291,0.2660457,0.66380525,0.55534685,0.19560823,0.50341976,0.1403771,0.32705125,-0.08029087,0.31779453,-0.3498438,0.13919075,-0.69502115,-0.33747438,821.978,830.0366,799.81683,818.3516,911.8315,0.08563232421875,-0.0361328125,0.9952392578125,8.471221923828125,0.49346923828125,0.1495361328125,1,1.0,1.0,1.0,1.0,95.00
2021-04-16 22:41:34.729,0.42239243,1.0510854,0.1307084,0.5007965,-0.112263165,0.96207273,0.1545371,0.30446407,0.45859602,0.55534685,0.1590923,0.46325067,0.06898333,0.32705125,0.009531239,0.31169945,-0.36172134,0.13919075,-0.5856328,-0.37035182,812.3077,819.9634,795.78754,808.2784,641.8681,0.0289306640625,0.0396728515625,1.00506591796875,13.630218505859375,-1.697235107421875,-18.116302490234375,1,1.0,1.0,1.0,1.0,95.00
2021-04-16 22:41:35.252,1.0229868,1.2449871,0.3419439,0.868418,0.8307906,0.8229235,0.08326512,0.88203245,0.40956503,1.1246873,0.2648692,0.49727955,0.3563841,0.7389989,0.004903908,0.39908925,-0.11613255,0.048228934,-0.5708548,0.08197105,818.7546,829.6337,815.9341,818.7546,814.3223,-0.03167724609375,0.07763671875,1.00946044921875,6.452484130859375,-1.099090576171875,-5.330963134765625,1,1.0,1.0,1.0,1.0,95.00
2021-04-16 22:41:35.754,1.0438573,1.2449871,0.4425446,0.9963716,0.79927176,0.8229235,-0.05640842,0.79416096,0.5632335,1.1246873,0.2648692,0.7821166,0.41808984,0.7389989,-0.013053862,0.3340226,-0.019574806,0.048228934,-0.5932187,0.07202807,816.7399,842.52747,811.50183,824.7985,820.3663,-0.0423583984375,0.01885986328125,1.00860595703125,0.291595458984375,1.39068603515625,9.88433837890625,1,1.0,1.0,1.0,1.0,95.00
2021-04-16 22:41:36.265,0.969206,1.3130786,0.43910244,0.93714875,0.66928935,0.8739433,-0.12696706,0.66931,0.5714058,1.1246873,0.18481255,0.7821166,0.3473566,0.7766175,-0.03017392,0.26567188,0.024376085,0.055538878,-0.6679048,-0.028769033,823.1868,788.5348,798.20514,811.0989,667.25275,-0.14971923828125,0.09710693359375,0.98858642578125,24.41925048828125,6.4300537109375,20.83038330078125,1,1.0,1.0,1.0,1.0,95.00
2021-04-16 22:41:36.777,0.9307971,1.365327,0.37253255,0.91111463,0.27508557,0.8804142,-0.02853826,0.4058603,0.5803159,1.1246873,0.41909093,0.6470971,0.37425378,0.7949054,-0.0053604883,0.33534828,0.11510205,0.032171376,-0.6574797,-0.106176466,792.96704,799.81683,813.91943,801.02563,707.5458,-0.2598876953125,0.3023681640625,0.93695068359375,9.28619384765625,6.751556396484375,9.667510986328125,1,1.0,1.0,1.0,1.0,95.00
2021-04-16 22:41:37.290,0.9427295,1.365327,0.510645,0.74799037,0.12656783,0.8804142,0.070442975,0.32992294,0.54291177,1.1246873,0.46553582,0.45937058,0.454985,0.7949054,0.047188707,0.3406205,0.21408312,0.032171376,-0.60254824,-0.20040506,786.1172,853.4066,794.17584,783.69965,859.45056,-0.1761474609375,0.22259521484375,0.94708251953125,-3.45428466796875,-16.64337158203125,-12.194671630859375,1,1.0,1.0,1.0,1.0,95.00
2021-04-16 22:41:37.815,0.8637743,1.365327,0.7124787,0.7035009,0.051776092,0.8804142,0.220544,0.22562288,0.5421525,1.1246873,0.46484655,0.30691445,0.60685366,0.7949054,0.015798492,0.3341604,0.45215285,0.032171376,-0.56360346,-0.20524634,821.978,813.91943,801.8315,816.7399,813.91943,-0.13128662109375,0.1885986328125,1.000244140625,0.007476806640625,-6.063690185546875,-5.86181640625,1,1.0,1.0,1.0,1.0,95.00
2021-04-16 22:41:38.279,,,,,,,,,,,,,,,,,,,,,,,,,,,,,,,,,,,,,,/muse/elements/blink
2021-04-16 22:41:38.345,0.7336799,1.365327,0.66940206,0.6913986,0.24605562,0.8804142,0.16186313,0.32592532,0.50199705,1.1246873,0.47655866,0.3679917,0.6514574,0.7949054,-0.07204479,0.24752617,0.4878801,0.032171376,-0.56393415,-0.25690758,834.0659,801.8315,798.60803,836.08057,876.3736,-0.18621826171875,0.11566162109375,0.9827880859375,-7.955322265625,-6.759033203125,0.800018310546875,1,1.0,1.0,1.0,1.0,95.00
2021-04-16 22:41:38.867,0.40873092,1.365327,0.6442901,0.75055224,0.22455585,0.8804142,0.5546544,0.2648311,0.3038263,1.1246873,0.7354671,0.26096597,0.62738264,0.7949054,-0.17319565,0.2440614,0.52378476,0.032171376,-0.5753651,-0.2861612,794.57874,822.381,807.47253,781.28204,621.31866,-0.15771484375,-0.01348876953125,0.97161865234375,0.85235595703125,-9.353485107421875,-18.759307861328125,1,1.0,1.0,1.0,1.0,95.00
2021-04-16 22:41:39.381,0.5289238,1.365327,0.7445864,0.72990966,0.29097024,0.8804142,0.5831115,0.3612017,0.30222732,1.1246873,0.79374224,0.24446186,0.54749686,0.7949054,-0.14378984,0.25844058,0.30567512,0.032171376,-0.58981067,-0.3504986,778.46155,803.8461,809.89014,781.28204,626.9597,-0.17730712890625,0.0325927734375,0.99102783203125,2.99072265625,-1.114044189453125,-0.500946044921875,1,1.0,1.0,1.0,1.0,95.00
2021-04-16 22:41:39.885,0.90795743,1.365327,0.9591005,0.80025315,0.9521949,0.8804142,0.6195459,0.7681224,0.86617804,1.1246873,0.79374224,0.87759846,0.619597,0.7949054,-0.0381992,0.4640001,0.2285343,0.032171376,-0.50384176,0.19085291,790.9524,826.0073,788.5348,771.2088,664.0293,-0.1851806640625,-0.01995849609375,0.97930908203125,-1.12152099609375,-3.57391357421875,2.429962158203125,1,1.0,1.0,1.0,1.0,95.00
2021-04-16 22:41:40.391,0.96538043,1.365327,0.92501134,0.9414467,0.94451183,0.8804142,0.26769245,0.711988,0.86641526,1.1246873,0.4809387,0.88402927,0.6036037,0.7949054,0.08018855,0.43812677,0.19123654,0.032171376,-0.45104778,0.1325576,810.293,828.4249,810.293,815.5311,776.4469,-0.150634765625,-0.01458740234375,0.996337890625,4.164581298828125,-7.40203857421875,1.712188720703125,1,1.0,1.0,1.0,1.0,95.00
2021-04-16 22:41:40.911,0.9480336,1.4189013,0.8730028,0.87300146,0.9162619,1.3217043,0.31121063,0.6277554,0.86641526,0.9424957,0.61410594,0.8903047,0.5106822,0.41374862,0.021495279,0.47493228,0.07983563,8.4315694E-4,-0.3260242,0.08168995,805.05493,821.1722,807.0696,805.4579,716.4103,-0.1605224609375,-0.01483154296875,0.9937744140625,5.046844482421875,-2.415008544921875,1.375732421875,1,1.0,1.0,1.0,1.0,95.00
2021-04-16 22:41:41.413,0.7600188,1.3515165,0.6889097,0.71401405,0.588855,1.2602063,0.38132593,0.39895234,0.6853304,0.9424957,0.6233839,0.75265104,0.16405821,0.41674253,0.058883872,0.39912745,-0.315681,8.326089E-5,-0.36074772,-0.09118785,781.685,829.2308,802.6374,776.8498,622.9304,-0.175048828125,-0.00140380859375,0.99493408203125,5.27862548828125,-4.78515625,0.22430419921875,1,1.0,1.0,1.0,1.0,95.00
2021-04-16 22:41:41.923,0.76848876,1.2140135,0.88996345,0.41146728,0.43434864,1.1993003,0.62327653,0.4216135,0.58117515,1.0168328,0.67170113,0.59335387,0.2439318,0.50307566,0.030484397,0.4133466,-0.23895122,0.059636794,-0.3660142,-0.16808416,784.90845,776.04395,813.5165,774.0293,618.49817,-0.17083740234375,-0.00830078125,0.98828125,4.1571044921875,-4.373931884765625,1.734619140625,1,1.0,1.0,1.0,1.0,95.00
2021-04-16 22:41:42.445,0.6812738,0.9310216,0.7728632,0.3236581,0.4510215,1.0096731,0.5568494,0.4149632,0.7663087,0.86767644,0.62821674,0.82206583,0.5094614,0.51511097,0.18361534,0.44869363,-0.13362432,0.06489574,-0.47455317,-0.26481324,830.0366,809.4872,802.23444,823.1868,865.89746,-0.17242431640625,-0.002685546875,0.9952392578125,5.016937255859375,-4.807586669921875,2.093505859375,1,1.0,1.0,1.0,1.0,95.00
2021-04-16 22:41:42.953,0.7734377,1.1464947,0.7125619,0.34796935,0.4625686,1.1100434,0.5395653,0.5280037,0.8542945,0.8948514,0.6598056,1.2069875,0.5740762,0.57180053,0.21915495,0.5082245,-0.073265,-0.01041831,-0.4363113,-0.26307046,824.3956,801.8315,814.3223,812.3077,815.9341,-0.17510986328125,0.00360107421875,0.9898681640625,4.299163818359375,-3.940277099609375,1.742095947265625,1,1.0,1.0,1.0,1.0,95.00
2021-04-16 22:41:43.480,0.65950346,1.1950511,0.2403541,0.3184444,0.50902545,1.0981405,0.36567938,0.63533443,0.8804279,0.81296057,0.61299163,1.2096984,0.5693676,0.57624614,0.2964231,0.48900768,-0.07600717,-0.082654126,-0.3214001,-0.2334329,790.9524,795.38464,799.41394,794.9817,671.28204,-0.17291259765625,0.00341796875,0.9901123046875,3.99261474609375,-4.643096923828125,0.889739990234375,1,1.0,1.0,1.0,1.0,90.00
2021-04-16 22:41:43.794,,,,,,,,,,,,,,,,,,,,,,,,,,,,,,,,,,,,,,/muse/elements/blink
2021-04-16 22:41:43.986,0.7376193,1.2686542,0.49757084,0.32755935,0.48232174,1.0878568,0.35881943,0.72214377,0.83811784,0.81197286,0.61299163,1.2096984,0.4391494,0.6301445,0.23754574,0.4263131,-0.13069206,-0.1461384,-0.2649644,-0.20928092,780.4762,800.2198,801.8315,785.7143,734.5421,-0.1783447265625,-0.0037841796875,0.98529052734375,3.887939453125,-4.2169189453125,0.7177734375,1,1.0,1.0,1.0,1.0,90.00
2021-04-16 22:41:44.516,0.58301234,0.988792,0.46301988,0.2239446,0.4154805,0.7193224,0.2245228,0.7288583,0.6704307,0.4906085,0.49327,0.970847,0.42400008,0.61360294,0.15508495,0.36141625,-0.15370457,-0.023579681,-0.269446,-0.26803276,815.12823,819.5604,792.5641,823.9927,824.3956,-0.18084716796875,-0.0025634765625,0.99462890625,5.106658935546875,-4.94964599609375,2.2430419921875,1,1.0,1.0,1.0,1.0,90.00
2021-04-16 22:41:45.026,0.529234,0.6403559,0.47693598,6.776436E-5,0.20816855,0.63231266,-0.0952133,0.67496383,0.44600108,1.0162838,0.26202914,0.6459315,0.46906415,0.53529257,-0.011828897,0.3637129,-0.2087148,-0.19878377,-0.42641515,-0.27690187,789.34064,813.5165,798.60803,784.90845,761.53845,-0.1748046875,-0.004150390625,0.9874267578125,4.2169189453125,-5.046844482421875,0.545806884765625,1,1.0,1.0,1.0,1.0,90.00
2021-04-16 22:41:45.542,-0.012471167,0.8550083,0.3313738,-0.18677953,-0.019363185,0.79528046,-0.27136213,-0.152674,0.3742284,1.0162838,0.31595412,0.47661448,0.1592167,0.58143353,-0.06643597,0.22485913,-0.31320995,-0.24624287,-0.5550486,-0.29637083,807.8755,796.5934,800.6227,804.65204,779.67035,-0.17364501953125,-0.00653076171875,0.99285888671875,4.2169189453125,-4.56085205078125,0.650482177734375,1,1.0,1.0,1.0,1.0,90.00
2021-04-16 22:41:46.064,0.08731171,0.9504278,0.35870144,-0.16460858,0.087122396,0.88081616,-0.3203356,-0.07395397,0.37535173,1.0088198,0.16539523,0.48170334,0.18980736,0.53203064,-0.092043765,0.14208314,-0.32026803,-0.28321278,-0.67438644,-0.27832747,786.52014,820.7692,802.23444,785.7143,554.83514,-0.1705322265625,-0.0079345703125,0.98541259765625,4.53094482421875,-4.41131591796875,1.1962890625,1,1.0,1.0,1.0,1.0,90.00
2021-04-16 22:41:46.443,,,,,,,,,,,,,,,,,,,,,,,,,,,,,,,,,,,,,,/muse/elements/blink
2021-04-16 22:41:46.567,0.08398267,1.0838827,0.41814253,-0.08666832,0.15010546,0.9662771,-0.21040818,-0.031182932,0.23060557,0.9749566,0.1816489,0.4771752,0.19957367,0.50737715,-0.013424894,0.11449634,-0.31421214,-0.3260155,-0.62101424,-0.26522738,850.58606,815.12823,807.8755,847.76556,862.674,-0.17431640625,-6.103515625E-4,0.989501953125,4.38140869140625,-4.987030029296875,0.695343017578125,1,1.0,1.0,1.0,1.0,90.00
2021-04-16 22:41:47.097,0.15763158,1.1296463,0.7557717,-0.0840301,0.2699647,0.9916542,0.005444369,0.13606705,0.19268455,0.9749566,0.311803,0.23720683,0.23768978,0.36803263,0.10078985,-0.003951622,-0.30436683,-0.33891833,-0.50590926,-0.25394002,808.68134,822.7839,799.011,814.7253,850.58606,-0.16253662109375,-0.00457763671875,0.9925537109375,4.104766845703125,-4.538421630859375,0.7177734375,1,1.0,1.0,1.0,1.0,90.00
2021-04-16 22:41:47.624,0.043364007,1.2284714,0.7282184,-0.03437765,0.3526848,1.0593411,-0.0016568596,0.24115892,0.17993061,0.9611983,0.28346568,-0.1354305,0.27995995,0.28527337,0.10490163,-0.0522286,-0.23850489,-0.35150284,-0.34977442,-0.23405287,812.71063,785.31134,790.9524,826.0073,879.19415,-0.1639404296875,-0.0037841796875,0.989013671875,5.061798095703125,-4.44122314453125,1.487884521484375,1,1.0,1.0,1.0,1.0,90.00
2021-04-16 22:41:48.153,0.62283856,1.2284714,0.68265295,-0.03437765,0.18577854,1.0593411,-0.053789582,0.24115892,0.3381029,0.9611983,0.38194394,-0.1354305,0.22754623,0.28527337,0.11687562,-0.0522286,-0.29635048,-0.35150284,-0.36634395,-0.23405287,813.5165,782.8938,805.05493,808.68134,902.5641,-0.168212890625,0.0013427734375,0.98260498046875,4.74029541015625,-5.360870361328125,1.323394775390625,1,1.0,1.0,1.0,1.0,90.00
2021-04-16 22:41:48.679,0.48862058,1.2284714,0.22249724,-0.008048266,0.29183987,1.0593411,-0.2624516,0.14202754,0.42821863,0.9611983,0.37429762,0.29752776,0.15060732,0.28527337,0.038299307,0.1436463,-0.22021563,-0.35150284,-0.3921608,-0.22946021,786.1172,808.68134,795.78754,784.10254,656.77655,-0.166748046875,0.016357421875,0.99334716796875,5.562744140625,-4.762725830078125,3.536529541015625,1,1.0,1.0,1.0,1.0,90.00
2021-04-16 22:41:49.202,0.3463832,1.0642838,0.26830944,0.06882955,0.21815665,1.0584537,-0.07542619,0.0545062,0.43257102,0.8618837,0.34405646,0.34526145,0.15286192,0.563392,0.11381486,0.1369333,-0.28876474,0.12401757,-0.5215431,-0.20993316,801.02563,780.87915,809.4872,801.8315,682.5641,-0.1441650390625,0.027099609375,0.9888916015625,5.4132080078125,-4.26177978515625,1.622467041015625,1,1.0,1.0,1.0,1.0,90.00
2021-04-16 22:41:49.705,0.18629795,1.1699326,0.274255,-0.013341024,0.29778892,1.0585995,-0.029960085,-0.06424936,0.40037337,0.87503433,0.21269044,0.5044056,0.12077158,0.55239105,0.050801735,0.17945883,-0.31759164,0.052804437,-0.5295596,-0.17534676,806.26373,809.0842,786.52014,788.93774,574.9817,-0.1414794921875,0.036865234375,0.99591064453125,4.78515625,-5.12908935546875,-0.471038818359375,1,1.0,1.0,1.0,1.0,90.00
2021-04-16 22:41:50.212,0.3261662,1.1508104,0.398978,0.047975473,0.28708005,1.045708,0.04869647,0.06149367,0.38241705,0.87372774,0.22438262,0.58062613,0.19340457,0.56016153,0.056060906,0.22435121,-0.25530416,-0.028483544,-0.5510517,-0.26285422,801.8315,827.619,786.1172,786.1172,754.68866,-0.1522216796875,0.02886962890625,0.989501953125,3.506622314453125,-3.21502685546875,0.859832763671875,1,1.0,1.0,1.0,1.0,90.00
2021-04-16 22:41:50.725,0.41667223,1.2777582,0.5090454,0.044076487,0.39576536,1.046291,0.17482285,0.20279948,0.41546085,0.81897455,0.23085879,0.5865623,0.27967763,0.60288113,-6.709139E-4,0.32217872,-0.18684568,-0.12052676,-0.44261298,-0.12521799,813.1135,830.84247,801.8315,816.337,911.4286,-0.155517578125,0.02203369140625,0.99169921875,3.70849609375,-4.089813232421875,0.01495361328125,1,1.0,1.0,1.0,1.0,90.00
2021-04-16 22:41:51.236,0.43358728,1.3198345,0.56594944,0.19332184,0.4578707,1.0029527,0.2107334,0.37816462,0.41242334,0.87147,0.32718217,0.6579891,0.329324,0.6220572,-0.017713774,0.3258351,-0.12580474,0.0017690231,-0.4566665,-0.13623902,785.7143,800.2198,797.8022,784.90845,547.5824,-0.1597900390625,0.0167236328125,0.98602294921875,4.523468017578125,-4.17205810546875,0.3887939453125,1,1.0,1.0,1.0,1.0,90.00
2021-04-16 22:41:51.748,0.34163898,1.1778616,0.6314427,0.30466825,0.45614773,0.9317927,0.2245813,0.51137996,0.4206218,1.0710979,0.33855635,0.5411057,0.2755305,0.54806906,-0.022685047,0.34607083,-0.15741733,-0.036573898,-0.41878074,-0.010791678,792.1612,824.3956,799.81683,792.5641,695.8608,-0.171630859375,0.0106201171875,0.98199462890625,3.865509033203125,-3.386993408203125,0.73272705078125,1,1.0,1.0,1.0,1.0,90.00
2021-04-16 22:41:52.258,0.32519197,1.0403389,0.61752653,0.28498247,0.356127,0.7985734,0.20073001,0.49472752,0.39079934,1.0884793,0.34694216,0.4510516,0.1656244,0.49254692,-0.0447076,0.2736102,-0.209775,-0.07639936,-0.42189196,-0.06480002,809.0842,805.05493,800.2198,819.5604,1014.17584,-0.18084716796875,0.013671875,0.98651123046875,3.745880126953125,-3.9178466796875,0.560760498046875,1,1.0,1.0,1.0,1.0,90.00
2021-04-16 22:41:52.767,0.2553352,0.6811357,0.5386404,0.16271484,0.13033795,0.6440557,0.15605828,0.33371174,0.37646124,1.1189057,0.29231256,0.3523479,0.11584973,0.57671106,-0.068607956,0.28383234,-0.28381047,-0.15450491,-0.28595316,-0.096110985,811.50183,795.38464,799.41394,814.3223,742.1978,-0.1800537109375,0.004150390625,0.9854736328125,4.254302978515625,-4.20196533203125,1.30096435546875,1,1.0,1.0,1.0,1.0,90.00
2021-04-16 22:41:53.281,0.35947114,0.92961675,0.4009052,0.0048042103,0.06369563,0.7951286,0.25769085,0.11812704,0.38808048,1.0118078,0.25309592,0.38441503,0.19006035,0.59412235,-0.02029478,0.21938136,-0.32963672,-0.19544,-0.21577096,-0.26179463,702.3077,762.3443,792.1612,697.8755,598.3516,-0.1875,-0.00396728515625,0.98199462890625,4.8150634765625,-4.553375244140625,1.256103515625,1,1.0,1.0,1.0,1.0,90.00
2021-04-16 22:41:53.453,,,,,,,,,,,,,,,,,,,,,,,,,,,,,,,,,,,,,,/muse/elements/blink
2021-04-16 22:41:53.799,0.39169407,1.0790633,0.6002794,-0.050077066,0.059798434,0.95735025,0.24579853,0.006975874,0.29883403,0.8890765,0.19473721,0.3400836,0.23978159,0.6199632,0.01871439,0.23930846,-0.3000711,-0.15608172,-0.24915878,-0.4302334,781.685,826.0073,794.9817,778.86444,680.54944,-0.17596435546875,-7.32421875E-4,0.98931884765625,4.463653564453125,-4.747772216796875,0.83740234375,1,1.0,1.0,1.0,1.0,95.00
2021-04-16 22:41:54.304,0.5837943,1.2370666,0.7024669,0.10606751,0.06203907,1.1277937,0.274586,0.15250522,0.26211298,0.7835578,0.24537237,0.24972154,0.30240965,0.4447255,0.097538814,0.22612424,-0.24082462,-0.19077912,-0.23468207,-0.3695246,803.44324,793.36993,802.6374,807.8755,741.39197,-0.17938232421875,8.544921875E-4,0.98663330078125,4.9945068359375,-4.523468017578125,1.256103515625,1,1.0,1.0,1.0,1.0,95.00
2021-04-16 22:41:54.818,0.5837943,1.3347394,0.7095432,0.10606751,0.06203907,1.2151539,0.27389073,0.15250522,0.26211298,0.5831784,0.27929595,0.24972154,0.30240965,0.41724434,0.1120367,0.22612424,-0.24082462,-0.12737931,-0.3242259,-0.3695246,826.8132,830.0366,810.696,830.0366,831.2454,-0.17724609375,8.544921875E-4,0.9873046875,4.089813232421875,-4.942169189453125,0.889739990234375,1,1.0,1.0,1.0,1.0,95.00
2021-04-16 22:41:55.320,0.60827124,1.3347394,0.6219827,0.732191,0.43002588,1.2151539,0.20258883,0.31118503,0.6449576,0.5831784,0.1694063,0.52419317,0.41027308,0.41724434,0.20773832,0.39388046,-0.21109131,-0.12737931,-0.33089477,-0.0063066576,804.2491,805.05493,797.8022,801.4286,674.90845,-0.1729736328125,0.001708984375,0.98760986328125,4.5458984375,-4.239349365234375,0.5682373046875,1,1.0,1.0,1.0,1.0,95.00
2021-04-16 22:41:55.828,0.5762632,1.3347394,0.6020266,0.6900793,0.34283522,1.2151539,0.21350916,0.22291712,0.6612935,0.5831784,0.34221226,0.52419317,0.3631406,0.41724434,0.23984896,0.33303323,-0.15557393,-0.12737931,-0.49700367,-0.036590826,776.04395,790.9524,794.57874,776.04395,585.05493,-0.178955078125,-4.8828125E-4,0.98870849609375,4.35150146484375,-4.433746337890625,0.575714111328125,1,1.0,1.0,1.0,1.0,95.00
2021-04-16 22:41:56.345,0.6309853,1.3347394,0.59311354,0.58133024,0.27028874,1.2151539,0.11250896,0.09657297,0.60434055,0.5831784,0.39968738,0.48275065,0.2948952,0.41724434,0.23913863,0.24654764,-0.10945168,-0.12737931,-0.5260743,-0.10119975,815.12823,790.14655,796.1905,818.7546,876.3736,-0.1741943359375,0.0023193359375,0.98748779296875,4.9346923828125,-4.1571044921875,1.413116455078125,1,1.0,1.0,1.0,1.0,95.00
2021-04-16 22:41:56.875,0.57108474,1.3347394,0.40353224,0.3083531,0.11914139,1.2151539,0.12613495,-0.053586908,0.32265148,0.5831784,0.3614141,0.29258338,0.19375151,0.41724434,0.27077153,0.17166735,-0.11435129,-0.12737931,-0.45333475,-0.28312537,809.0842,808.68134,793.7729,797.3993,716.4103,-0.17498779296875,0.00616455078125,0.98992919921875,4.5159912109375,-4.628143310546875,0.73272705078125,1,1.0,1.0,1.0,1.0,95.00
2021-04-16 22:41:57.377,0.5183674,1.2127717,0.21335849,0.002450211,0.10776901,0.89855605,0.13452621,-0.08038437,0.3263817,0.7991643,0.36815676,0.37383443,0.10951711,0.51532334,0.2255148,0.22110136,-0.16311035,0.004223907,-0.36223677,-0.31768358,823.5897,815.5311,794.57874,827.2161,813.1135,-0.16571044921875,0.00335693359375,0.98760986328125,4.605712890625,-4.628143310546875,0.97198486328125,1,1.0,1.0,1.0,1.0,95.00
2021-04-16 22:41:57.890,0.22544265,1.2076541,0.0045640124,-0.017909443,0.0048691495,1.0898823,0.008430445,0.07315432,0.4430321,0.8214325,0.026263757,0.3176522,0.021993753,0.51211226,0.16489981,0.263997,-0.22264348,-0.055684946,-0.3315751,-0.22806707,786.1172,798.20514,794.57874,782.0879,847.3626,-0.16552734375,0.001953125,0.98834228515625,5.046844482421875,-4.433746337890625,0.979461669921875,1,1.0,1.0,1.0,1.0,95.00
2021-04-16 22:41:58.413,0.21175225,1.2583058,-5.809971E-4,0.0032214015,-0.11571198,1.0568869,-0.12916657,0.12063214,0.39215162,0.93006337,0.29504305,0.3698829,0.09292615,0.524282,-0.0804281,0.2616396,-0.1583418,-0.077206425,-0.4131003,-0.2095407,779.2674,796.99634,794.57874,777.25275,601.978,-0.16845703125,0.0078125,0.9901123046875,4.62066650390625,-4.71038818359375,1.143951416015625,1,1.0,1.0,1.0,1.0,95.00
2021-04-16 22:41:58.924,0.015033533,1.2168485,0.09634084,0.0015007583,-0.18311223,1.001763,-0.25905994,0.038209792,0.48442158,0.9679244,0.3448396,0.43835714,0.18441743,0.5228885,-0.13142265,0.176421,-0.2123605,-0.16892171,-0.43432847,-0.29048952,798.60803,802.6374,800.2198,794.17584,788.5348,-0.16900634765625,0.00494384765625,0.9918212890625,4.673004150390625,-4.11224365234375,0.859832763671875,1,1.0,1.0,1.0,1.0,95.00
2021-04-16 22:41:59.431,-0.124619335,1.1780353,0.15456109,-0.05917896,-0.1843284,0.74794704,-0.24806541,-6.230538E-4,0.46429658,1.0128307,0.3448396,0.43750677,0.19816852,0.50264716,-0.08345734,0.15080644,-0.19170628,-0.16403311,-0.41241688,-0.32168972,800.6227,794.17584,802.6374,802.23444,987.98535,-0.16455078125,0.002685546875,0.9873046875,4.164581298828125,-4.179534912109375,0.28411865234375,1,1.0,1.0,1.0,1.0,95.00
2021-04-16 22:41:59.845,,,,,,,,,,,,,,,,,,,,,,,,,,,,,,,,,,,,,,/muse/elements/blink
2021-04-16 22:41:59.944,-0.17134722,0.9854091,0.3374729,-0.04091602,-0.14659914,0.880348,-0.12602122,-0.012289063,0.46429658,1.0418143,0.3675528,0.44441792,0.19066659,0.44594595,-0.05066148,0.19330128,-0.28302538,-0.14857042,-0.3887149,-0.32768005,801.8315,797.3993,804.2491,788.93774,615.2747,-0.17236328125,0.0067138671875,0.991943359375,5.375823974609375,-4.523468017578125,0.91217041015625,1,1.0,1.0,1.0,1.0,95.00
2021-04-16 22:42:00.460,-0.19804028,1.1626058,0.36113393,-0.099865116,-0.24585259,1.1401191,0.03872578,0.06224892,0.40338665,0.816919,0.4648332,0.33643302,0.0864106,0.49409017,-0.043752212,0.1941583,-0.20033981,-0.11171237,-0.4131827,-0.29609883,792.96704,805.4579,796.1905,788.93774,719.2308,-0.171875,0.00628662109375,0.9901123046875,4.56085205078125,-4.65057373046875,1.084136962890625,1,1.0,1.0,1.0,1.0,95.00
2021-04-16 22:42:00.965,-0.23574883,1.1740855,0.6571694,0.023191912,-0.25019664,1.2203994,0.3135534,0.14057164,0.071424864,0.8481666,0.4978606,0.2902244,0.067944355,0.5257293,-0.057374053,0.23244889,-0.14318502,-0.10888979,-0.39236745,-0.29432237,813.5165,807.0696,799.011,820.3663,811.9048,-0.16473388671875,0.008544921875,0.99273681640625,4.38140869140625,-4.523468017578125,1.03179931640625,1,1.0,1.0,1.0,1.0,95.00
2021-04-16 22:42:01.477,0.54402417,1.3113457,0.94100904,0.33686292,0.3852282,1.2730837,0.43775976,0.024628738,0.8323765,0.8359323,0.61228573,0.9002557,0.48716697,0.5740018,-0.042217836,0.6006407,-0.25480026,-0.09212076,-0.31033295,0.099142686,811.9048,815.9341,788.1319,808.68134,749.85345,-0.1624755859375,0.01116943359375,0.99114990234375,4.8150634765625,-4.88983154296875,1.024322509765625,1,1.0,1.0,1.0,1.0,95.00
2021-04-16 22:42:01.986,0.5034198,0.92518663,0.9718219,0.2954284,0.55591995,0.88637817,0.40926713,0.28609714,0.8732865,0.7796553,0.6986111,1.1113415,0.48220152,0.4162753,0.12855043,0.53369874,-0.25248253,-0.1440224,-0.36293665,0.029768249,780.4762,786.1172,788.93774,785.7143,649.12085,-0.14202880859375,0.0029296875,0.99102783203125,5.286102294921875,-6.8487548828125,3.0804443359375,1,1.0,1.0,1.0,1.0,95.00
2021-04-16 22:42:02.509,0.4176951,1.09436,0.8721719,0.5226761,0.47721604,0.7221066,0.3848926,0.3890591,0.8732865,0.60241085,0.76667976,1.1113415,0.46585056,0.36396486,0.15566891,0.51231325,-0.06293638,-0.13113597,-0.19485955,0.22843435,778.86444,739.7802,791.75824,763.95605,620.10986,-0.15948486328125,0.02117919921875,0.99859619140625,5.921630859375,-4.74029541015625,3.028106689453125,1,1.0,1.0,1.0,1.0,95.00
2021-04-16 22:42:03.026,0.2811249,1.09436,0.49972215,0.87814534,0.45064515,0.7221066,0.27804092,0.5092499,0.7541605,0.60241085,0.7226611,1.0545602,0.43187958,0.36396486,0.14149895,0.43350792,0.012969888,-0.13113597,-0.14263038,0.25592536,798.20514,810.696,788.5348,809.0842,830.84247,-0.1715087890625,0.0145263671875,1.0023193359375,2.056121826171875,-9.19647216796875,1.951446533203125,1,1.0,1.0,1.0,1.0,95.00
2021-04-16 22:42:03.532,0.4738041,1.2101201,0.39933527,1.0029082,0.18850867,0.76306015,0.21017303,0.5783373,0.27884868,0.5745795,0.6855568,0.8196689,0.40313277,0.32745716,0.036627363,0.416362,0.14511153,-0.11432869,-0.1110075,0.36891344,819.15753,824.3956,789.7436,825.2015,919.0842,-0.15069580078125,-0.00592041015625,0.989990234375,3.7982177734375,-4.508514404296875,-0.777587890625,1,1.0,1.0,1.0,1.0,95.00
2021-04-16 22:42:04.046,1.0050069,1.2101201,0.68045706,1.0679673,0.24189943,0.76306015,0.3231456,0.5698646,0.21801306,0.5745795,0.43222857,0.78999984,0.3647732,0.32745716,0.069864385,0.34552974,0.04878749,-0.11432869,-0.27891308,0.24372363,803.8461,823.5897,792.1612,801.8315,736.1539,-0.15545654296875,-0.0123291015625,0.99017333984375,3.7384033203125,-4.299163818359375,1.07666015625,1,1.0,1.0,1.0,1.0,85.00
2021-04-16 22:42:04.571,0.9897472,1.2101201,0.85975176,0.74774253,0.3868134,0.76306015,0.34529147,0.60733855,0.41248935,0.5745795,0.36404496,0.69475657,0.53297067,0.32745716,0.06282867,0.31355911,-0.221944,-0.11432869,-0.38795182,0.12898712,776.4469,788.93774,799.81683,776.04395,764.7619,-0.15582275390625,-0.01568603515625,0.987060546875,4.605712890625,-4.9346923828125,1.742095947265625,1,1.0,1.0,1.0,1.0,85.00
2021-04-16 22:42:05.074,0.663755,1.273522,0.95694405,0.64358544,0.25102347,1.0337983,0.42762652,0.4697481,0.4515463,0.8554442,0.3957691,0.6728192,0.42313913,0.5182795,0.007974241,0.30714962,-0.21110635,-0.09591028,-0.42163986,-0.013266769,779.2674,802.23444,786.1172,778.86444,719.2308,-0.1409912109375,-0.01458740234375,0.99359130859375,4.62066650390625,-5.764617919921875,0.538330078125,1,1.0,1.0,1.0,1.0,85.00
2021-04-16 22:42:05.585,0.33776742,1.0992422,1.0351131,0.5851232,0.19519311,1.0656136,0.38926387,0.45609346,0.4973778,0.8798425,0.2367344,0.6579706,0.42206237,0.5893345,7.758727E-4,0.36564508,-0.09415147,-0.13596578,-0.38303798,-0.056824483,803.8461,774.83514,799.81683,829.6337,765.16486,-0.170166015625,-0.00469970703125,0.9884033203125,5.3533935546875,-4.38140869140625,2.086029052734375,1,1.0,1.0,1.0,1.0,85.00
2021-04-16 22:42:06.105,0.57068306,1.1126018,0.89333594,0.5690475,0.17027287,1.0223488,0.31529948,0.28449786,0.3434992,0.94651055,0.2642726,0.5986974,0.41388777,0.6781097,0.07334012,0.3561666,0.26406386,-0.052729025,-0.43900964,0.13955437,817.9487,794.57874,791.75824,818.7546,898.93774,-0.16387939453125,-0.00537109375,0.99163818359375,3.90289306640625,-4.366455078125,0.28411865234375,1,1.0,1.0,1.0,1.0,85.00
