TimeStamp,Delta_TP9,Delta_AF7,Delta_AF8,Delta_TP10,Theta_TP9,Theta_AF7,Theta_AF8,Theta_TP10,Alpha_TP9,Alpha_AF7,Alpha_AF8,Alpha_TP10,Beta_TP9,Beta_AF7,Beta_AF8,Beta_TP10,Gamma_TP9,Gamma_AF7,Gamma_AF8,Gamma_TP10,RAW_TP9,RAW_AF7,RAW_AF8,RAW_TP10,AUX_RIGHT,Accelerometer_X,Accelerometer_Y,Accelerometer_Z,Gyro_X,Gyro_Y,Gyro_Z,HeadBandOn,HSI_TP9,HSI_AF7,HSI_AF8,HSI_TP10,Battery,Elements
2021-04-11 22:41:57.376,0.9274041,1.1673509,0.15078491,0.8163036,0.8037532,0.014870351,0.16076411,0.77732617,0.9206966,0.40863708,0.14791833,0.9302054,0.45482978,-0.15716985,-0.081843965,0.6693518,0.0068431483,-0.37480134,-0.43543625,0.40793896,796.99634,589.4872,797.3993,811.0989,711.978,0.73358154296875,-0.03302001953125,0.70928955078125,4.598236083984375,-4.074859619140625,1.173858642578125,1,1.0,2.0,1.0,1.0,100.00
2021-04-11 22:41:57.890,0.8433947,1.1673509,-0.14040564,0.7734031,0.71994066,0.014870351,-0.022224111,0.73545694,0.9228772,0.40863708,0.15161595,0.94217664,0.33428043,-0.15716985,0.014523345,0.70492715,0.07469057,-0.37480134,-0.45963642,0.41485977,801.4286,12.087913,794.9817,785.7143,597.9487,0.69464111328125,-0.0311279296875,0.75201416015625,7.31231689453125,6.407623291015625,4.523468017578125,1,1.0,2.0,1.0,1.0,100.00
2021-04-11 22:41:58.400,0.8296184,1.1673509,0.0066703437,0.7647766,0.5880259,0.014870351,-0.016979128,0.6711729,0.8684225,0.40863708,0.16201793,0.9133818,0.30226797,-0.15716985,0.09737383,0.71171,0.021738192,-0.37480134,-0.46845484,0.39307502,794.17584,88.24176,801.02563,806.6667,739.3773,0.5596923828125,-0.08001708984375,0.82147216796875,8.725433349609375,14.84893798828125,9.64508056640625,1,1.0,2.0,1.0,1.0,100.00
2021-04-11 22:41:58.909,0.90882725,1.1673509,0.26933154,0.88516563,0.6444578,0.014870351,-0.047974735,0.53983355,0.930604,0.40863708,-0.07002812,0.8326576,0.41725826,-0.15716985,0.091380805,0.6732837,-0.024405416,-0.37480134,-0.5069935,0.34888673,808.2784,205.89743,816.7399,817.9487,725.2747,0.420654296875,-0.08953857421875,0.91351318359375,7.259979248046875,17.862091064453125,7.215118408203125,1,1.0,2.0,1.0,1.0,100.00
2021-04-11 22:41:59.416,0.94928765,1.1673509,0.4377562,0.86681724,0.6987314,0.014870351,-0.07637483,0.5064717,0.93267614,0.40863708,0.0042792736,0.9113633,0.4477894,-0.15716985,-0.015432474,0.5583927,-0.09721649,-0.37480134,-0.49338475,0.2142381,811.0989,529.0476,822.381,814.3223,774.83514,0.0421142578125,0.00347900390625,0.95751953125,10.7965087890625,20.56121826171875,-3.48419189453125,1,1.0,2.0,1.0,1.0,100.00
2021-04-11 22:41:59.924,1.001919,1.1673509,0.95161676,0.94252825,0.58630145,0.014870351,0.06912583,0.49840263,0.8823868,0.40863708,0.008895648,0.86189145,0.35966688,-0.15716985,-0.09331919,0.375822,-0.17968594,-0.37480134,-0.41426015,0.1377834,763.95605,1625.0183,788.5348,771.6117,703.91943,-0.1402587890625,0.04156494140625,0.9840087890625,3.192596435546875,7.947845458984375,-1.039276123046875,1,1.0,2.0,1.0,1.0,100.00
2021-04-11 22:42:00.428,0.88320607,1.1673509,1.069818,0.7910872,0.35978338,0.014870351,0.15613618,0.5027536,0.7194586,0.40863708,-0.021836296,0.65684795,0.26227382,-0.15716985,-0.06610132,0.26977435,-0.2536924,-0.37480134,-0.32229677,0.113875166,674.90845,0.0,750.65936,682.5641,599.15753,-0.40057373046875,0.0484619140625,0.89410400390625,-9.996490478515625,22.871551513671875,44.5916748046875,1,1.0,2.0,1.0,1.0,100.00
2021-04-11 22:42:00.819,,,,,,,,,,,,,,,,,,,,,,,,,,,,,,,,,,,,,,/muse/elements/blink
2021-04-11 22:42:00.944,1.0363431,1.1673509,1.304882,0.996338,0.35468578,0.014870351,0.2921457,0.604486,0.49251047,0.40863708,-0.071351886,0.5926003,0.27971482,-0.15716985,0.0065221596,0.1430706,-0.29696712,-0.37480134,-0.31036735,-0.025214307,728.49817,387.21613,798.20514,739.7802,807.8755,-0.5885009765625,0.0035400390625,0.8553466796875,-16.531219482421875,-7.962799072265625,31.604461669921875,1,1.0,2.0,1.0,1.0,100.00
2021-04-11 22:42:01.445,,,,,,,,,,,,,,,,,,,,,,,,,,,,,,,,,,,,,,/muse/elements/blink
2021-04-11 22:42:01.459,1.1031976,1.1673509,1.3885355,1.0693905,0.32256562,0.014870351,0.3681021,0.5738333,0.33991775,0.40863708,-0.090944245,0.54792,0.30109116,-0.15716985,0.044334564,0.121431515,-0.29553372,-0.37480134,-0.3419484,-0.087575026,772.8205,737.76556,793.7729,753.8828,684.57874,-0.4700927734375,0.110595703125,0.90887451171875,8.1646728515625,-29.899749755859375,-16.277008056640625,1,1.0,4.0,1.0,1.0,100.00
2021-04-11 22:42:01.964,1.1031976,1.1673509,1.3885355,1.0693905,0.32256562,0.014870351,0.3681021,0.5738333,0.33991775,0.40863708,-0.090944245,0.54792,0.30109116,-0.15716985,0.044334564,0.121431515,-0.29553372,-0.37480134,-0.3419484,-0.087575026,843.73627,921.0989,828.022,829.6337,647.50916,-0.2425537109375,0.072509765625,0.984375,15.185394287109375,-9.174041748046875,-34.595184326171875,1,1.0,4.0,1.0,1.0,100.00
2021-04-11 22:42:02.471,1.1031976,1.1673509,1.3885355,1.0693905,0.32256562,0.014870351,0.3681021,0.5738333,0.33991775,0.40863708,-0.090944245,0.54792,0.30109116,-0.15716985,0.044334564,0.121431515,-0.29553372,-0.37480134,-0.3419484,-0.087575026,821.978,866.7033,836.4835,827.2161,770.40295,-0.21722412109375,0.12445068359375,0.98193359375,7.215118408203125,-2.938385009765625,-4.62066650390625,1,1.0,1.0,1.0,1.0,100.00
2021-04-11 22:42:03.001,1.1031976,1.1673509,0.97926104,1.0693905,0.32256562,0.014870351,0.36673057,0.5738333,0.33991775,0.40863708,0.2369848,0.54792,0.30109116,-0.15716985,0.08382347,0.121431515,-0.29553372,-0.37480134,-0.5155036,-0.087575026,830.84247,904.9817,815.9341,841.31866,800.6227,-0.212646484375,0.08477783203125,0.973876953125,4.0374755859375,-2.310333251953125,3.671112060546875,1,2.0,1.0,1.0,2.0,100.00
2021-04-11 22:42:03.506,0.13592857,1.1673509,0.80471116,0.18569209,0.18695253,0.014870351,0.080267414,0.20308994,0.20581257,0.40863708,0.3025357,0.13412443,0.13186876,-0.15716985,-0.04008038,0.5059438,-0.27988964,-0.37480134,-0.5883619,-0.021868771,813.91943,904.9817,816.337,823.5897,732.9304,-0.19879150390625,0.094482421875,0.98138427734375,4.23187255859375,-3.22998046875,1.39068603515625,1,1.0,1.0,1.0,1.0,100.00
2021-04-11 22:42:04.014,0.16603972,1.1673509,0.66786784,0.27332717,0.15437569,0.014870351,-0.0392044,0.108639315,0.3516665,0.40863708,0.3344592,0.32688132,0.2299285,-0.15716985,-0.1142931,0.31965026,-0.32479912,-0.37480134,-0.63809776,-0.033636894,814.3223,864.2857,815.9341,801.4286,688.20514,-0.2158203125,0.08441162109375,0.976806640625,3.850555419921875,-1.9140625,8.291778564453125,1,1.0,1.0,1.0,1.0,100.00
2021-04-11 22:42:04.532,0.081141606,1.1673509,0.464988,0.38627478,0.18378986,0.014870351,-0.093086086,0.22559708,0.36961773,0.40863708,0.013449764,0.53067815,0.18509154,-0.15716985,-0.23004565,0.30056375,-0.36023176,-0.37480134,-0.639824,-0.08055973,813.91943,883.22345,802.6374,799.81683,735.7509,-0.1409912109375,0.11181640625,0.989501953125,-0.0,-6.80389404296875,20.643463134765625,1,1.0,1.0,1.0,1.0,100.00
2021-04-11 22:42:04.948,,,,,,,,,,,,,,,,,,,,,,,,,,,,,,,,,,,,,,/muse/elements/blink
2021-04-11 22:42:05.059,0.19135739,1.1673509,0.62284064,0.41000125,0.18915364,0.014870351,0.03545036,0.25206172,0.36742306,0.40863708,0.20964622,0.6274764,0.20954074,-0.15716985,-0.12151085,0.21023571,-0.39939696,-0.37480134,-0.59653866,-0.14239132,824.3956,879.19415,803.0403,840.5128,872.3443,-0.26092529296875,0.07464599609375,0.9610595703125,-10.45257568359375,11.147918701171875,45.765533447265625,1,1.0,1.0,1.0,1.0,100.00
2021-04-11 22:42:05.564,0.16827811,1.1673509,0.7655669,0.38896507,0.27483493,0.014870351,0.15124911,0.3568897,0.34051877,0.40863708,0.16014323,0.6149722,0.080961175,-0.15716985,-0.02712176,0.30432546,-0.3930487,-0.37480134,-0.53204626,-0.2404757,810.293,836.8865,807.47253,858.24176,1052.4542,-0.289306640625,0.1181640625,0.9483642578125,-2.392578125,-0.800018310546875,17.936859130859375,1,1.0,1.0,1.0,1.0,100.00
2021-04-11 22:42:06.076,0.16635968,1.1673509,0.8226251,0.18236607,0.2927744,0.014870351,0.15008122,0.31196353,0.32881096,0.40863708,0.10756298,0.58126646,0.1013223,-0.15716985,0.016331736,0.33485198,-0.3827819,-0.37480134,-0.5106355,-0.29165226,805.8608,908.20514,802.6374,796.5934,692.23444,-0.25030517578125,0.072265625,0.95489501953125,5.0543212890625,-12.942352294921875,-5.839385986328125,1,1.0,1.0,1.0,1.0,100.00
2021-04-11 22:42:06.588,0.5360613,1.1673509,0.35428965,0.15431836,0.28230333,0.014870351,0.07357058,0.34283912,0.5285278,0.40863708,-0.13045327,0.46879986,0.13886628,-0.15716985,-0.00829926,0.0707721,-0.25741717,-0.37480134,-0.5406173,-0.21960504,823.5897,846.9597,799.81683,780.87915,666.8498,-0.25457763671875,0.07635498046875,0.9566650390625,-0.37384033203125,-0.299072265625,-1.27105712890625,1,1.0,1.0,1.0,1.0,100.00
2021-04-11 22:42:07.097,0.67188495,1.1673509,0.4809166,0.15483883,0.37267536,0.014870351,0.04781321,0.24164179,0.57036865,0.40863708,-0.06130218,0.5053557,0.28671837,-0.15716985,0.0020349738,0.24020354,-0.2818033,-0.37480134,-0.49212018,-0.20121671,775.64105,860.2564,803.8461,772.4176,828.4249,-0.294677734375,0.1458740234375,0.96246337890625,4.964599609375,-10.818939208984375,17.09197998046875,1,1.0,1.0,1.0,1.0,100.00
2021-04-11 22:42:07.382,,,,,,,,,,,,,,,,,,,,,,,,,,,,,,,,,,,,,,/muse/elements/blink
2021-04-11 22:42:07.622,0.6466221,1.1673509,0.4844935,0.14645584,0.3727048,0.014870351,0.16557245,0.22419912,0.57036865,0.40863708,0.18387331,0.5053557,0.29736772,-0.15716985,-6.9555343E-4,0.2544228,-0.27773264,-0.37480134,-0.41983587,-0.18982705,815.12823,873.5531,799.011,849.7802,818.7546,-0.28375244140625,0.08416748046875,0.95526123046875,5.136566162109375,-5.644989013671875,-3.3795166015625,1,1.0,1.0,1.0,1.0,100.00
2021-04-11 22:42:08.132,0.7932073,1.1673509,0.5904837,0.15546256,0.4609669,0.014870351,0.35513392,0.07740768,0.54621243,0.40863708,0.26212838,0.44906223,0.41584507,-0.15716985,0.009050513,0.3824796,-0.3129978,-0.37480134,-0.29146436,-0.18013155,789.7436,772.4176,780.07324,813.5165,989.59705,-0.293701171875,0.0960693359375,0.95745849609375,5.0244140625,-4.478607177734375,0.530853271484375,1,1.0,1.0,1.0,1.0,100.00
2021-04-11 22:42:08.661,0.8378955,1.1673509,0.5686467,0.110761546,0.45385095,0.014870351,0.33353162,0.08913707,0.5407453,0.40863708,0.26876003,0.40731388,0.40501374,-0.15716985,0.10364485,0.3867156,-0.36238617,-0.37480134,-0.18284017,-0.17117818,803.44324,867.50916,789.7436,774.0293,631.79486,-0.2886962890625,0.09423828125,0.95452880859375,4.4561767578125,-3.043060302734375,-0.13458251953125,1,1.0,1.0,1.0,1.0,100.00
2021-04-11 22:42:09.172,0.5178932,1.1673509,0.51437354,0.53383857,0.61525637,0.014870351,0.23656929,0.46444768,0.6677902,0.40863708,0.20660141,0.4678767,0.31147644,-0.15716985,0.19361924,0.28171256,-0.53900886,-0.37480134,-0.13486123,-0.51990205,701.0989,735.34796,702.3077,668.46155,624.1392,-0.30902099609375,0.0902099609375,0.9476318359375,4.02252197265625,-4.897308349609375,-0.979461669921875,1,1.0,1.0,1.0,1.0,100.00
2021-04-11 22:42:09.437,,,,,,,,,,,,,,,,,,,,,,,,,,,,,,,,,,,,,,/muse/elements/blink
2021-04-11 22:42:09.675,0.5178932,1.1673509,0.50558513,0.53383857,0.61525637,0.014870351,0.00815163,0.46444768,0.6677902,0.40863708,0.108864315,0.4678767,0.31147644,-0.15716985,0.24871312,0.28171256,-0.53900886,-0.37480134,-0.1134733,-0.51990205,830.4396,839.304,784.10254,848.97437,903.7729,-0.30126953125,0.0758056640625,0.953369140625,3.69354248046875,-4.104766845703125,0.61309814453125,1,1.0,1.0,1.0,1.0,100.00
2021-04-11 22:42:09.728,,,,,,,,,,,,,,,,,,,,,,,,,,,,,,,,,,,,,,/muse/elements/blink
2021-04-11 22:42:10.188,0.4865475,1.1673509,0.4108387,0.50491786,0.61635023,0.014870351,0.1380085,0.49685287,0.5169192,0.40863708,0.04912149,0.41943267,0.305662,-0.15716985,0.24387662,0.23718198,-0.5209351,-0.37480134,-0.14199798,-0.525477,795.78754,855.0183,796.5934,775.64105,700.293,-0.2930908203125,0.0643310546875,0.95977783203125,3.835601806640625,-6.093597412109375,0.3289794921875,1,1.0,1.0,1.0,1.0,100.00
2021-04-11 22:42:10.694,0.49433732,1.1673509,0.4470227,0.4652812,0.61691016,0.014870351,0.2021414,0.52757984,0.287277,0.40863708,0.03199624,0.30016884,0.3007134,-0.15716985,0.22971477,0.20216206,-0.5010527,-0.37480134,-0.12721284,-0.5180865,836.8865,861.4652,823.9927,842.9304,765.9707,-0.29412841796875,0.04876708984375,0.9552001953125,4.35150146484375,-3.207550048828125,-0.859832763671875,1,1.0,1.0,1.0,1.0,100.00
2021-04-11 22:42:11.195,0.49433732,1.1673509,1.3277664,0.4652812,0.61691016,0.014870351,0.5794159,0.52757984,0.287277,0.40863708,0.45178142,0.30016884,0.3007134,-0.15716985,0.0290425,0.20216206,-0.5010527,-0.37480134,-0.40589827,-0.5180865,735.7509,769.59705,768.7912,745.42126,843.3333,-0.293701171875,0.04205322265625,0.959228515625,4.38140869140625,-4.314117431640625,-0.575714111328125,1,1.0,1.0,1.0,1.0,100.00
2021-04-11 22:42:11.724,0.49433732,1.1673509,1.3277664,0.4652812,0.61691016,0.014870351,0.5794159,0.52757984,0.287277,0.40863708,0.45178142,0.30016884,0.3007134,-0.15716985,0.0290425,0.20216206,-0.5010527,-0.37480134,-0.40589827,-0.5180865,799.41394,861.8681,795.38464,835.6777,811.50183,-0.29705810546875,0.053955078125,0.9556884765625,4.927215576171875,-4.0374755859375,2.504730224609375,1,1.0,1.0,1.0,1.0,100.00
2021-04-11 22:42:12.055,,,,,,,,,,,,,,,,,,,,,,,,,,,,,,,,,,,,,,/muse/elements/blink
2021-04-11 22:42:12.234,0.49433732,1.1673509,1.3277664,0.4652812,0.61691016,0.014870351,0.5794159,0.52757984,0.287277,0.40863708,0.45178142,0.30016884,0.3007134,-0.15716985,0.0290425,0.20216206,-0.5010527,-0.37480134,-0.40589827,-0.5180865,813.1135,809.4872,794.17584,817.9487,768.3883,-0.2911376953125,0.05389404296875,0.95574951171875,3.970184326171875,-5.480499267578125,4.538421630859375,1,2.0,1.0,1.0,2.0,100.00
2021-04-11 22:42:12.744,0.49433732,1.1673509,1.2871056,0.4652812,0.61691016,0.014870351,0.6268357,0.52757984,0.287277,0.40863708,0.45178142,0.30016884,0.3007134,-0.15716985,0.044317253,0.20216206,-0.5010527,-0.37480134,-0.38556707,-0.5180865,826.0073,869.5238,828.8278,806.6667,631.79486,-0.29345703125,0.065185546875,0.96014404296875,5.203857421875,-3.887939453125,1.0467529296875,1,2.0,1.0,1.0,2.0,100.00
2021-04-11 22:42:13.259,0.49433732,1.1673509,1.2871056,0.4652812,0.61691016,0.014870351,0.6268357,0.52757984,0.287277,0.40863708,0.45178142,0.30016884,0.3007134,-0.15716985,0.044317253,0.20216206,-0.5010527,-0.37480134,-0.38556707,-0.5180865,823.1868,885.64105,815.9341,790.54944,673.69965,-0.28662109375,0.0560302734375,0.95904541015625,4.598236083984375,-4.224395751953125,-2.1234130859375,1,2.0,1.0,1.0,2.0,100.00
2021-04-11 22:42:13.776,1.2678448,1.1673509,1.4657097,1.2734532,0.58180046,0.014870351,0.3370438,0.33854532,0.48459542,0.40863708,0.30390814,0.5728005,0.12612328,-0.15716985,0.08105478,0.47780988,-0.211109,-0.37480134,-0.18490215,-0.05458314,811.9048,831.2454,794.9817,825.2015,868.315,-0.301025390625,0.04803466796875,0.94573974609375,4.792633056640625,-3.27484130859375,-0.171966552734375,1,1.0,1.0,1.0,1.0,100.00
2021-04-11 22:42:14.302,1.049989,1.1673509,1.4292302,1.0581341,0.43467036,0.014870351,0.36815426,0.3424039,0.6243325,0.40863708,0.33584136,0.6616908,0.272378,-0.15716985,0.097855255,0.4823088,-0.24766052,-0.37480134,-0.12925749,-0.116958804,810.696,863.8828,808.2784,851.39197,842.9304,-0.2979736328125,0.0516357421875,0.9569091796875,5.166473388671875,-5.084228515625,2.1533203125,1,1.0,1.0,1.0,1.0,100.00
2021-04-11 22:42:14.828,0.9544059,1.1673509,1.2906437,0.94497585,0.40013912,0.014870351,0.4056658,0.29920316,0.6125391,0.40863708,0.38591036,0.6616908,0.32830954,-0.15716985,0.09579693,0.49427715,-0.23273274,-0.37480134,-0.15034617,-0.15575443,817.9487,890.87915,796.1905,792.1612,630.989,-0.296630859375,0.05743408203125,0.95428466796875,4.5458984375,-3.955230712890625,0.6280517578125,1,1.0,1.0,1.0,1.0,100.00
2021-04-11 22:42:15.334,0.56086224,1.1673509,0.9324281,0.69337684,0.20269886,0.014870351,0.41070884,0.17996669,0.58474344,0.40863708,0.3998318,0.5572078,0.32079235,-0.15716985,0.20001312,0.41774952,-0.29972264,-0.37480134,0.009130409,-0.21053717,722.4542,800.2198,800.6227,748.24176,861.8681,-0.295166015625,0.0511474609375,0.958251953125,4.6954345703125,-4.366455078125,0.97198486328125,1,1.0,1.0,1.0,1.0,100.00
2021-04-11 22:42:15.517,,,,,,,,,,,,,,,,,,,,,,,,,,,,,,,,,,,,,,/muse/elements/blink
2021-04-11 22:42:15.842,0.66689634,1.1673509,0.9564308,0.8089448,0.21310423,0.014870351,0.5656142,0.06742932,0.39901817,0.40863708,0.37455943,0.36174238,0.22141449,-0.15716985,0.16970581,0.35257936,-0.27753216,-0.37480134,0.06136848,-0.19778772,798.60803,846.55676,794.57874,771.6117,527.4359,-0.29547119140625,0.05352783203125,0.9578857421875,4.822540283203125,-5.5328369140625,2.220611572265625,1,1.0,1.0,1.0,1.0,100.00
2021-04-11 22:42:16.347,0.53177446,1.1673509,1.0805833,0.97526497,-0.1054147,0.014870351,0.6231227,0.10767859,0.16247314,0.40863708,0.37455943,0.2516733,0.089111835,-0.15716985,0.18252386,0.25561827,-0.32148418,-0.37480134,0.12866041,-0.12716027,806.26373,822.7839,815.5311,841.7216,890.4762,-0.285888671875,0.06036376953125,0.95654296875,4.867401123046875,-4.433746337890625,0.97198486328125,1,1.0,1.0,1.0,1.0,100.00
2021-04-11 22:42:16.848,0.53177446,1.1673509,1.260705,0.97526497,-0.1054147,0.014870351,0.77993786,0.10767859,0.16247314,0.40863708,0.27926737,0.2516733,0.089111835,-0.15716985,0.05866867,0.25561827,-0.32148418,-0.37480134,0.142908,-0.12716027,822.381,859.85345,821.1722,838.0952,763.5531,-0.2882080078125,0.05810546875,0.95611572265625,4.373931884765625,-5.72723388671875,0.186920166015625,1,1.0,1.0,1.0,1.0,100.00
2021-04-11 22:42:17.362,0.53177446,1.1673509,1.260705,0.7609938,-0.1054147,0.014870351,0.77993786,0.6073151,0.16247314,0.40863708,0.27926737,0.58295715,0.089111835,-0.15716985,0.05866867,0.14711875,-0.32148418,-0.37480134,0.142908,-0.15232709,815.5311,863.0769,820.3663,800.2198,579.81683,-0.2845458984375,0.049072265625,0.9605712890625,4.5458984375,-5.196380615234375,0.657958984375,1,1.0,1.0,1.0,1.0,100.00
2021-04-11 22:42:17.860,,,,,,,,,,,,,,,,,,,,,,,,,,,,,,,,,,,,,,/muse/elements/blink
2021-04-11 22:42:17.886,0.53177446,1.1673509,-0.10388175,0.6469383,-0.1054147,0.014870351,-0.18382646,0.54397696,0.16247314,0.40863708,0.22013432,0.58529323,0.089111835,-0.15716985,0.113656245,0.120843045,-0.32148418,-0.37480134,0.12191596,-0.19558598,848.5714,823.1868,809.4872,797.3993,647.50916,-0.28472900390625,0.05145263671875,0.95635986328125,4.7552490234375,-5.3533935546875,1.443023681640625,1,1.0,1.0,1.0,1.0,100.00
2021-04-11 22:42:18.414,0.53177446,0.65038604,0.6616618,0.6469383,-0.1054147,0.60958743,0.3330484,0.54397696,0.16247314,0.58583647,0.33435464,0.58529323,0.089111835,0.78679407,0.10256357,0.120843045,-0.32148418,0.48167738,0.14138806,-0.19558598,806.26373,829.2308,805.4579,803.44324,769.59705,-0.2685546875,0.05535888671875,0.969482421875,4.85992431640625,-4.493560791015625,0.897216796875,1,1.0,1.0,1.0,1.0,100.00
2021-04-11 22:42:18.926,0.53177446,0.5825995,0.6867138,0.07588713,-0.1054147,0.4872356,0.36357647,0.34040773,0.16247314,0.60319734,0.2544842,0.4507528,0.089111835,0.7685918,0.10858996,0.043558467,-0.32148418,0.4619423,0.08890426,-0.33506006,826.0073,837.28937,810.293,857.4359,863.0769,-0.2637939453125,0.05340576171875,0.96514892578125,4.523468017578125,-5.75714111328125,0.83740234375,1,1.0,1.0,1.0,1.0,100.00
2021-04-11 22:42:19.430,0.8223523,0.587165,0.88780695,0.68268055,0.27403718,0.49653217,0.56817573,0.6771146,0.2461287,0.60426587,0.51438683,0.56533,0.26592577,0.7657437,0.15378946,0.46364066,-0.4202019,0.46563953,-0.012133646,-0.30247077,813.1135,821.978,813.1135,824.3956,872.3443,-0.2679443359375,0.0579833984375,0.96600341796875,4.762725830078125,-4.44122314453125,0.560760498046875,1,1.0,1.0,1.0,1.0,100.00
2021-04-11 22:42:19.947,0.6872813,0.45341995,0.75570726,0.5978832,0.29197246,0.20041066,0.5114199,0.5979955,0.39508316,0.2139366,0.53444415,0.5940085,0.17661728,0.71381176,0.112704456,0.324327,-0.3224763,0.4338614,-0.19197936,-0.27253777,810.293,832.0513,821.978,810.293,817.9487,-0.26483154296875,0.05657958984375,0.96502685546875,4.732818603515625,-5.420684814453125,1.21124267578125,1,1.0,1.0,1.0,1.0,100.00
2021-04-11 22:42:20.448,0.5231311,0.44394645,1.0265924,0.54344815,0.24920091,7.771626E-4,0.5143939,0.5005821,0.43536294,0.2635881,0.53164464,0.60304135,0.15868297,0.7363982,0.14328572,0.31029344,-0.4087713,0.5830719,-0.19161157,-0.3162013,815.9341,817.5458,805.4579,782.8938,684.17584,-0.25262451171875,0.05889892578125,0.96697998046875,4.3963623046875,-3.925323486328125,0.800018310546875,1,1.0,1.0,1.0,1.0,100.00
2021-04-11 22:42:20.958,0.2652555,0.33020204,0.9926462,0.4240799,0.15099606,-0.0487819,0.41562593,0.27537143,0.47535405,0.19647087,0.4357446,0.4779977,0.1114598,0.7830475,0.05938328,0.19377229,-0.40529457,0.5784954,-0.20927416,-0.29573065,802.23444,825.2015,821.978,832.8571,807.47253,-0.2579345703125,0.05401611328125,0.963134765625,4.897308349609375,-5.0244140625,0.299072265625,1,1.0,1.0,1.0,1.0,100.00
2021-04-11 22:42:21.398,,,,,,,,,,,,,,,,,,,,,,,,,,,,,,,,,,,,,,/muse/elements/blink
2021-04-11 22:42:21.461,0.1390972,0.33020204,1.0740371,0.46471637,0.08766264,-0.0487819,0.4850494,0.13727053,0.47709888,0.19647087,0.45118916,0.32847,0.14170069,0.7830475,0.119384125,0.28495464,-0.41985163,0.5784954,-0.19292656,-0.27141568,832.8571,858.24176,809.0842,814.7253,705.5311,-0.26483154296875,0.055419921875,0.9664306640625,4.85992431640625,-4.493560791015625,1.128997802734375,1,1.0,1.0,1.0,1.0,100.00
2021-04-11 22:42:21.986,0.27354985,0.25066727,0.83617544,0.4964769,0.035729155,0.017182026,0.47903645,0.09526433,0.19555034,0.060753305,0.37456065,0.3017853,0.1521692,0.8259899,0.08622486,0.28753862,-0.32729426,0.5624971,-0.18603256,-0.19935185,823.1868,804.65204,807.47253,788.1319,689.81683,-0.25927734375,0.05718994140625,0.96978759765625,4.5758056640625,-4.987030029296875,1.024322509765625,1,1.0,1.0,1.0,1.0,100.00
2021-04-11 22:42:22.511,0.3848666,0.3685976,0.7184687,0.6141291,0.1581458,-0.17777419,0.37839407,0.19601858,0.1827772,0.11004152,0.35050008,0.26612023,0.17934018,0.78138316,0.079206534,0.40524718,-0.23600914,0.547863,-0.18409063,-0.14116737,813.1135,823.9927,813.1135,812.71063,791.3553,-0.25958251953125,0.053466796875,0.966796875,4.20196533203125,-4.673004150390625,0.91217041015625,1,1.0,1.0,1.0,1.0,100.00
2021-04-11 22:42:23.044,0.3104356,0.23753487,0.3335878,0.2073107,0.30690095,-0.010838042,0.07177659,-0.13754399,0.3107565,0.15145046,0.106638394,0.4152023,0.24189863,0.71626484,0.100518465,0.26839885,-0.3201514,0.49893814,-0.18263943,-0.2622951,811.9048,824.7985,789.34064,775.2381,713.1868,-0.26580810546875,0.07373046875,0.9647216796875,2.64678955078125,-4.7552490234375,-2.235565185546875,1,1.0,1.0,1.0,1.0,100.00
2021-04-11 22:42:23.568,0.25585464,0.16403529,0.7742593,0.3174942,0.39416626,0.042191442,0.13514045,0.19720642,0.45487368,0.10242249,0.5142239,0.7705039,0.24635004,0.69000375,0.06000883,0.22345713,-0.2100699,0.46174705,-0.19554774,-0.15039049,809.0842,809.4872,812.71063,828.8278,945.6777,-0.27484130859375,0.09002685546875,0.9525146484375,14.2059326171875,2.145843505859375,3.147735595703125,1,1.0,1.0,1.0,1.0,100.00
2021-04-11 22:42:24.054,,,,,,,,,,,,,,,,,,,,,,,,,,,,,,,,,,,,,,/muse/elements/blink
2021-04-11 22:42:24.074,0.16639757,0.0060414663,0.846743,0.25419012,0.4206462,0.05360858,0.22543605,0.31408027,0.45518348,0.031206777,0.51462936,0.7732966,0.26376885,0.64048827,0.07993605,0.20490454,-0.19855496,0.4247576,-0.12736247,-0.15477778,792.96704,817.9487,778.46155,829.2308,774.83514,-0.32000732421875,0.13055419921875,0.93310546875,3.476715087890625,-3.75335693359375,4.329071044921875,1,1.0,1.0,1.0,1.0,100.00
2021-04-11 22:42:24.585,0.16352285,-0.050274156,1.0396307,0.31918278,0.47643802,-0.054408994,0.45173857,0.47283086,0.420669,0.004030885,0.50791323,0.7732966,0.27719358,0.6509045,0.07202973,0.14071847,-0.116554596,0.3693238,-0.07412426,-0.09376225,782.49084,782.8938,775.2381,766.3736,618.49817,-0.30859375,0.1683349609375,0.945556640625,3.596343994140625,-7.499237060546875,3.102874755859375,1,1.0,1.0,1.0,1.0,100.00
2021-04-11 22:42:25.113,0.22438858,-0.050274156,0.8969484,0.19494495,0.5018639,-0.054408994,0.50859094,0.5695518,0.36925888,0.004030885,0.42722175,0.7732966,0.32261997,0.6509045,0.11514972,0.12922661,-0.07217577,0.3693238,-0.07849238,-0.13329533,801.4286,806.26373,792.1612,762.74725,623.3333,-0.27239990234375,0.1400146484375,0.9580078125,1.502838134765625,-7.22259521484375,3.69354248046875,1,1.0,1.0,1.0,1.0,100.00
2021-04-11 22:42:25.622,0.7700715,-0.050274156,0.85937905,0.66067034,0.17044856,-0.054408994,0.6740822,0.57272476,0.23386149,0.004030885,0.58935994,0.4521376,0.17839858,0.6509045,0.12025899,0.31731072,-0.35190123,0.3693238,0.05402899,-0.07815453,807.0696,799.41394,764.35895,796.1905,732.1245,-0.27130126953125,0.0975341796875,0.95721435546875,3.102874755859375,-3.22998046875,1.024322509765625,1,1.0,1.0,1.0,1.0,100.00
2021-04-11 22:42:25.632,,,,,,,,,,,,,,,,,,,,,,,,,,,,,,,,,,,,,,/muse/elements/blink
2021-04-11 22:42:26.125,0.7700715,-0.050274156,0.8980432,0.66067034,0.17044856,-0.054408994,0.73274267,0.57272476,0.23386149,0.004030885,0.73991627,0.4521376,0.17839858,0.6509045,0.098157465,0.31731072,-0.35190123,0.3693238,0.0605612,-0.07815453,782.49084,804.2491,788.1319,825.2015,923.91943,-0.27374267578125,0.1005859375,0.958740234375,4.83001708984375,-3.99261474609375,0.9271240234375,1,1.0,1.0,1.0,1.0,100.00
2021-04-11 22:42:26.660,0.7700715,-0.050274156,1.0372652,0.66067034,0.17044856,-0.054408994,0.6899362,0.57272476,0.23386149,0.004030885,0.73944724,0.4521376,0.17839858,0.6509045,0.12855892,0.31731072,-0.35190123,0.3693238,0.076565616,-0.07815453,820.3663,862.674,799.81683,834.87177,770.80585,-0.26287841796875,0.09832763671875,0.9622802734375,4.029998779296875,-4.68048095703125,-0.35888671875,1,1.0,1.0,1.0,1.0,100.00
2021-04-11 22:42:27.164,0.7700715,-0.050274156,1.126687,0.66067034,0.17044856,-0.054408994,0.70677984,0.57272476,0.23386149,0.004030885,0.7350641,0.4521376,0.17839858,0.6509045,0.24233423,0.31731072,-0.35190123,0.3693238,0.046826627,-0.07815453,807.47253,836.08057,809.4872,780.87915,587.0696,-0.26470947265625,0.09417724609375,0.9619140625,4.71038818359375,-4.26177978515625,1.54022216796875,1,1.0,1.0,1.0,1.0,100.00
2021-04-11 22:42:27.501,,,,,,,,,,,,,,,,,,,,,,,,,,,,,,,,,,,,,,/muse/elements/blink
2021-04-11 22:42:27.695,0.7700715,-0.050274156,0.9771619,1.0510632,0.17044856,-0.054408994,0.47248533,0.6099555,0.23386149,0.004030885,0.58651716,0.46150038,0.17839858,0.6509045,0.36502177,0.3375416,-0.35190123,0.3693238,-0.07268696,-0.22454621,811.9048,791.75824,803.8461,785.31134,681.3553,-0.27923583984375,0.0972900390625,0.95880126953125,4.5458984375,-4.0972900390625,0.478515625,1,1.0,1.0,1.0,1.0,100.00
2021-04-11 22:42:28.220,0.7700715,-0.050274156,1.1208106,1.0510632,0.17044856,-0.054408994,0.8689431,0.6099555,0.23386149,0.004030885,0.5913502,0.46150038,0.17839858,0.6509045,0.3550934,0.3375416,-0.35190123,0.3693238,-0.1142552,-0.22454621,800.2198,825.2015,802.6374,802.6374,876.77655,-0.27001953125,0.09722900390625,0.958984375,4.85992431640625,-3.96270751953125,0.43365478515625,1,1.0,1.0,1.0,1.0,100.00
2021-04-11 22:42:28.721,0.7700715,-0.050274156,1.0262066,1.0510632,0.17044856,-0.054408994,0.7905893,0.6099555,0.23386149,0.004030885,0.538465,0.46150038,0.17839858,0.6509045,0.27410677,0.3375416,-0.35190123,0.3693238,-0.14046648,-0.22454621,810.293,845.7509,814.3223,856.2271,790.54944,-0.269775390625,0.091552734375,0.959716796875,4.0374755859375,-5.38330078125,-0.0299072265625,1,1.0,1.0,1.0,1.0,100.00
2021-04-11 22:42:29.238,0.50315404,-0.050274156,1.0946687,0.88041204,-0.039552126,-0.054408994,0.85300636,0.5854357,0.26142278,0.004030885,0.65186125,0.3183929,0.17960899,0.6509045,0.26034915,0.21462847,-0.11883191,0.3693238,-0.042328723,-0.2471104,819.15753,825.6044,829.2308,817.1429,786.9231,-0.23681640625,0.06817626953125,0.9779052734375,3.701019287109375,-14.01153564453125,-9.92919921875,1,1.0,1.0,1.0,1.0,100.00
2021-04-11 22:42:29.769,0.35799968,-0.050274156,0.8159426,0.8011476,-0.13548243,-0.054408994,0.56158125,0.43894136,0.34083676,0.004030885,0.5712154,0.3183929,0.15476006,0.6509045,0.28008646,0.24054284,-0.16213894,0.3693238,-0.116743475,-0.22063835,811.0989,825.2015,820.7692,824.3956,792.1612,-0.1610107421875,0.03765869140625,0.98052978515625,1.069183349609375,-9.37591552734375,-4.366455078125,1,1.0,1.0,1.0,1.0,100.00
2021-04-11 22:42:30.271,0.25126877,-0.050274156,0.849009,0.7441788,-0.027070817,-0.054408994,0.5462745,0.34645495,0.26776925,0.004030885,0.5597415,0.31926072,0.16564208,0.6509045,0.31600577,0.25447896,-0.16862625,0.3693238,-0.14451444,-0.19774257,0.0,327.98535,0.0,0.0,758.71796,-0.15240478515625,0.0159912109375,0.998046875,4.852447509765625,-1.51031494140625,0.755157470703125,1,1.0,1.0,1.0,1.0,100.00
2021-04-11 22:42:30.423,,,,,,,,,,,,,,,,,,,,,,,,,,,,,,,,,,,,,,/muse/elements/blink
2021-04-11 22:42:30.805,0.22046115,-0.050274156,0.5571425,0.55078286,0.052337345,-0.054408994,0.010449542,-0.10264361,0.21565828,0.004030885,0.12627476,0.15430982,0.14684035,0.6509045,0.30528733,0.27786383,-0.21733303,0.3693238,-0.28601086,-0.19885373,831.2454,555.64105,786.9231,849.7802,855.42126,-0.17333984375,0.0274658203125,0.99725341796875,5.226287841796875,-4.254302978515625,0.216827392578125,1,1.0,1.0,1.0,1.0,100.00
2021-04-11 22:42:30.873,,,,,,,,,,,,,,,,,,,,,,,,,,,,,,,,,,,,,,/muse/elements/blink
2021-04-11 22:42:31.332,0.41930896,-0.050274156,0.46519846,0.4770552,0.26500246,-0.054408994,0.0013647266,-0.11893579,-0.014872205,0.004030885,0.08592557,-0.11890369,0.1828871,0.6509045,0.32538214,0.2732028,-0.18679243,0.3693238,-0.23204762,-0.22090039,941.2454,792.1612,856.2271,951.31866,776.4469,-0.18170166015625,0.0157470703125,0.986572265625,6.138458251953125,-2.28790283203125,-8.35906982421875,1,1.0,2.0,1.0,1.0,100.00
2021-04-11 22:42:31.835,0.41930896,-0.050274156,0.46519846,0.4770552,0.26500246,-0.054408994,0.0013647266,-0.11893579,-0.014872205,0.004030885,0.08592557,-0.11890369,0.1828871,0.6509045,0.32538214,0.2732028,-0.18679243,0.3693238,-0.23204762,-0.22090039,913.44324,848.5714,865.09155,931.5751,878.3883,-0.2071533203125,0.06732177734375,0.9794921875,13.226470947265625,-12.134857177734375,-22.751922607421875,1,1.0,1.0,1.0,1.0,100.00
2021-04-11 22:42:32.354,0.41930896,-0.050274156,0.46519846,0.4770552,0.26500246,-0.054408994,0.0013647266,-0.11893579,-0.014872205,0.004030885,0.08592557,-0.11890369,0.1828871,0.6509045,0.32538214,0.2732028,-0.18679243,0.3693238,-0.23204762,-0.22090039,867.1062,824.3956,892.8938,850.18317,628.97437,-0.12921142578125,0.10845947265625,1.00823974609375,4.59075927734375,-4.209442138671875,-11.6339111328125,1,1.0,1.0,1.0,1.0,100.00
2021-04-11 22:42:32.869,1.2149904,-0.050274156,1.1155374,1.196664,1.0012717,-0.054408994,0.59293014,0.81194824,0.90001774,0.004030885,0.54070354,0.8225516,0.6258018,0.6509045,0.23189557,0.5185653,-0.34790066,0.3693238,-0.37092322,-0.06914143,844.1392,799.41394,865.09155,823.9927,643.47986,-0.106689453125,0.0772705078125,0.979248046875,9.368438720703125,-11.790924072265625,-15.611572265625,1,1.0,1.0,1.0,1.0,100.00
2021-04-11 22:42:33.385,1.1502875,-0.050274156,1.1205251,1.1315644,0.9265734,-0.054408994,0.4358503,0.6288072,0.90001774,0.004030885,0.54851264,0.82405716,0.5624701,0.6509045,0.1797202,0.46306476,-0.32936305,0.3693238,-0.38539726,-0.09906522,830.4396,798.60803,838.49817,809.4872,713.5897,-0.11505126953125,0.1085205078125,0.97802734375,1.65985107421875,-9.996490478515625,4.463653564453125,1,1.0,1.0,1.0,1.0,100.00
2021-04-11 22:42:33.913,1.0462987,-0.050274156,1.0951873,1.0135082,0.7770442,-0.054408994,0.41035026,0.58693224,0.8701056,0.004030885,0.7608856,0.79125524,0.47067648,0.6509045,0.31945118,0.41079924,-0.288744,0.3693238,-0.4290807,-0.14901797,843.3333,827.619,817.9487,855.0183,735.34796,-0.05572509765625,0.10498046875,1.00494384765625,0.31402587890625,11.82830810546875,35.028839111328125,1,1.0,1.0,1.0,1.0,100.00
2021-04-11 22:42:33.917,,,,,,,,,,,,,,,,,,,,,,,,,,,,,,,,,,,,,,/muse/elements/blink
2021-04-11 22:42:34.436,0.950674,-0.050274156,1.2198892,0.8393725,0.43344796,-0.054408994,0.49135327,-0.54761255,0.5135774,0.004030885,0.7415525,0.3454123,0.25050923,0.6509045,0.47517103,0.32744747,-0.23948108,0.3693238,-0.37503144,-0.2185517,786.52014,753.0769,767.5824,831.2454,926.337,-0.29022216796875,0.10321044921875,0.95184326171875,-1.57012939453125,3.9178466796875,14.6246337890625,1,1.0,1.0,1.0,1.0,100.00
2021-04-11 22:42:34.963,0.950674,-0.050274156,1.2751511,0.44969055,0.43344796,-0.054408994,0.6743244,-0.72807163,0.5135774,0.004030885,0.740456,0.19182354,0.25050923,0.6509045,0.6294163,0.28292048,-0.23948108,0.3693238,-0.3519173,-0.2840722,756.30035,777.25275,726.4835,752.27106,667.6557,-0.34405517578125,0.0286865234375,0.92828369140625,-0.79254150390625,-4.912261962890625,3.312225341796875,1,1.0,1.0,1.0,1.0,100.00
2021-04-11 22:42:35.493,0.950674,-0.050274156,1.3857701,0.44969055,0.43344796,-0.054408994,0.76072395,-0.72807163,0.5135774,0.004030885,0.6784508,0.19182354,0.25050923,0.6509045,0.7098474,0.28292048,-0.23948108,0.3693238,-0.26275676,-0.2840722,775.64105,763.95605,766.3736,742.1978,571.3553,-0.32135009765625,0.0543212890625,0.9420166015625,4.88983154296875,-0.231781005859375,4.269256591796875,1,1.0,1.0,1.0,1.0,100.00
2021-04-11 22:42:35.852,,,,,,,,,,,,,,,,,,,,,,,,,,,,,,,,,,,,,,/muse/elements/blink
2021-04-11 22:42:36.016,0.950674,-0.050274156,1.3857701,0.44969055,0.43344796,-0.054408994,0.76072395,-0.72807163,0.5135774,0.004030885,0.6784508,0.19182354,0.25050923,0.6509045,0.7098474,0.28292048,-0.23948108,0.3693238,-0.26275676,-0.2840722,837.6923,767.1795,806.6667,828.8278,994.43225,-0.2882080078125,0.06939697265625,0.9527587890625,7.9254150390625,-7.574005126953125,6.811370849609375,1,1.0,1.0,1.0,1.0,100.00
2021-04-11 22:42:36.521,0.950674,-0.050274156,1.3857701,0.44969055,0.43344796,-0.054408994,0.76072395,-0.72807163,0.5135774,0.004030885,0.6784508,0.19182354,0.25050923,0.6509045,0.7098474,0.28292048,-0.23948108,0.3693238,-0.26275676,-0.2840722,823.5897,850.58606,808.2784,853.4066,873.95605,-0.3154296875,0.0469970703125,0.9559326171875,5.929107666015625,-6.17584228515625,0.179443359375,1,2.0,1.0,1.0,2.0,100.00
2021-04-11 22:42:37.023,0.950674,-0.050274156,1.3857701,0.44969055,0.43344796,-0.054408994,0.76072395,-0.72807163,0.5135774,0.004030885,0.6784508,0.19182354,0.25050923,0.6509045,0.7098474,0.28292048,-0.23948108,0.3693238,-0.26275676,-0.2840722,799.81683,782.8938,772.4176,757.50916,554.0293,-0.33966064453125,0.06573486328125,0.96649169921875,4.0972900390625,-3.0206298828125,8.2244873046875,1,2.0,1.0,1.0,2.0,100.00
2021-04-11 22:42:37.532,0.950674,-0.050274156,1.3857701,0.44969055,0.43344796,-0.054408994,0.76072395,-0.72807163,0.5135774,0.004030885,0.6784508,0.19182354,0.25050923,0.6509045,0.7098474,0.28292048,-0.23948108,0.3693238,-0.26275676,-0.2840722,824.7985,802.23444,788.1319,802.6374,645.4945,-0.3021240234375,0.0806884765625,0.9554443359375,2.87109375,-9.338531494140625,1.973876953125,1,2.0,1.0,1.0,2.0,100.00
2021-04-11 22:42:37.565,,,,,,,,,,,,,,,,,,,,,,,,,,,,,,,,,,,,,,/muse/elements/blink
2021-04-11 22:42:38.034,0.950674,-0.050274156,1.3857701,0.44969055,0.43344796,-0.054408994,0.76072395,-0.72807163,0.5135774,0.004030885,0.6784508,0.19182354,0.25050923,0.6509045,0.7098474,0.28292048,-0.23948108,0.3693238,-0.26275676,-0.2840722,805.05493,792.1612,793.36993,767.98535,637.03296,-0.2860107421875,0.04791259765625,0.96246337890625,5.196380615234375,2.714080810546875,-5.18890380859375,1,2.0,1.0,1.0,2.0,100.00
2021-04-11 22:42:38.554,0.950674,-0.050274156,1.3842676,0.44969055,0.43344796,-0.054408994,0.52237713,-0.72807163,0.5135774,0.004030885,0.2019132,0.19182354,0.25050923,0.6509045,0.28859934,0.28292048,-0.23948108,0.3693238,0.12388001,-0.2840722,662.8205,804.65204,839.304,671.28204,871.53845,-0.2982177734375,0.05450439453125,0.95684814453125,5.241241455078125,-7.454376220703125,1.816864013671875,1,2.0,1.0,1.0,2.0,100.00
2021-04-11 22:42:38.767,,,,,,,,,,,,,,,,,,,,,,,,,,,,,,,,,,,,,,/muse/elements/blink
2021-04-11 22:42:39.064,0.950674,-0.050274156,1.352137,0.44969055,0.43344796,-0.054408994,0.5562169,-0.72807163,0.5135774,0.004030885,0.06787002,0.19182354,0.25050923,0.6509045,0.29712263,0.28292048,-0.23948108,0.3693238,0.200473,-0.2840722,829.2308,838.9011,836.4835,870.7326,821.5751,-0.31085205078125,0.049560546875,0.95135498046875,5.330963134765625,-4.254302978515625,2.5421142578125,1,2.0,1.0,1.0,2.0,100.00
2021-04-11 22:42:39.584,0.950674,-0.050274156,1.3938122,0.44969055,0.43344796,-0.054408994,0.5135333,-0.72807163,0.5135774,0.004030885,-0.0919187,0.19182354,0.25050923,0.6509045,0.31792793,0.28292048,-0.23948108,0.3693238,0.22121322,-0.2840722,724.0659,802.23444,807.47253,688.20514,593.1135,-0.3045654296875,0.04742431640625,0.95367431640625,4.306640625,-4.725341796875,-0.58319091796875,1,2.0,1.0,1.0,2.0,100.00
2021-04-11 22:42:39.794,,,,,,,,,,,,,,,,,,,,,,,,,,,,,,,,,,,,,,/muse/elements/blink
2021-04-11 22:42:40.089,0.950674,-0.050274156,1.4214256,0.44969055,0.43344796,-0.054408994,0.49394143,-0.72807163,0.5135774,0.004030885,-0.21225598,0.19182354,0.25050923,0.6509045,0.33331442,0.28292048,-0.23948108,0.3693238,0.25033137,-0.2840722,826.8132,820.3663,827.2161,799.81683,682.96704,-0.2928466796875,0.04241943359375,0.95684814453125,4.127197265625,-6.50482177734375,0.88226318359375,1,2.0,1.0,1.0,2.0,100.00
2021-04-11 22:42:40.600,0.950674,-0.050274156,1.4214256,0.44969055,0.43344796,-0.054408994,0.49394143,-0.72807163,0.5135774,0.004030885,-0.21225598,0.19182354,0.25050923,0.6509045,0.33331442,0.28292048,-0.23948108,0.3693238,0.25033137,-0.2840722,815.12823,834.87177,823.9927,855.82416,813.1135,-0.27996826171875,0.03094482421875,0.96209716796875,3.84307861328125,-5.06927490234375,-1.60003662109375,1,2.0,1.0,1.0,2.0,100.00
2021-04-11 22:42:41.118,0.950674,-0.050274156,1.4214256,0.44969055,0.43344796,-0.054408994,0.49394143,-0.72807163,0.5135774,0.004030885,-0.21225598,0.19182354,0.25050923,0.6509045,0.33331442,0.28292048,-0.23948108,0.3693238,0.25033137,-0.2840722,823.1868,833.2601,826.0073,845.7509,914.2491,-0.289794921875,0.017578125,0.955078125,4.643096923828125,-3.06549072265625,0.889739990234375,1,2.0,1.0,1.0,2.0,100.00
2021-04-11 22:42:41.409,,,,,,,,,,,,,,,,,,,,,,,,,,,,,,,,,,,,,,/muse/elements/blink
2021-04-11 22:42:41.619,0.950674,-0.050274156,0.45384192,0.44969055,0.43344796,-0.054408994,0.11694269,-0.72807163,0.5135774,0.004030885,0.2806552,0.19182354,0.25050923,0.6509045,0.0947605,0.28292048,-0.23948108,0.3693238,0.007504024,-0.2840722,832.0513,795.78754,807.8755,798.60803,666.04395,-0.28143310546875,0.0185546875,0.96337890625,4.08233642578125,-5.0543212890625,0.52337646484375,1,2.0,1.0,1.0,2.0,100.00
2021-04-11 22:42:42.132,0.950674,-0.050274156,0.71574765,0.44969055,0.43344796,-0.054408994,0.18147412,-0.72807163,0.5135774,0.004030885,0.39485896,0.19182354,0.25050923,0.6509045,0.14677495,0.28292048,-0.23948108,0.3693238,0.047317475,-0.2840722,810.293,826.0073,806.26373,782.49084,631.39197,-0.28057861328125,0.00714111328125,0.95806884765625,4.8150634765625,-4.284210205078125,1.5252685546875,1,2.0,1.0,1.0,2.0,100.00
2021-04-11 22:42:42.637,0.950674,-0.050274156,0.7794188,0.44969055,0.43344796,-0.054408994,0.20052199,-0.72807163,0.5135774,0.004030885,0.4134791,0.19182354,0.25050923,0.6509045,0.20461339,0.28292048,-0.23948108,0.3693238,0.04202246,-0.2840722,686.99634,823.5897,826.0073,715.6044,848.97437,-0.28497314453125,0.01104736328125,0.96063232421875,4.852447509765625,-4.306640625,1.607513427734375,1,2.0,1.0,1.0,2.0,100.00
2021-04-11 22:42:42.838,,,,,,,,,,,,,,,,,,,,,,,,,,,,,,,,,,,,,,/muse/elements/blink
2021-04-11 22:42:43.151,0.950674,-0.050274156,1.0236545,0.44969055,0.43344796,-0.054408994,0.20487982,-0.72807163,0.5135774,0.004030885,0.28610525,0.19182354,0.25050923,0.6509045,0.3038236,0.28292048,-0.23948108,0.3693238,0.0017572722,-0.2840722,767.5824,795.38464,773.22345,807.0696,799.41394,-0.2838134765625,0.0081787109375,0.94879150390625,4.4561767578125,-4.000091552734375,0.31402587890625,1,2.0,1.0,1.0,2.0,100.00
2021-04-11 22:42:43.662,0.950674,-0.050274156,1.0649883,0.44969055,0.43344796,-0.054408994,0.1988035,-0.72807163,0.5135774,0.004030885,0.211722,0.19182354,0.25050923,0.6509045,0.3379568,0.28292048,-0.23948108,0.3693238,-0.044723634,-0.2840722,818.7546,840.5128,795.38464,787.326,615.6777,-0.28900146484375,0.0107421875,0.96044921875,4.3365478515625,-4.568328857421875,0.829925537109375,1,2.0,1.0,1.0,2.0,100.00
2021-04-11 22:42:44.188,0.950674,-0.050274156,1.2095197,0.44969055,0.43344796,-0.054408994,0.30789405,-0.72807163,0.5135774,0.004030885,0.1933807,0.19182354,0.25050923,0.6509045,0.35395533,0.28292048,-0.23948108,0.3693238,-0.14216915,-0.2840722,820.7692,818.3516,820.3663,791.3553,630.58606,-0.28753662109375,0.00823974609375,0.9569091796875,4.658050537109375,-3.431854248046875,0.590667724609375,1,2.0,1.0,1.0,2.0,100.00
2021-04-11 22:42:44.692,0.7796809,-0.050274156,0.9353929,0.83332187,0.57566243,-0.054408994,0.42835927,0.7285947,0.61207926,0.004030885,0.1534378,0.5432941,0.24095203,0.6509045,0.14554198,0.32516575,-0.23720185,0.3693238,-0.29365754,-0.23460996,798.20514,835.6777,799.81683,770.80585,670.4762,-0.2880859375,0.0068359375,0.96270751953125,4.6954345703125,-4.418792724609375,0.7476806640625,1,1.0,1.0,1.0,1.0,100.00
2021-04-11 22:42:44.963,,,,,,,,,,,,,,,,,,,,,,,,,,,,,,,,,,,,,,/muse/elements/blink
2021-04-11 22:42:45.206,0.7796809,-0.050274156,0.9196431,0.83332187,0.57566243,-0.054408994,0.41790283,0.7285947,0.61207926,0.004030885,0.30330503,0.5432941,0.24095203,0.6509045,0.18959165,0.32516575,-0.23720185,0.3693238,-0.24189864,-0.23460996,789.7436,778.86444,758.71796,804.2491,864.68866,-0.288330078125,0.01409912109375,0.9613037109375,4.6954345703125,-4.269256591796875,1.457977294921875,1,1.0,1.0,1.0,1.0,100.00
2021-04-11 22:42:45.712,0.6646072,-0.050274156,1.049735,0.79137546,0.6422422,-0.054408994,0.48246065,0.7613847,0.61207926,0.004030885,0.40637952,0.5143154,0.21096812,0.6509045,0.21019678,0.29871574,-0.22320414,0.3693238,-0.16479005,-0.24414326,818.7546,806.6667,819.15753,791.3553,691.8315,-0.2882080078125,0.01080322265625,0.9599609375,4.42626953125,-5.106658935546875,1.42059326171875,1,1.0,1.0,1.0,1.0,100.00
2021-04-11 22:42:46.222,0.5838451,-0.050274156,1.1374007,0.7467173,0.67176783,-0.054408994,0.5191111,0.790866,0.60390884,0.004030885,0.27772817,0.41080904,0.18647005,0.6509045,0.25687718,0.26723567,-0.22778073,0.3693238,-0.09930402,-0.26595104,817.5458,835.6777,817.9487,788.5348,701.50183,-0.29998779296875,0.03326416015625,0.94873046875,14.258270263671875,5.495452880859375,-4.5758056640625,1,1.0,1.0,1.0,1.0,100.00
2021-04-11 22:42:46.734,0.8877504,-0.050274156,1.1877587,1.0313963,0.7542983,-0.054408994,0.31297407,0.58869714,0.8048485,0.004030885,0.50218683,0.56886524,0.30264354,0.6509045,0.27048284,0.22271633,-0.11318085,0.3693238,9.098099E-4,-0.016656773,659.19415,778.0586,816.337,692.23444,861.4652,-0.335205078125,0.0865478515625,0.9346923828125,6.751556396484375,-5.779571533203125,3.715972900390625,1,1.0,1.0,1.0,1.0,100.00
2021-04-11 22:42:46.893,,,,,,,,,,,,,,,,,,,,,,,,,,,,,,,,,,,,,,/muse/elements/blink
2021-04-11 22:42:47.266,0.8877504,-0.050274156,1.0082008,1.0313963,0.7542983,-0.054408994,-0.13037694,0.58869714,0.8048485,0.004030885,0.47980583,0.56886524,0.30264354,0.6509045,0.29477578,0.22271633,-0.11318085,0.3693238,0.039025053,-0.016656773,811.0989,781.28204,795.78754,850.989,1129.011,-0.30352783203125,0.09906005859375,0.9500732421875,7.245025634765625,-8.25439453125,-3.7384033203125,1,1.0,1.0,1.0,1.0,100.00
2021-04-11 22:42:47.769,0.7859823,-0.050274156,1.0082008,1.0179135,0.871849,-0.054408994,-0.13037694,0.64041245,0.8048485,0.004030885,0.47980583,0.5600927,0.3422237,0.6509045,0.29477578,0.18323761,-0.13731635,0.3693238,0.039025053,0.029095776,800.2198,819.9634,805.4579,829.2308,858.6447,-0.29998779296875,0.10772705078125,0.95428466796875,4.29168701171875,-6.048736572265625,1.128997802734375,1,1.0,1.0,1.0,1.0,100.00
2021-04-11 22:42:48.282,0.7859823,-0.050274156,1.1388478,1.0179135,0.871849,-0.054408994,-0.1086498,0.64041245,0.8048485,0.004030885,0.4227483,0.5600927,0.3422237,0.6509045,0.2075535,0.18323761,-0.13731635,0.3693238,0.02941502,0.029095776,823.9927,813.91943,817.9487,779.2674,653.1502,-0.29852294921875,0.09661865234375,0.943359375,5.181427001953125,-4.329071044921875,1.951446533203125,1,1.0,1.0,1.0,1.0,100.00
2021-04-11 22:42:48.793,0.7463822,-0.050274156,1.0213649,0.82351106,0.19351746,-0.054408994,0.21230897,0.34126335,0.69045454,0.004030885,0.4299823,0.63672304,0.3822186,0.6509045,0.1322622,0.27823612,-0.37784803,0.3693238,-0.23149495,-0.21958056,821.5751,840.5128,791.3553,785.31134,587.8755,-0.32708740234375,0.07049560546875,0.94598388671875,-3.51409912109375,2.848663330078125,7.8656005859375,1,1.0,1.0,1.0,1.0,100.00
2021-04-11 22:42:49.306,0.58488953,0.706082,1.0216398,0.78140384,0.010574911,0.39398384,0.2370967,0.2316681,0.69045454,0.14160433,0.5574163,0.6372914,0.34995195,0.6303993,0.23242918,0.24404725,-0.23456931,0.3194024,-0.27005425,-0.23413461,827.619,821.1722,793.7729,845.7509,854.61536,-0.33892822265625,0.08489990234375,0.9478759765625,1.4056396484375,-8.32916259765625,3.401947021484375,1,1.0,1.0,1.0,1.0,100.00
2021-04-11 22:42:49.830,0.5585713,0.67995375,0.9317297,0.7150168,-0.02983581,0.26949263,0.23444189,0.25229055,0.70386964,0.20700952,0.5328604,0.6372914,0.32900617,0.59913504,0.25265157,0.25104633,-0.13218862,0.3418079,-0.19284938,-0.26856384,832.0513,808.68134,791.75824,852.1978,736.9597,-0.28997802734375,0.05181884765625,0.96221923828125,3.4393310546875,-4.42626953125,-0.4486083984375,1,1.0,1.0,1.0,1.0,100.00
2021-04-11 22:42:49.834,,,,,,,,,,,,,,,,,,,,,,,,,,,,,,,,,,,,,,/muse/elements/blink
2021-04-11 22:42:50.359,0.350664,0.67995375,0.99281836,0.6480647,-0.36366987,0.26949263,0.3739505,0.17239563,0.54728633,0.20700952,0.52824354,0.4133675,0.3019318,0.59913504,0.2650217,0.20832443,-0.028311264,0.3418079,-0.09924376,-0.3003649,819.5604,838.9011,809.89014,806.6667,595.5311,-0.27764892578125,0.04827880859375,0.96685791015625,3.4991455078125,-8.00018310546875,-0.231781005859375,1,1.0,1.0,1.0,1.0,100.00
2021-04-11 22:42:50.872,,,,,,,,,,,,,,,,,,,,,,,,,,,,,,,,,,,,,,/muse/elements/blink
2021-04-11 22:42:50.873,0.2649639,0.6102849,0.9206692,0.4195554,-0.3877425,-0.050822206,0.39204833,0.27083507,0.38199097,-0.034509726,0.4073282,0.2071875,0.23901911,0.5458492,0.19148847,0.27658656,0.07943005,0.38579053,-0.02299753,-0.3899132,837.28937,813.1135,812.3077,850.58606,754.68866,-0.25787353515625,0.03558349609375,0.97412109375,4.90478515625,-5.525360107421875,0.605621337890625,1,1.0,1.0,1.0,1.0,100.00
2021-04-11 22:42:51.397,0.2649639,0.6102849,0.97037363,0.4195554,-0.3877425,-0.050822206,0.672082,0.27083507,0.38199097,-0.034509726,0.7375413,0.2071875,0.23901911,0.5458492,0.22056983,0.27658656,0.07943005,0.38579053,-0.05642004,-0.3899132,801.02563,796.5934,802.6374,796.99634,809.89014,-0.25823974609375,0.03533935546875,0.9676513671875,4.687957763671875,-3.043060302734375,-1.62994384765625,1,1.0,1.0,1.0,1.0,100.00
2021-04-11 22:42:51.925,0.2649639,0.72805166,0.9361735,0.4195554,-0.3877425,0.61162776,0.613528,0.27083507,0.38199097,0.6375721,0.7375413,0.2071875,0.23901911,0.5690146,0.34032628,0.27658656,0.07943005,0.38231468,0.037537135,-0.3899132,819.15753,814.7253,819.9634,787.72894,666.4469,-0.2674560546875,0.03021240234375,0.96514892578125,4.6356201171875,-3.51409912109375,0.538330078125,1,1.0,1.0,1.0,1.0,100.00
2021-04-11 22:42:52.443,0.6457816,0.76730335,0.95839393,0.6680147,0.44185227,0.5831361,0.5663222,0.2690356,0.28169218,0.679963,0.7375413,0.43217632,0.32894996,0.52861845,0.31014654,0.21531348,-0.04621514,0.3039871,0.016863126,-0.14059529,792.1612,798.60803,785.7143,809.89014,797.8022,-0.274169921875,0.030029296875,0.96160888671875,5.0244140625,-2.803802490234375,0.73272705078125,1,1.0,1.0,1.0,1.0,100.00
2021-04-11 22:42:52.958,0.87073195,0.82055587,0.9118982,0.7739818,0.42234355,0.5699253,0.17368056,0.264618,0.3063542,0.679963,0.3507458,0.4971379,0.26808178,0.5509405,0.24660772,0.21038224,-0.12727228,0.27800903,-0.009187989,-0.077144004,810.696,830.84247,800.6227,844.1392,741.79486,-0.2890625,0.03485107421875,0.9619140625,5.031890869140625,-4.403839111328125,1.00189208984375,1,1.0,1.0,1.0,1.0,100.00
2021-04-11 22:42:53.463,0.8822568,0.82089293,0.84411085,0.7695833,0.4645449,0.4387605,0.095322944,0.33118635,0.33597705,0.6525467,0.3867812,0.49874562,0.19011205,0.5663467,0.13446105,0.19123353,-0.1587721,0.23770197,-0.17568532,-0.104809664,809.0842,794.57874,805.05493,805.4579,818.7546,-0.2755126953125,0.03497314453125,0.96343994140625,4.83001708984375,-4.71038818359375,0.97198486328125,1,1.0,1.0,1.0,1.0,100.00
2021-04-11 22:42:53.977,0.9496804,0.8441361,1.0138586,0.96551806,0.47330004,0.27208152,0.103368126,0.32740223,0.2780763,0.43942776,0.24730289,0.40051734,0.119184315,0.62881607,0.08092505,0.22118175,-0.21347226,0.24600227,-0.13444725,-0.1180428,821.978,855.0183,789.7436,827.619,874.35895,-0.27630615234375,0.03582763671875,0.96099853515625,4.246826171875,-4.74029541015625,0.889739990234375,1,1.0,1.0,1.0,1.0,100.00
2021-04-11 22:42:54.477,,,,,,,,,,,,,,,,,,,,,,,,,,,,,,,,,,,,,,/muse/elements/blink
2021-04-11 22:42:54.507,0.90226084,0.8104008,0.983175,0.9455881,0.5314968,0.20529297,0.16705728,0.343443,0.24317129,0.43299928,0.47718167,0.36060065,3.5607006E-4,0.6277613,0.19399197,0.2235463,-0.22196043,0.26287737,-0.03659679,-0.12622827,844.1392,827.2161,823.5897,820.7692,715.2015,-0.27459716796875,0.03411865234375,0.9625244140625,4.8748779296875,-4.1571044921875,0.485992431640625,1,1.0,1.0,1.0,1.0,100.00
2021-04-11 22:42:55.033,0.9289492,0.8104008,0.92437625,1.0307841,0.5508646,0.20529297,0.33322185,0.2701445,0.22135489,0.43299928,0.5635092,0.30004838,-0.004961727,0.6277613,0.29564336,0.26380092,-0.2172074,0.26287737,0.03599319,-0.10306674,819.15753,828.8278,816.337,855.0183,875.56775,-0.2744140625,0.03265380859375,0.96563720703125,4.486083984375,-5.345916748046875,0.276641845703125,1,1.0,1.0,1.0,1.0,100.00
2021-04-11 22:42:55.540,0.9289492,0.33797434,0.40130603,0.7318547,0.5508646,0.08428602,0.27592003,0.30884063,0.22135489,0.20541294,0.56366813,0.28959316,-0.004961727,0.38601792,0.34553462,0.19955263,-0.2172074,0.46204272,-0.011593934,-0.031783663,819.15753,848.5714,826.0073,837.28937,759.5238,-0.273193359375,0.03125,0.9638671875,4.717864990234375,-3.820648193359375,-0.35888671875,1,1.0,1.0,1.0,1.0,100.00
2021-04-11 22:42:56.067,0.3103082,0.26608735,0.23184381,0.13488078,-0.016658012,0.076102294,0.1479921,0.16365515,0.31978306,0.21399327,0.4558207,0.26969472,0.12904167,0.4085817,0.3181922,0.23905104,-0.54282755,0.47970903,-0.03568318,-0.4011599,813.1135,817.9487,807.8755,786.52014,620.9158,-0.26947021484375,0.028076171875,0.96307373046875,4.68048095703125,-4.50103759765625,-0.43365478515625,1,1.0,1.0,1.0,1.0,100.00
2021-04-11 22:42:56.570,0.45540085,0.4179952,0.53023535,0.5213862,0.0064829793,0.2515215,0.026166305,0.14374053,0.3842418,0.43531,0.19886373,0.35932574,0.16308752,0.40375292,0.21329671,0.19598033,-0.42160898,0.40157527,-0.09708285,-0.4289979,824.3956,826.4103,818.7546,817.9487,696.6667,-0.28228759765625,0.03564453125,0.960205078125,4.2169189453125,-5.7720947265625,0.231781005859375,1,1.0,1.0,1.0,1.0,100.00
2021-04-11 22:42:57.089,0.37254515,0.5248946,0.6571433,0.46553946,0.017080562,0.36860877,0.12894593,0.14724953,0.4622081,0.4843701,0.04177178,0.38343242,0.20992969,0.5129887,0.19189867,0.25761765,-0.39910945,0.3116908,-0.073469885,-0.39226538,803.44324,815.5311,814.7253,818.3516,802.6374,-0.277587890625,0.0328369140625,0.9595947265625,4.747772216796875,-4.8748779296875,0.530853271484375,1,1.0,1.0,1.0,1.0,100.00
2021-04-11 22:42:57.594,0.33760893,0.57492137,0.7229428,0.48858953,0.12057533,0.4449605,0.08809292,0.14540324,0.40077373,0.4843701,-0.003253308,0.4030956,0.2431282,0.5160947,0.14119634,0.26025409,-0.31013674,0.108228944,-0.08384368,-0.31364366,797.3993,816.7399,818.3516,840.5128,871.53845,-0.28778076171875,0.03564453125,0.96221923828125,5.016937255859375,-3.117828369140625,0.418701171875,1,1.0,1.0,1.0,1.0,100.00
2021-04-11 22:42:58.111,0.11018867,0.54640555,0.6152029,0.28880674,0.16336726,0.40889564,-0.025879372,0.14490926,0.40062487,0.5325538,0.11433422,0.40989646,0.26608866,0.5102901,0.15688218,0.29498488,-0.31192708,0.15094772,-0.012937908,-0.10845712,816.7399,786.9231,815.12823,779.67035,772.01465,-0.2916259765625,0.01715087890625,0.95416259765625,4.628143310546875,-2.863616943359375,3.06549072265625,1,1.0,1.0,1.0,1.0,100.00
2021-04-11 22:42:58.619,0.16548806,0.51336384,0.5285462,0.20614947,0.2758151,0.29335225,-0.17043726,0.11446148,0.24679382,0.3041769,0.15130816,0.40452135,0.34093082,0.46479318,0.25968623,0.31394944,-0.0060700295,0.1829498,-0.022102393,0.30720544,811.50183,810.293,815.5311,781.685,584.65204,-0.30230712890625,0.04449462890625,0.95379638671875,5.779571533203125,-3.90289306640625,1.92901611328125,1,1.0,1.0,1.0,1.0,100.00
2021-04-11 22:42:59.146,0.3764199,0.6000756,0.8167877,0.3973527,0.2609507,0.15449698,0.10816319,0.19467515,0.055091895,0.27279282,0.22017351,0.40354562,0.35234046,0.47601455,0.3171012,0.33372045,0.16971408,0.3298919,-0.078811355,0.4097878,759.92676,811.9048,803.8461,731.31866,741.39197,-0.2978515625,0.05450439453125,0.95654296875,4.83001708984375,-6.32537841796875,0.059814453125,1,1.0,1.0,1.0,1.0,100.00
2021-04-11 22:42:59.411,,,,,,,,,,,,,,,,,,,,,,,,,,,,,,,,,,,,,,/muse/elements/blink
2021-04-11 22:42:59.671,0.5308129,0.6388291,1.0221137,0.5696067,0.26747093,0.104653075,0.294685,0.2944449,-0.027624033,0.27279282,0.47780368,0.35311267,0.3773276,0.51734996,0.27309334,0.35665688,0.29131153,0.3640332,-0.23296092,0.5172988,807.0696,813.91943,808.68134,833.663,839.707,-0.28338623046875,0.04766845703125,0.96075439453125,4.508514404296875,-5.301055908203125,1.069183349609375,1,1.0,1.0,1.0,1.0,100.00
2021-04-11 22:43:00.177,0.59082454,0.59694606,0.99492824,0.66784066,0.22734551,0.71079016,0.34633496,0.39214128,-0.15538992,0.7145619,0.49486616,0.3042925,0.24628647,0.4768785,0.29865772,0.27385542,0.3103424,0.23099396,-0.2454489,0.4106603,799.011,798.60803,804.2491,829.6337,796.1905,-0.2855224609375,0.0455322265625,0.962646484375,4.119720458984375,-4.26177978515625,1.60003662109375,1,1.0,1.0,1.0,1.0,100.00
2021-04-11 22:43:00.696,0.52281106,0.61522573,0.8136568,0.66784066,0.27894187,0.5969145,0.2413134,0.39214128,-0.177809,0.7145619,0.46154663,0.3042925,0.21748118,0.5310893,0.31823745,0.27385542,0.25994766,0.18289104,-0.2118306,0.4106603,802.23444,792.96704,795.38464,789.34064,778.46155,-0.28192138671875,0.02606201171875,0.95916748046875,7.409515380859375,-4.044952392578125,4.852447509765625,1,1.0,1.0,1.0,1.0,100.00
2021-04-11 22:43:01.209,0.8508983,0.46445727,0.56838554,0.8703832,0.0077235997,0.35808524,0.06766577,0.012044292,0.28614223,0.66385317,0.34290975,0.5616014,0.35544872,0.541399,0.3851859,0.33772615,-0.3451506,0.10391337,-0.17411925,-0.1324172,789.7436,803.8461,788.5348,816.337,907.8022,-0.29693603515625,0.13006591796875,0.96142578125,2.46734619140625,-4.77020263671875,8.62823486328125,1,1.0,1.0,1.0,1.0,100.00
2021-04-11 22:43:01.514,,,,,,,,,,,,,,,,,,,,,,,,,,,,,,,,,,,,,,/muse/elements/blink
2021-04-11 22:43:01.713,0.8431394,0.5900325,0.4978523,0.82858104,0.13148567,0.23237945,0.075238205,0.08046044,0.41417843,0.35783583,0.0846102,0.63565683,0.31943178,0.5639632,0.2764237,0.29406816,-0.33329055,0.22868426,-0.15634033,-0.13684689,808.2784,803.0403,815.5311,811.50183,787.326,-0.28143310546875,0.08831787109375,0.95703125,4.486083984375,-4.493560791015625,1.054229736328125,1,1.0,1.0,1.0,1.0,100.00
2021-04-11 22:43:02.218,0.69230473,0.54521257,0.58313084,0.8099741,0.20576334,0.25304326,0.30806565,0.097712256,0.3447183,0.33083415,0.13554184,0.63565683,0.18402137,0.5199116,0.17382962,0.2923404,-0.32780161,0.31048435,0.010417445,-0.17408845,799.41394,819.15753,790.9524,832.0513,867.50916,-0.27130126953125,0.084716796875,0.96270751953125,4.5758056640625,-4.284210205078125,1.592559814453125,1,1.0,1.0,1.0,1.0,100.00
2021-04-11 22:43:02.729,0.6675407,0.6673208,0.6651199,0.7292828,0.28657058,0.3628934,0.3809031,0.15469576,0.2452089,0.16517964,0.05282228,0.63565683,0.1392586,0.52620316,0.1619923,0.2063575,-0.30548665,0.37771502,0.047549687,-0.1732695,814.7253,821.978,807.47253,776.04395,583.44324,-0.280517578125,0.0804443359375,0.95599365234375,4.358978271484375,-4.80010986328125,0.441131591796875,1,1.0,1.0,1.0,1.0,100.00
2021-04-11 22:43:03.253,0.66468644,0.6673208,0.8355809,0.7924176,0.419672,0.3628934,0.52478683,0.78721327,0.34873745,0.16517964,0.49549937,0.5466686,0.2790655,0.52620316,0.3083597,0.3833834,-0.3242852,0.37771502,-0.010593532,-0.13068128,819.5604,811.50183,814.7253,790.14655,636.2271,-0.2830810546875,0.08355712890625,0.959228515625,4.56085205078125,-4.358978271484375,1.173858642578125,1,1.0,1.0,1.0,1.0,100.00
2021-04-11 22:43:03.762,0.6547275,0.6673208,0.80062,0.66411364,0.57337624,0.3628934,0.5339799,0.6259217,0.4244174,0.16517964,0.5001541,0.5466686,0.17577974,0.52620316,0.28480637,0.2891863,-0.32762888,0.37771502,-0.10803171,-0.14618905,816.337,820.7692,809.0842,784.10254,659.59705,-0.28143310546875,0.08319091796875,0.9620361328125,4.269256591796875,-4.83001708984375,-0.007476806640625,1,1.0,1.0,1.0,1.0,100.00
2021-04-11 22:43:04.292,0.5383246,0.6673208,0.7826506,0.5008746,0.47506016,0.3628934,0.53249735,0.5863246,0.4244174,0.16517964,0.5069249,0.59788394,0.17418331,0.52620316,0.24608003,0.2263579,-0.31850275,0.37771502,-0.12682217,-0.15983078,811.50183,823.5897,810.696,818.7546,825.6044,-0.27276611328125,0.06671142578125,0.96124267578125,3.327178955078125,-5.435638427734375,-1.98883056640625,1,1.0,1.0,1.0,1.0,100.00
2021-04-11 22:43:04.794,0.370411,0.42634624,0.7455632,0.2309506,0.4029059,0.30047536,0.44692415,0.42654768,0.41745102,0.15245683,0.43204588,0.50560796,0.11637333,0.5443122,0.1382531,0.100916766,-0.3123092,-0.025783734,-0.15722524,-0.23907554,809.89014,811.50183,810.293,839.304,819.9634,-0.2664794921875,0.04547119140625,0.9635009765625,4.74029541015625,-5.263671875,0.59814453125,1,1.0,1.0,1.0,1.0,100.00
2021-04-11 22:43:05.303,0.2692063,0.28321213,0.59396183,0.38293824,0.050259605,0.1755578,0.22051054,0.4068834,0.3411619,0.18699062,0.19013378,0.53153205,0.106950335,0.51178235,0.081672914,0.13131115,-0.36165717,0.042041354,-0.18601184,-0.33934316,772.4176,823.9927,820.3663,786.52014,689.81683,-0.26751708984375,0.05230712890625,0.96435546875,4.66552734375,-4.1571044921875,0.067291259765625,1,1.0,1.0,1.0,1.0,100.00
2021-04-11 22:43:05.478,,,,,,,,,,,,,,,,,,,,,,,,,,,,,,,,,,,,,,/muse/elements/blink
2021-04-11 22:43:05.810,0.30837232,0.41930914,0.5265302,0.46834427,-0.072536156,0.37214983,0.47185382,0.43019617,0.33520302,0.53004944,0.5787888,0.5206635,0.06660194,0.48171315,0.11376987,0.16011113,-0.39834473,0.03507916,-0.018237226,-0.42639273,823.5897,807.8755,808.2784,786.52014,606.0073,-0.2769775390625,0.05511474609375,0.963623046875,4.56085205078125,-4.3963623046875,1.383209228515625,1,1.0,1.0,1.0,1.0,100.00
2021-04-11 22:43:06.331,0.5113663,0.39307746,0.58729076,0.7044118,-0.6142124,0.41226953,0.5157021,-0.05794502,0.1899045,0.49167433,0.48943242,0.2968316,0.019608252,0.47908553,0.19245522,0.20749803,-0.553943,0.012399142,0.084559865,-0.5420747,809.89014,810.696,809.89014,851.39197,1006.52014,-0.27587890625,0.057373046875,0.9617919921875,4.508514404296875,-4.8150634765625,1.084136962890625,1,1.0,1.0,1.0,1.0,100.00
2021-04-11 22:43:06.834,0.5113663,0.37764788,0.54953873,0.7044118,-0.6142124,0.41587716,0.5051977,-0.05794502,0.1899045,0.47595158,0.49076238,0.2968316,0.019608252,0.41230178,0.20131999,0.20749803,-0.553943,-0.00905691,0.099523194,-0.5420747,805.4579,819.9634,804.2491,829.6337,783.69965,-0.27593994140625,0.05841064453125,0.9622802734375,5.15899658203125,-4.50103759765625,1.62994384765625,1,1.0,1.0,1.0,1.0,100.00
2021-04-11 22:43:07.351,0.27477494,0.22428983,0.47883973,0.092325844,0.18001652,0.27131388,0.32109094,0.1993706,0.29181743,0.41817445,0.5195715,0.58357257,0.12996331,0.38630357,0.17071292,0.1968825,-0.6173709,0.11612809,0.017217508,-0.11456398,809.4872,818.3516,795.78754,820.3663,798.60803,-0.27276611328125,0.06280517578125,0.96453857421875,4.927215576171875,-4.314117431640625,1.375732421875,1,1.0,1.0,1.0,1.0,100.00
2021-04-11 22:43:07.418,,,,,,,,,,,,,,,,,,,,,,,,,,,,,,,,,,,,,,/muse/elements/blink
2021-04-11 22:43:07.854,0.27477494,0.49839056,-0.023932988,0.092325844,0.18001652,0.3505013,-0.47248366,0.1993706,0.29181743,0.5313532,0.1928637,0.58357257,0.12996331,0.41101825,0.04676056,0.1968825,-0.6173709,0.22434323,-0.1614904,-0.11456398,809.4872,782.8938,808.68134,802.6374,1079.8535,-0.268798828125,0.06298828125,0.96722412109375,4.613189697265625,-5.211334228515625,0.755157470703125,1,1.0,1.0,1.0,1.0,100.00
2021-04-11 22:43:08.364,0.33855718,0.58403844,0.028134331,0.13915633,0.23964392,0.39709947,-0.38514856,0.119291246,0.25393045,0.5173661,0.18443532,0.5470225,0.067909054,0.48461032,0.16417861,0.17175826,-0.64543444,0.23544343,-0.2129877,-0.11082742,800.2198,827.2161,805.05493,838.0952,858.24176,-0.26580810546875,0.06988525390625,0.96771240234375,5.301055908203125,-5.86181640625,1.65985107421875,1,1.0,1.0,1.0,1.0,100.00
2021-04-11 22:43:08.867,0.28945112,0.6281686,-0.042430922,-0.44824883,0.12233827,0.4217474,-0.3843925,0.091178596,-0.0060396176,0.51434535,0.110562466,0.19922517,0.10747594,0.5446803,0.20255443,0.16105191,-0.3292144,0.19406648,-0.29913324,-0.2918046,806.6667,832.0513,810.696,833.663,777.25275,-0.24603271484375,0.07598876953125,0.96380615234375,4.35150146484375,-5.031890869140625,0.46356201171875,1,1.0,1.0,1.0,1.0,100.00
2021-04-11 22:43:09.375,0.37745607,0.59210515,0.22072391,-0.014203178,0.153659,0.2827402,-0.091126256,0.22681658,0.42048216,0.33803606,0.3102626,0.6331732,0.088776074,0.48903826,0.27540213,0.22530085,-0.26484218,0.119657174,-0.38492152,-0.26440692,812.71063,810.696,810.293,799.41394,787.326,-0.253173828125,0.07269287109375,0.9671630859375,4.344024658203125,-4.486083984375,0.785064697265625,1,1.0,1.0,1.0,1.0,100.00
2021-04-11 22:43:09.879,0.34644952,0.5746439,0.17934375,0.101517044,0.24600795,0.19623715,-0.13231714,0.2444847,0.42789587,0.08261783,0.32421562,0.644395,0.12763992,0.4730735,0.1867524,0.23345669,-0.296367,0.096306354,-0.3794999,-0.26036024,832.4542,822.7839,808.68134,857.03296,792.1612,-0.25347900390625,0.06927490234375,0.967041015625,4.493560791015625,-3.90289306640625,-0.157012939453125,1,1.0,1.0,1.0,1.0,100.00
2021-04-11 22:43:09.919,,,,,,,,,,,,,,,,,,,,,,,,,,,,,,,,,,,,,,/muse/elements/blink
2021-04-11 22:43:10.383,0.3723687,0.5389882,0.18732193,0.23473805,0.29673663,0.2006962,-0.07768247,0.30469567,0.4207808,0.1528744,0.3292717,0.644395,0.13738137,0.42101383,0.21941337,0.26558405,-0.2808303,-0.00847866,-0.16035841,-0.24545257,811.9048,811.50183,815.12823,838.0952,791.3553,-0.2596435546875,0.06988525390625,0.96490478515625,4.613189697265625,-4.42626953125,1.1962890625,1,1.0,1.0,1.0,1.0,100.00
2021-04-11 22:43:10.890,0.2719622,0.27938798,-0.1855352,0.34602436,0.44800228,0.041801304,-0.24620214,0.33015895,0.2934328,0.14568923,0.08555584,0.437436,0.18965448,0.45537037,0.24762143,0.24195154,-0.36641204,0.0053888927,-0.015365935,-0.23679598,662.4176,793.7729,813.5165,647.9121,633.00366,-0.25567626953125,0.072021484375,0.9674072265625,4.8748779296875,-4.658050537109375,1.158905029296875,1,1.0,1.0,1.0,1.0,100.00
2021-04-11 22:43:11.063,,,,,,,,,,,,,,,,,,,,,,,,,,,,,,,,,,,,,,/muse/elements/blink
2021-04-11 22:43:11.399,0.2719622,0.3865397,0.16048297,0.34602436,0.44800228,0.3579966,0.14365254,0.33015895,0.2934328,0.4825147,0.26030365,0.437436,0.18965448,0.4356126,0.29380038,0.24195154,-0.36641204,0.081548564,0.032130957,-0.23679598,814.3223,819.5604,794.9817,826.0073,874.7619,-0.251220703125,0.07415771484375,0.966064453125,4.418792724609375,-4.366455078125,1.158905029296875,1,1.0,1.0,1.0,1.0,100.00
2021-04-11 22:43:11.931,0.2719622,0.42377588,0.48858687,0.34602436,0.44800228,0.45284933,0.37714994,0.33015895,0.2934328,0.49697816,0.2720043,0.437436,0.18965448,0.41479024,0.27665445,0.24195154,-0.36641204,0.19934337,-0.013300714,-0.23679598,785.7143,786.52014,794.57874,804.65204,1045.6044,-0.2484130859375,0.0777587890625,0.97039794921875,4.47113037109375,-5.465545654296875,0.859832763671875,1,1.0,1.0,1.0,1.0,100.00
2021-04-11 22:43:12.450,0.2719622,0.44895416,0.70465374,0.34602436,0.44800228,0.43669105,0.4450181,0.33015895,0.2934328,0.49697816,0.24447246,0.437436,0.18965448,0.35483217,0.22942841,0.24195154,-0.36641204,0.21860024,-0.04439419,-0.23679598,814.3223,845.7509,795.78754,775.2381,700.696,-0.24676513671875,0.0755615234375,0.96844482421875,4.74029541015625,-3.828125,0.70281982421875,1,2.0,1.0,1.0,2.0,100.00
2021-04-11 22:43:12.953,0.75703555,0.35002154,0.7649129,0.81164306,0.35227612,0.2983898,0.421755,0.52715296,0.4723671,0.44782287,0.55879766,0.9545932,-0.021806117,0.34451997,0.20017627,0.31638148,-0.44206312,0.21921799,-0.10905406,-0.35587123,819.15753,824.7985,814.3223,822.7839,671.685,-0.24627685546875,0.0777587890625,0.96942138671875,4.38140869140625,-4.164581298828125,0.76263427734375,1,1.0,1.0,1.0,1.0,100.00
2021-04-11 22:43:13.464,0.63609064,0.39799914,0.73620284,0.7797792,0.22721633,-0.05967278,0.3329905,0.5827236,0.4882521,0.039099034,0.5611581,0.95645165,-0.029976776,0.3903704,0.13945939,0.32541254,-0.41901088,0.10545788,-0.067139745,-0.34908593,804.65204,815.9341,807.0696,781.28204,579.41394,-0.2425537109375,0.07330322265625,0.96954345703125,3.887939453125,-4.74029541015625,0.112152099609375,1,1.0,1.0,1.0,1.0,100.00
2021-04-11 22:43:13.986,0.60829073,0.34044826,0.5502027,0.6449721,0.13281913,-0.09648661,0.21617429,0.5571628,0.44506404,0.008607446,0.5709878,0.95645165,-0.005244547,0.40005943,0.12987228,0.3343787,-0.37546653,0.046634376,-0.11599884,-0.330118,799.011,816.7399,807.8755,838.9011,845.7509,-0.24859619140625,0.07135009765625,0.9659423828125,4.47113037109375,-4.538421630859375,0.844879150390625,1,1.0,1.0,1.0,1.0,100.00
2021-04-11 22:43:14.508,0.4195562,0.39172906,0.28186697,0.45549092,0.045966044,0.04468136,0.09608542,0.41703007,0.34823367,0.11715137,0.51759255,0.8789498,0.05434627,0.432775,0.108531825,0.2800725,-0.4335433,0.029701313,-0.076817445,-0.39295307,801.8315,801.4286,797.8022,822.7839,942.4542,-0.23736572265625,0.0726318359375,0.97113037109375,4.463653564453125,-3.768310546875,0.620574951171875,1,1.0,1.0,1.0,1.0,100.00
2021-04-11 22:43:15.033,0.59203947,0.4890793,0.49393395,0.588763,0.24231821,0.03552218,-0.03983635,0.19111572,0.44430873,0.212192,0.36194068,0.50314844,0.13700908,0.4030406,0.17340912,0.2613516,-0.48996004,0.081851564,-0.1866685,-0.43930283,801.4286,807.47253,799.011,833.2601,852.6007,-0.23834228515625,0.07513427734375,0.9697265625,4.5758056640625,-5.96649169921875,0.94207763671875,1,1.0,1.0,1.0,1.0,100.00
2021-04-11 22:43:15.558,0.6629269,0.5394896,0.69689506,0.7682988,0.16262251,0.0044231797,0.11440623,0.1386077,0.462068,0.3393778,0.3028161,0.35267165,0.21821134,0.44204584,0.20736796,0.1983056,-0.47796968,0.1558403,-0.18477663,-0.3190855,796.1905,809.0842,783.69965,779.67035,618.9011,-0.2325439453125,0.0787353515625,0.97320556640625,4.583282470703125,-4.553375244140625,0.64300537109375,1,1.0,1.0,1.0,1.0,100.00
2021-04-11 22:43:16.061,,,,,,,,,,,,,,,,,,,,,,,,,,,,,,,,,,,,,,/muse/elements/blink
2021-04-11 22:43:16.071,0.74595565,0.55165845,0.8496976,0.8589067,0.21593651,0.26082203,0.20547292,0.018041832,0.5417968,0.46076035,0.487289,0.46785486,0.26923653,0.43596074,0.31165883,0.23277546,-0.43775386,0.104780346,-0.21361677,-0.27653804,857.8388,799.011,809.4872,821.5751,672.49084,-0.2259521484375,0.080078125,0.977783203125,5.4730224609375,-4.9346923828125,1.039276123046875,1,1.0,1.0,1.0,1.0,100.00
2021-04-11 22:43:16.578,0.72475904,0.7899431,0.88474846,0.80858684,0.0150455255,0.93236405,0.62407184,-0.07362074,0.4280316,0.92946064,0.5277922,0.34325984,0.33504522,0.43227568,0.31764635,0.1884137,-0.39159504,0.091359735,-0.16935812,-0.1792745,806.26373,811.9048,809.89014,796.5934,776.04395,-0.225830078125,0.08209228515625,0.97247314453125,4.38140869140625,-3.985137939453125,-0.336456298828125,1,1.0,1.0,1.0,1.0,100.00
2021-04-11 22:43:17.097,0.599078,0.7205991,0.8069324,0.5335374,0.13521616,0.88966495,0.5977215,-0.18340707,0.42402965,0.9290746,0.4776183,0.32478645,0.4012559,0.43278483,0.29108834,0.2191021,-0.40626577,0.07337493,-0.21177414,-0.22937797,810.293,816.7399,817.5458,847.76556,898.1319,-0.23858642578125,0.08148193359375,0.97784423828125,4.2767333984375,-4.822540283203125,0.61309814453125,1,1.0,1.0,1.0,1.0,100.00
2021-04-11 22:43:17.614,0.046054456,0.6820587,0.7283047,0.2965501,0.17374873,0.86828,0.54011786,0.43530798,0.38740698,0.9258547,0.4652689,0.275674,0.09606283,0.4042287,0.18838812,0.17147548,-0.474646,0.04298409,-0.18920349,-0.3401781,816.7399,802.23444,809.0842,844.94507,982.3443,-0.22943115234375,0.07952880859375,0.97222900390625,4.687957763671875,-4.53094482421875,1.2860107421875,1,1.0,1.0,1.0,1.0,100.00
2021-04-11 22:43:18.122,-0.0549605,0.0532812,0.46635622,0.202522,0.04425836,0.17116249,-0.14955272,0.31247467,0.44946656,0.14816943,0.08666732,0.35711694,0.054378323,0.47933295,0.068824425,0.13807599,-0.47277847,-0.018020945,-0.31898066,-0.3516926,763.1502,813.5165,814.3223,746.63007,614.87177,-0.2349853515625,0.07830810546875,0.96649169921875,4.673004150390625,-3.910369873046875,1.00189208984375,1,1.0,1.0,1.0,1.0,100.00
2021-04-11 22:43:18.283,,,,,,,,,,,,,,,,,,,,,,,,,,,,,,,,,,,,,,/muse/elements/blink
2021-04-11 22:43:18.636,-0.0549605,0.20292383,0.5908997,0.202522,0.04425836,0.261797,0.15608133,0.31247467,0.44946656,0.23563401,0.30724183,0.35711694,0.054378323,0.4791288,0.11127308,0.13807599,-0.47277847,0.08341886,-0.17804907,-0.3516926,822.7839,795.78754,811.0989,794.57874,807.8755,-0.23907470703125,0.0909423828125,0.9658203125,5.54779052734375,-5.480499267578125,3.671112060546875,1,1.0,1.0,1.0,1.0,100.00
2021-04-11 22:43:19.162,-0.22716407,0.2572749,0.5926709,0.04627422,-0.20309873,0.2990831,0.31164765,0.084351346,0.40012214,0.29367453,0.26523635,0.32777444,-0.0040726056,0.48918173,0.14140531,0.09235491,-0.4704553,0.25165477,0.004497141,-0.36652872,803.8461,816.337,806.26373,820.7692,905.38464,-0.220947265625,0.09747314453125,0.97064208984375,4.568328857421875,-5.405731201171875,1.71966552734375,1,1.0,1.0,1.0,1.0,100.00
2021-04-11 22:43:19.690,-0.22716407,0.2719252,0.5193738,0.04627422,-0.20309873,0.28792143,0.32803452,0.084351346,0.40012214,0.31982207,0.3090418,0.32777444,-0.0040726056,0.45897552,0.2305557,0.09235491,-0.4704553,0.34267926,0.045839645,-0.36652872,814.3223,841.31866,809.89014,851.39197,824.3956,-0.21856689453125,0.09820556640625,0.9766845703125,4.344024658203125,-4.508514404296875,0.3887939453125,1,1.0,1.0,1.0,1.0,100.00
2021-04-11 22:43:20.213,0.0928933,0.07221297,0.3176936,-0.013667433,-0.01706723,0.06821177,0.12226461,0.15318793,0.3678239,0.2764555,0.30021405,0.2217063,0.2545293,0.4833851,0.20425262,0.3176032,-0.22055538,0.32811654,-0.019417893,-0.121144466,812.3077,816.7399,807.8755,808.68134,624.94507,-0.223876953125,0.09381103515625,0.9727783203125,4.38140869140625,-4.523468017578125,0.456085205078125,1,1.0,1.0,1.0,1.0,100.00
2021-04-11 22:43:20.727,0.020509226,0.5973798,0.5093611,0.23397155,0.019421428,0.36920565,0.11740431,0.35494244,0.49657843,0.48251718,0.2173995,0.3379496,0.26840106,0.560358,0.23325697,0.31862974,-0.22735643,0.22836179,-0.19341588,-0.13507596,790.9524,832.4542,804.65204,817.1429,832.8571,-0.23907470703125,0.10333251953125,0.97259521484375,4.1571044921875,-5.24871826171875,0.6280517578125,1,1.0,1.0,1.0,1.0,100.00
2021-04-11 22:43:21.240,-0.04066188,0.66887033,0.5272046,0.23269,0.08300405,0.37792733,0.08684626,0.3261189,0.607849,0.47492775,0.21637583,0.47523928,0.29215053,0.5492716,0.24089102,0.28718737,-0.26710132,0.079790965,-0.15732862,-0.124017656,802.6374,797.8022,809.4872,786.1172,649.5238,-0.21087646484375,0.09832763671875,0.97418212890625,4.4561767578125,-4.26177978515625,0.366363525390625,1,1.0,1.0,1.0,1.0,100.00
2021-04-11 22:43:21.747,0.13780357,0.6503415,0.4687609,0.283127,0.12069205,0.34184486,0.04264433,0.28169957,0.6067206,0.47492775,0.26770484,0.5072225,0.19928664,0.43240252,0.20985094,0.21517363,-0.43575692,0.1093317,-0.11636959,-0.21220367,810.696,795.78754,799.41394,770.0,672.49084,-0.22064208984375,0.09747314453125,0.97314453125,4.007568359375,-3.8580322265625,-0.441131591796875,1,1.0,1.0,1.0,1.0,100.00
2021-04-11 22:43:22.256,0.12807646,0.16978662,0.046358038,0.1305705,0.072855756,-0.13731246,-0.22064322,0.020563137,0.5923568,0.05376734,0.21010305,0.5225327,0.07889133,0.33692312,0.16156645,0.13970917,-0.50247616,0.090715565,-0.09304088,-0.25502098,807.47253,813.5165,809.0842,834.4689,691.4286,-0.22174072265625,0.0926513671875,0.979248046875,4.3963623046875,-4.14215087890625,0.934600830078125,1,1.0,1.0,1.0,1.0,100.00
2021-04-11 22:43:22.766,0.12008448,0.030233407,-0.073973045,0.12579931,0.14294274,-0.023947291,-0.18149433,-0.057596628,0.73630226,0.3194465,0.21800543,0.54132533,-0.031372085,0.29058886,0.09157453,0.0857411,-0.40339795,0.0967684,-0.10049044,-0.21276826,799.41394,799.81683,807.47253,795.38464,760.32965,-0.22039794921875,0.09210205078125,0.97271728515625,4.41131591796875,-4.20196533203125,1.218719482421875,1,1.0,1.0,1.0,1.0,100.00
2021-04-11 22:43:23.268,-0.17107385,-0.10895196,-0.07668616,0.039614465,0.08218232,-0.07731752,-0.2073079,0.0048485445,0.7297028,0.32267517,0.1606704,0.4679579,-0.10009598,0.32907787,0.051066563,0.0035542492,-0.3856189,0.04052201,-0.10251038,-0.17571364,786.1172,818.3516,811.0989,758.315,682.5641,-0.227783203125,0.09332275390625,0.97222900390625,5.226287841796875,-4.50103759765625,1.413116455078125,1,1.0,1.0,1.0,1.0,100.00
2021-04-11 22:43:23.528,,,,,,,,,,,,,,,,,,,,,,,,,,,,,,,,,,,,,,/muse/elements/blink
2021-04-11 22:43:23.784,-0.20696925,-0.024025593,0.4026119,0.011553602,0.15709841,0.07508434,0.07810241,0.011317498,0.7297028,0.32267517,0.31211084,0.44042283,-0.07630517,0.3159336,0.13714983,-0.06501903,-0.37081182,0.009398928,-0.07867881,-0.13201794,813.1135,807.47253,805.4579,815.12823,784.5055,-0.2259521484375,0.0970458984375,0.9720458984375,4.71038818359375,-4.807586669921875,1.24114990234375,1,1.0,1.0,1.0,1.0,100.00
2021-04-11 22:43:24.305,-0.29223678,0.36812714,0.7300637,0.06832918,-0.1555348,0.11803316,0.40388227,0.20747085,0.34444854,0.18699989,0.31164083,0.3138337,-0.10266789,0.24599257,0.21978603,-0.10932541,-0.5111368,-0.07231038,0.005681876,-0.20483567,813.1135,819.15753,811.9048,850.58606,898.1319,-0.22564697265625,0.0906982421875,0.9735107421875,4.373931884765625,-5.271148681640625,0.620574951171875,1,1.0,1.0,1.0,1.0,100.00
2021-04-11 22:43:24.817,-0.38541946,0.4748704,0.72113603,0.10191127,-0.31507257,0.09887408,0.40293,0.24721363,0.1805966,0.18708546,0.2926275,0.30140865,-0.1120937,0.22669601,0.28214303,-0.13443856,-0.49447596,-0.04845086,0.09454384,-0.1799695,804.2491,813.91943,803.0403,808.68134,665.64105,-0.22369384765625,0.09820556640625,0.9747314453125,4.583282470703125,-4.852447509765625,0.5682373046875,1,1.0,1.0,1.0,1.0,100.00
2021-04-11 22:43:25.334,-0.103196874,0.4986505,0.559805,-0.07961609,-0.082478836,0.15164782,0.24518904,-0.023475673,0.4148335,0.28536218,0.2920308,0.49000508,0.33715183,0.34903815,0.27544793,0.2747571,-0.24674359,-0.019394377,0.13394192,-0.13116987,797.8022,816.337,807.8755,810.293,804.65204,-0.22442626953125,0.09796142578125,0.97509765625,4.42626953125,-4.209442138671875,1.398162841796875,1,1.0,1.0,1.0,1.0,100.00
2021-04-11 22:43:25.859,-0.21143515,0.2837006,-0.029653715,0.17751084,-0.062150758,0.04884098,-0.43802398,0.16654928,0.47601572,0.24251214,0.1019812,0.61246455,0.23560698,0.46519536,0.23102908,0.2400453,-0.35182944,0.00947253,0.037784237,-0.22878037,810.696,781.685,800.2198,795.38464,898.93774,-0.22222900390625,0.09576416015625,0.9725341796875,4.56085205078125,-4.605712890625,1.054229736328125,1,1.0,1.0,1.0,1.0,100.00
2021-04-11 22:43:26.387,-0.22056614,0.1892415,-0.044009153,0.37101474,-0.15096144,0.040487874,-0.52117753,0.17278634,0.4594563,0.24352157,0.03809823,0.6130452,0.1848324,0.46439034,0.16355577,0.189929,-0.44319445,-0.029121434,-0.09979696,-0.264275,806.26373,827.2161,806.26373,832.4542,882.4176,-0.2236328125,0.0931396484375,0.96844482421875,4.613189697265625,-4.14215087890625,0.171966552734375,1,1.0,1.0,1.0,1.0,100.00
2021-04-11 22:43:26.915,-0.079379,0.19951245,-0.11009892,0.4032324,0.13561688,-0.26245224,-0.37093288,0.30359587,0.45022786,0.1628696,0.120398775,0.7090908,0.11105432,0.36010072,0.12451385,0.193243,-0.40808728,-0.101112895,-0.24348289,-0.30813268,808.2784,805.8608,811.50183,844.1392,792.96704,-0.2308349609375,0.09619140625,0.97808837890625,4.583282470703125,-4.5458984375,1.517791748046875,1,1.0,1.0,1.0,1.0,100.00
2021-04-11 22:43:27.427,-0.097123526,0.27180716,0.08554191,0.23582429,0.23791237,-0.24641216,-0.09643806,0.4414788,0.33662695,0.3811532,0.3009892,0.59446627,0.12128651,0.30658394,0.08825172,0.1598003,-0.3063383,-0.060393937,-0.2520664,-0.24130668,794.57874,813.1135,802.6374,840.5128,868.71796,-0.22412109375,0.097412109375,0.9718017578125,5.4730224609375,-5.061798095703125,1.86920166015625,1,1.0,1.0,1.0,1.0,100.00
2021-04-11 22:43:27.943,0.08975612,0.64755815,0.41359535,0.22585535,0.29980233,0.1721116,0.322838,0.58594686,0.34704617,0.64122885,0.42966098,0.67284817,0.12965672,0.3296518,0.14876013,0.18202269,-0.23508364,-0.042819455,-0.2556997,-0.23232447,805.8608,821.5751,807.47253,763.95605,653.95605,-0.23236083984375,0.19873046875,0.96124267578125,10.99090576171875,-3.63372802734375,4.0374755859375,1,1.0,1.0,1.0,1.0,100.00
2021-04-11 22:43:28.458,0.2266498,0.70058763,0.434757,0.21576124,0.10667623,0.22827253,0.3243676,0.46985283,0.42446327,0.6353447,0.4067503,0.6182474,0.17250985,0.41079992,0.12031441,0.15194453,-0.26922107,-0.0038501339,-0.20219241,-0.2809384,803.0403,804.65204,801.02563,801.02563,827.2161,-0.21044921875,0.17950439453125,0.96051025390625,5.256195068359375,-3.162689208984375,1.428070068359375,1,1.0,1.0,1.0,1.0,100.00
2021-04-11 22:43:28.960,0.35626113,0.72565496,0.36931014,0.34290236,0.11001637,0.21318054,0.29115397,0.4017305,0.3868733,0.6353447,0.39521572,0.6182474,0.22084054,0.40233913,0.10216949,0.19014426,-0.29857376,-0.027666653,-0.10099175,-0.28185874,838.9011,819.9634,801.02563,810.293,636.63007,-0.223388671875,0.18988037109375,0.95806884765625,3.775787353515625,-4.78515625,0.91217041015625,1,1.0,1.0,1.0,1.0,100.00
2021-04-11 22:43:29.046,,,,,,,,,,,,,,,,,,,,,,,,,,,,,,,,,,,,,,/muse/elements/blink
2021-04-11 22:43:29.472,0.26644334,0.42710254,0.46117124,0.2234151,0.031974956,-0.3505534,0.44312915,0.14166623,0.37693354,0.20748296,0.44299802,0.38989398,0.186495,0.37588823,0.015425559,0.13467747,-0.37891275,0.049581293,-0.057200868,-0.32034555,802.23444,804.65204,800.2198,816.7399,683.36993,-0.22119140625,0.18994140625,0.9609375,4.015045166015625,-4.987030029296875,0.0897216796875,1,1.0,1.0,1.0,1.0,100.00
2021-04-11 22:43:29.987,0.28463602,0.4600883,0.5359339,0.37213784,0.15916578,-0.26164517,0.510814,0.34287933,0.27134684,0.27529475,0.44262335,0.34852433,0.1861656,0.4118258,-0.07948231,0.215834,-0.39041317,0.05099848,-0.06865438,-0.19841078,774.0293,972.674,749.0476,724.0659,668.0586,-0.2152099609375,0.18243408203125,0.9617919921875,4.2169189453125,-4.329071044921875,0.07476806640625,1,1.0,1.0,1.0,1.0,100.00
2021-04-11 22:43:30.515,0.28463602,0.4443079,0.7541611,0.37213784,0.15916578,-0.39733317,0.59944963,0.34287933,0.27134684,0.27192497,0.54219055,0.34852433,0.1861656,0.417892,-0.0908612,0.215834,-0.39041317,0.06527606,-0.049938332,-0.19841078,660.0,801.8315,813.1135,626.9597,649.92676,-0.2135009765625,0.17742919921875,0.96319580078125,4.104766845703125,-4.964599609375,0.471038818359375,1,1.0,1.0,1.0,1.0,100.00
2021-04-11 22:43:30.684,,,,,,,,,,,,,,,,,,,,,,,,,,,,,,,,,,,,,,/muse/elements/blink
2021-04-11 22:43:31.019,0.28463602,0.39349747,0.6935996,0.37213784,0.15916578,-0.1268509,0.29049388,0.34287933,0.27134684,0.1328781,0.49578407,0.34852433,0.1861656,0.5212711,-0.17816265,0.215834,-0.39041317,-0.048489653,-0.036685914,-0.19841078,765.56775,762.74725,763.5531,795.38464,838.0952,-0.2012939453125,0.16607666015625,0.96990966796875,3.768310546875,-6.258087158203125,0.52337646484375,1,1.0,1.0,1.0,1.0,100.00
2021-04-11 22:43:31.531,0.28463602,0.39349747,0.8180522,0.37213784,0.15916578,-0.1268509,0.16084169,0.34287933,0.27134684,0.1328781,0.36560565,0.34852433,0.1861656,0.5212711,-0.11017335,0.215834,-0.39041317,-0.048489653,0.037450925,-0.19841078,794.57874,812.3077,810.696,836.08057,843.73627,-0.19268798828125,0.16162109375,0.96942138671875,3.93280029296875,-4.62066650390625,0.545806884765625,1,2.0,1.0,1.0,2.0,100.00
2021-04-11 22:43:32.040,0.28463602,0.39349747,0.8180522,0.37213784,0.15916578,-0.1268509,0.16084169,0.34287933,0.27134684,0.1328781,0.36560565,0.34852433,0.1861656,0.5212711,-0.11017335,0.215834,-0.39041317,-0.048489653,0.037450925,-0.19841078,804.65204,815.9341,805.4579,805.4579,643.8828,-0.1942138671875,0.15087890625,0.96917724609375,4.3963623046875,-3.93280029296875,-0.3289794921875,1,2.0,1.0,1.0,2.0,100.00
2021-04-11 22:43:32.549,1.0755711,0.39349747,0.8180522,0.8977668,0.54057556,-0.1268509,0.16084169,0.3458428,0.6124352,0.1328781,0.36560565,0.027095603,0.12769729,0.5212711,-0.11017335,0.44033512,-0.39171815,-0.048489653,0.037450925,-0.153665,727.28937,784.90845,832.0513,700.293,756.7033,-0.19769287109375,0.151611328125,0.96746826171875,4.08233642578125,-5.24871826171875,0.7177734375,1,1.0,1.0,1.0,1.0,100.00
2021-04-11 22:43:32.685,,,,,,,,,,,,,,,,,,,,,,,,,,,,,,,,,,,,,,/muse/elements/blink
2021-04-11 22:43:33.064,1.0755711,0.56055,0.79036546,0.8977668,0.54057556,0.23030196,0.1693759,0.3458428,0.6124352,0.4335608,0.3651767,0.027095603,0.12769729,0.49809337,0.12547556,0.44033512,-0.39171815,0.1595529,-0.3099395,-0.153665,807.8755,788.93774,806.6667,795.38464,805.05493,-0.19744873046875,0.14532470703125,0.969482421875,4.29168701171875,-4.628143310546875,0.770111083984375,1,1.0,1.0,1.0,1.0,100.00
2021-04-11 22:43:33.582,1.0755711,0.46586934,0.8094818,0.8977668,0.54057556,0.24099351,0.37145713,0.3458428,0.6124352,0.51413167,0.83560264,0.027095603,0.12769729,0.48767152,0.20870398,0.44033512,-0.39171815,0.07414962,-0.0029532714,-0.153665,794.9817,800.2198,793.36993,831.2454,804.2491,-0.197021484375,0.1409912109375,0.97637939453125,4.299163818359375,-4.66552734375,0.485992431640625,1,1.0,1.0,1.0,1.0,100.00
2021-04-11 22:43:34.083,1.1002742,0.6012115,1.0253891,0.8977668,0.53826934,0.28619328,0.8271208,0.3458428,0.5257893,0.53463995,1.0278677,0.027095603,0.13916816,0.47844663,0.2830223,0.44033512,-0.42521152,0.03888536,0.13459921,-0.153665,668.86444,781.28204,820.3663,678.93774,739.3773,-0.19805908203125,0.1380615234375,0.974365234375,4.7552490234375,-4.523468017578125,1.009368896484375,1,1.0,1.0,1.0,1.0,100.00
2021-04-11 22:43:34.313,,,,,,,,,,,,,,,,,,,,,,,,,,,,,,,,,,,,,,/muse/elements/blink
2021-04-11 22:43:34.597,1.1002742,0.63236207,0.96811,0.8977668,0.53826934,0.2877475,0.8505424,0.3458428,0.5257893,0.5147417,1.0278677,0.027095603,0.13916816,0.4859024,0.27483863,0.44033512,-0.42521152,-0.029697383,0.22563191,-0.153665,792.96704,780.07324,773.6264,784.5055,846.1539,-0.1968994140625,0.1424560546875,0.969970703125,4.762725830078125,-4.44122314453125,0.70281982421875,1,1.0,1.0,1.0,1.0,100.00
2021-04-11 22:43:35.104,1.1002742,0.91601735,1.1040798,0.8977668,0.53826934,0.5477391,0.8624266,0.3458428,0.5257893,0.7049379,1.0139117,0.027095603,0.13916816,0.48595133,0.21752608,0.44033512,-0.42521152,0.18617514,0.22990277,-0.153665,817.1429,821.978,806.26373,789.34064,644.68866,-0.19873046875,0.14617919921875,0.9754638671875,4.78515625,-4.957122802734375,1.742095947265625,1,1.0,1.0,1.0,1.0,100.00
2021-04-11 22:43:35.610,1.1002742,0.95992297,1.0253295,0.8977668,0.53826934,0.6635785,0.5283509,0.3458428,0.5257893,0.62647855,0.5357215,0.027095603,0.13916816,0.46774295,0.15230173,0.44033512,-0.42521152,0.23086716,0.17298365,-0.153665,819.15753,812.3077,798.60803,830.84247,793.7729,-0.19720458984375,0.14715576171875,0.97003173828125,4.717864990234375,-4.5758056640625,1.233673095703125,1,2.0,1.0,1.0,2.0,100.00
2021-04-11 22:43:36.120,1.1890085,0.9522182,1.0323526,0.9423724,0.27540398,0.6301052,0.40361652,0.119039565,0.7239073,0.627559,0.5268387,0.41951397,0.14066848,0.45914206,0.24513689,0.26491925,-0.33462536,0.2113962,0.07697246,-0.32488757,820.7692,821.978,819.9634,799.41394,601.978,-0.19744873046875,0.14569091796875,0.97650146484375,5.076751708984375,-4.1571044921875,2.34771728515625,1,1.0,1.0,1.0,1.0,100.00
2021-04-11 22:43:36.638,1.0686611,1.029672,0.85311913,0.77579194,0.5403416,0.41707584,0.1104278,0.30529606,0.8023568,0.69249874,0.012799184,0.64044785,0.13938323,0.371162,0.30187833,0.24500525,-0.25852156,-0.0019065873,-0.018643001,-0.26704365,821.978,805.05493,812.71063,799.011,690.6227,-0.19549560546875,0.14727783203125,0.97235107421875,4.605712890625,-4.329071044921875,1.308441162109375,1,1.0,1.0,1.0,1.0,100.00
2021-04-11 22:43:37.160,0.93794,1.0051894,0.66481364,0.5350492,0.5484111,0.20635666,0.077433616,0.32891497,0.84864,0.5572955,0.04289861,0.6504325,0.1365693,0.37403867,0.27844998,0.24080238,-0.27215606,0.056730706,-0.025914453,-0.22393064,846.9597,806.26373,803.8461,840.5128,861.06226,-0.18377685546875,0.1484375,0.97369384765625,4.41131591796875,-4.8748779296875,0.725250244140625,1,1.0,1.0,1.0,1.0,100.00
2021-04-11 22:43:37.266,,,,,,,,,,,,,,,,,,,,,,,,,,,,,,,,,,,,,,/muse/elements/blink
2021-04-11 22:43:37.689,0.7082611,0.93907005,0.66656196,0.23301473,0.64236057,0.3211744,0.33472365,0.4230231,0.8457937,0.62692064,0.25677457,0.6283506,0.17748553,0.41335517,0.22074609,0.20491979,-0.23606,0.07383014,3.3298787E-4,-0.18313462,820.7692,823.5897,817.1429,854.21246,817.9487,-0.19390869140625,0.14910888671875,0.9725341796875,5.121612548828125,-4.0374755859375,1.398162841796875,1,1.0,1.0,1.0,1.0,100.00
2021-04-11 22:43:38.220,0.5311367,0.83457285,0.6757716,0.10398641,0.4415849,0.40066272,0.42494035,0.34283054,0.6778353,0.6064394,0.36877906,0.43049115,0.22270876,0.48829168,0.20157929,0.19132619,-0.33520764,0.10831719,-0.046569683,-0.1662166,806.26373,798.60803,813.91943,811.50183,798.20514,-0.1842041015625,0.150146484375,0.9681396484375,4.418792724609375,-4.852447509765625,0.949554443359375,1,1.0,1.0,1.0,1.0,100.00
2021-04-11 22:43:38.725,0.15325478,0.7059416,0.7379902,0.6825022,0.6895364,0.4049367,0.4206265,0.6163026,0.4465936,0.46938342,0.6063806,0.3335592,0.2889293,0.48674503,0.19110166,0.37817678,-0.08039667,0.10157846,-0.024270235,0.033670645,809.0842,811.0989,819.15753,839.707,754.68866,-0.18902587890625,0.1484375,0.9705810546875,4.41131591796875,-4.643096923828125,1.79443359375,1,1.0,1.0,1.0,1.0,100.00
2021-04-11 22:43:39.232,0.34220415,0.697677,0.72570866,0.71981895,0.6244721,0.3663336,0.19939354,0.42474923,0.45640665,0.43233183,0.58706075,0.3465862,0.28811926,0.47398615,0.15253635,0.30115876,-0.115317434,0.122895055,-0.09107673,-0.012409968,821.1722,812.71063,818.3516,799.81683,740.58606,-0.18359375,0.14862060546875,0.97491455078125,4.53094482421875,-4.598236083984375,0.441131591796875,1,1.0,1.0,1.0,1.0,100.00
2021-04-11 22:43:39.763,0.23636892,0.59903485,0.64962137,0.57568055,0.52861637,0.31723538,0.11399462,0.2995266,0.6531171,0.47493812,0.5528347,0.59799933,0.33204308,0.46715838,0.06784914,0.35229373,-0.13996677,0.12024804,-0.16160148,-0.048778452,819.9634,805.4579,815.9341,782.8938,848.1685,-0.18359375,0.1497802734375,0.97271728515625,4.5758056640625,-4.3365478515625,0.710296630859375,1,1.0,1.0,1.0,1.0,100.00
2021-04-11 22:43:40.269,0.17940189,0.7077595,0.7423493,0.41795748,0.33776605,0.3468062,0.22723097,0.09442588,0.7650127,0.47493812,0.50552094,0.5850273,0.3190191,0.38396937,0.100933865,0.35553753,-0.13172916,0.09703487,-0.17152523,-0.09312556,798.20514,817.1429,815.5311,826.4103,848.5714,-0.1842041015625,0.14404296875,0.97509765625,4.882354736328125,-4.508514404296875,1.30096435546875,1,1.0,1.0,1.0,1.0,100.00
2021-04-11 22:43:40.781,0.11560982,0.5965088,0.5585272,-0.08687461,0.1560751,0.18318199,0.1985824,-7.1065506E-4,0.7633866,0.31100604,0.42825145,0.5902095,0.28964663,0.3166534,0.12741803,0.34743,-0.1392516,0.020857649,-0.22437704,-0.1594237,805.4579,810.293,811.9048,850.18317,888.46155,-0.18402099609375,0.14459228515625,0.974853515625,4.702911376953125,-4.418792724609375,1.136474609375,1,1.0,1.0,1.0,1.0,100.00
2021-04-11 22:43:41.216,,,,,,,,,,,,,,,,,,,,,,,,,,,,,,,,,,,,,,/muse/elements/blink
2021-04-11 22:43:41.309,0.28407305,0.57767195,0.46947518,-0.12641789,0.057962477,0.10884015,0.21774289,0.01583056,0.66605407,0.09801733,0.33739814,0.46171036,0.19768739,0.3438374,0.23968431,0.2760558,-0.14053458,-0.08408645,-0.23349695,-0.18736792,848.5714,812.71063,793.36993,808.68134,731.31866,-0.21392822265625,0.1485595703125,0.98114013671875,0.70281982421875,-3.446807861328125,-2.0635986328125,1,1.0,1.0,1.0,1.0,100.00
2021-04-11 22:43:41.833,0.47473004,0.7546629,0.900809,-0.29423988,0.12360711,0.19752616,0.3719101,-0.17653382,0.22634606,0.089666925,0.04077773,0.2983505,0.12114978,0.4372361,0.29119396,0.1821308,-0.2224139,-0.1750189,-0.26203755,-0.24896416,833.663,815.12823,812.3077,791.3553,626.1539,-0.21563720703125,0.00311279296875,0.97637939453125,-3.820648193359375,-1.854248046875,-16.55364990234375,1,1.0,1.0,1.0,1.0,100.00
2021-04-11 22:43:42.334,0.58132184,0.96103984,0.93229574,-0.14063439,0.08333977,0.2933328,0.31888488,-0.22457755,0.22597529,0.40593147,0.09475843,0.23115185,0.0732109,0.47843558,0.345045,0.17177358,-0.2560968,-0.2154458,-0.22008654,-0.22312604,808.2784,781.685,813.5165,796.1905,897.72894,-0.26312255859375,-0.09600830078125,0.9666748046875,5.061798095703125,-4.433746337890625,0.755157470703125,1,1.0,1.0,1.0,1.0,100.00
2021-04-11 22:43:42.844,0.6444674,0.90663314,0.89259535,0.48062325,0.22054149,0.29668984,0.26251134,0.37808996,0.7484753,0.49985343,0.22638778,0.70886916,0.38423514,0.45247075,0.25971028,0.3829722,-0.25386718,0.09031038,-0.14092596,-0.3036343,763.95605,811.0989,826.4103,798.60803,923.91943,-0.2252197265625,-0.07952880859375,0.9781494140625,6.47491455078125,-11.118011474609375,6.34033203125,1,1.0,1.0,1.0,1.0,100.00
2021-04-11 22:43:43.030,,,,,,,,,,,,,,,,,,,,,,,,,,,,,,,,,,,,,,/muse/elements/blink
2021-04-11 22:43:43.348,0.6444674,0.65578693,0.38418245,0.48062325,0.22054149,0.25588122,-0.025865061,0.37808996,0.7484753,0.4929209,0.20546496,0.70886916,0.38423514,0.50492156,0.24155451,0.3829722,-0.25386718,0.15110418,-0.16373065,-0.3036343,810.696,817.1429,809.4872,779.2674,582.23444,-0.2098388671875,-0.0733642578125,0.97674560546875,5.196380615234375,-5.031890869140625,1.92901611328125,1,1.0,1.0,1.0,1.0,100.00
2021-04-11 22:43:43.877,0.6444674,0.5622327,0.38800246,0.48062325,0.22054149,0.34233454,0.014221163,0.37808996,0.7484753,0.40459806,0.21276562,0.70886916,0.38423514,0.5135946,0.22349235,0.3829722,-0.25386718,0.14174683,-0.22898825,-0.3036343,808.2784,811.50183,805.05493,790.54944,756.7033,-0.24566650390625,-0.0758056640625,0.97412109375,4.02252197265625,0.179443359375,2.22808837890625,1,1.0,1.0,1.0,1.0,100.00
2021-04-11 22:43:44.380,0.5553325,0.64079887,0.6231719,0.53634334,0.10266643,0.3841064,0.12375997,0.35479724,0.5796715,0.4364237,0.3091192,0.5759587,0.42172164,0.51352423,0.23369646,0.26359662,-0.21346219,0.074904114,-0.36111513,-0.36362967,809.89014,819.5604,806.6667,834.87177,860.65936,-0.24444580078125,-0.083251953125,0.97039794921875,4.47113037109375,-4.08233642578125,-0.83740234375,1,1.0,1.0,1.0,1.0,100.00
2021-04-11 22:43:44.684,,,,,,,,,,,,,,,,,,,,,,,,,,,,,,,,,,,,,,/muse/elements/blink
2021-04-11 22:43:44.890,0.5553325,0.8691037,0.75981504,0.53634334,0.10266643,0.36237738,0.25002912,0.35479724,0.5796715,0.4387417,0.32922712,0.5759587,0.42172164,0.4807634,0.22512616,0.26359662,-0.21346219,-0.067203894,-0.38780162,-0.36362967,815.5311,805.05493,798.20514,832.4542,726.08057,-0.23150634765625,-0.087158203125,0.96942138671875,4.867401123046875,-5.061798095703125,1.801910400390625,1,1.0,1.0,1.0,1.0,100.00
2021-04-11 22:43:45.400,0.5553325,0.9153154,0.6551155,0.53634334,0.10266643,0.24557103,0.18611182,0.35479724,0.5796715,0.34672043,0.32922712,0.5759587,0.42172164,0.5488234,0.2064438,0.26359662,-0.21346219,0.04600313,-0.22483821,-0.36362967,801.4286,797.8022,804.65204,781.28204,818.3516,-0.23382568359375,-0.07891845703125,0.97650146484375,4.702911376953125,-3.887939453125,1.966400146484375,1,1.0,1.0,1.0,1.0,100.00
2021-04-11 22:43:45.917,0.5553325,0.74711776,0.44738537,0.53634334,0.10266643,0.219347,0.053828154,0.35479724,0.5796715,0.41712037,0.2963082,0.5759587,0.42172164,0.5492784,0.14737898,0.26359662,-0.21346219,0.08725614,-0.1322495,-0.36362967,801.4286,814.7253,811.0989,828.022,809.89014,-0.2396240234375,-0.07989501953125,0.96868896484375,4.68048095703125,-4.17205810546875,1.323394775390625,1,2.0,1.0,1.0,2.0,100.00
2021-04-11 22:43:46.443,0.46568963,0.53841746,0.004116136,0.07661334,0.45741773,0.2288237,0.011786055,0.007583625,0.42348328,0.4550923,0.16765194,-0.13954237,0.07367494,0.5052524,0.1291964,0.3711006,-0.24298887,0.17639147,-0.10339965,-0.20402505,790.54944,803.44324,811.0989,813.5165,855.42126,-0.239990234375,-0.0687255859375,0.97186279296875,5.69732666015625,-5.03936767578125,1.83929443359375,1,1.0,1.0,1.0,1.0,100.00
2021-04-11 22:43:46.967,0.60371363,0.26784453,0.0068259644,0.17541364,0.44503704,0.20770244,0.12719552,-0.021222256,0.4741589,0.4459719,0.16317034,-0.10061632,0.15922977,0.43112537,0.1743275,0.26994833,-0.34672067,0.2300917,-0.05372604,-0.21935356,792.96704,802.23444,809.89014,831.6484,819.9634,-0.23883056640625,-0.06610107421875,0.9718017578125,4.91973876953125,-5.211334228515625,1.614990234375,1,1.0,1.0,1.0,1.0,100.00
2021-04-11 22:43:47.432,,,,,,,,,,,,,,,,,,,,,,,,,,,,,,,,,,,,,,/muse/elements/blink
2021-04-11 22:43:47.496,0.63953686,0.21851218,0.028092906,0.23525803,0.4331905,0.10336564,0.13982739,-0.0077283005,0.4741589,0.41018152,0.2259831,-0.1389956,0.18541068,0.37519878,0.26163572,0.24571228,-0.48147038,0.19062878,-0.005449287,-0.21710248,829.6337,830.84247,805.4579,820.7692,673.2967,-0.22723388671875,-0.0625,0.97442626953125,4.583282470703125,-5.405731201171875,0.299072265625,1,1.0,1.0,1.0,1.0,100.00
2021-04-11 22:43:47.997,0.7182914,0.5894157,0.45967352,0.2855551,0.3698658,0.24290016,0.19507705,-0.052996565,0.35957512,0.33100316,0.3724193,-0.19887365,0.23957837,0.36687863,0.29782522,0.14174688,-0.64327693,0.059036504,0.08519501,-0.21820532,821.5751,797.3993,813.5165,794.17584,752.674,-0.22235107421875,-0.06158447265625,0.97198486328125,4.852447509765625,-5.263671875,0.76263427734375,1,1.0,1.0,1.0,1.0,100.00
2021-04-11 22:43:48.500,0.6213594,0.7635007,0.89992994,0.26307064,0.3091016,0.41116515,0.41873777,0.079557,0.31889236,0.3263661,0.57160205,0.36353943,0.22901766,0.35921907,0.29351306,0.4699739,-0.84214616,-0.09299975,0.11357959,-0.13594167,797.3993,807.0696,790.14655,789.7436,738.97437,-0.22137451171875,-0.06903076171875,0.9744873046875,5.42816162109375,-4.179534912109375,1.39068603515625,1,1.0,1.0,1.0,1.0,100.00
2021-04-11 22:43:49.008,0.4135376,0.8550046,1.0139124,0.3228833,0.62244695,0.5280074,0.49376586,0.43575078,0.6779824,0.29456204,0.5804706,0.69892496,0.36346567,0.37440458,0.2743142,0.7381043,-0.36091447,0.013034612,0.121443175,-0.1293518,812.71063,808.68134,812.71063,846.1539,823.5897,-0.24053955078125,-3.662109375E-4,0.9720458984375,9.473114013671875,-2.52716064453125,4.837493896484375,1,1.0,1.0,1.0,1.0,100.00
2021-04-11 22:43:49.511,0.49819633,0.63543206,0.94606674,0.42690116,0.6132523,0.40288907,0.44063228,0.42907435,0.8110102,0.31005186,0.5823289,0.90679276,0.40442562,0.3992741,0.270014,0.6559375,-0.34876615,0.0966834,0.028209044,-0.10196038,798.60803,791.3553,806.6667,803.8461,711.978,-0.197265625,-0.03326416015625,0.967529296875,2.086029052734375,-5.921630859375,-1.136474609375,1,1.0,1.0,1.0,1.0,100.00
2021-04-11 22:43:50.032,0.495394,0.48661909,0.8716198,0.63298106,0.7111583,0.5305708,0.4859758,0.6303217,0.8605297,0.5039796,0.48051995,1.0072683,0.49264067,0.41663867,0.2819798,0.618326,-0.30203995,0.07905256,-0.13603587,-0.08413276,820.7692,814.7253,804.2491,786.52014,626.9597,-0.18255615234375,0.00421142578125,0.98687744140625,5.360870361328125,-3.09539794921875,-6.332855224609375,1,1.0,1.0,1.0,1.0,100.00
2021-04-11 22:43:50.543,0.5066969,0.55817384,0.8202774,0.73138565,0.7570919,0.5024497,0.40325618,0.7007089,0.8412454,0.54795796,0.47868365,1.0072683,0.54257935,0.4358265,0.2718634,0.52020955,-0.3173588,0.03772882,-0.11092107,-0.08674317,813.91943,805.05493,808.2784,790.9524,717.619,-0.20233154296875,0.00921630859375,0.972412109375,5.390777587890625,-4.987030029296875,-6.59454345703125,1,1.0,1.0,1.0,1.0,100.00
2021-04-11 22:43:51.064,0.42335346,0.59164494,0.77612734,0.7062615,0.700032,0.44823328,0.33099648,0.7219898,0.8130886,0.5208342,0.472202,1.0220405,0.52106214,0.36494422,0.24335255,0.4403947,-0.36012468,-0.07745223,-0.14363913,-0.20180982,798.60803,800.6227,796.99634,805.4579,809.89014,-0.1844482421875,0.0252685546875,0.99090576171875,10.818939208984375,-7.977752685546875,-7.716064453125,1,1.0,1.0,1.0,1.0,90.00
2021-04-11 22:43:51.584,0.3039778,0.45883018,0.19816199,0.41188508,0.38068774,-0.058906373,-0.20896582,0.45678863,0.76012826,0.4144059,0.06187361,0.69223624,0.35483623,0.3376534,0.17582516,0.2761298,-0.5339327,-0.13329346,-0.2610542,-0.37400186,803.0403,821.1722,782.8938,809.0842,731.31866,-0.15155029296875,0.02294921875,0.989013671875,4.373931884765625,-7.01324462890625,-8.92730712890625,1,1.0,1.0,1.0,1.0,90.00
2021-04-11 22:43:52.089,0.2531416,0.49086532,0.51989204,0.2712914,0.16799225,0.23741873,0.1388078,0.3767269,0.7094815,0.44033954,0.62340343,0.9288091,0.26048407,0.32752645,0.15072101,0.3111775,-0.554331,-0.10141594,-0.38827866,-0.39524168,809.89014,798.60803,811.0989,791.3553,690.2198,-0.1634521484375,0.0401611328125,0.989501953125,3.18511962890625,-3.33465576171875,-2.10845947265625,1,1.0,1.0,1.0,1.0,90.00
2021-04-11 22:43:52.616,0.21956095,0.6533551,0.7182316,0.3603394,0.19594659,0.33996767,0.2188534,0.23770548,0.6255624,0.36884496,0.6258689,0.92079043,0.25810957,0.33167705,0.1170816,0.36793816,-0.51043606,-0.07205552,-0.26198345,-0.30947772,818.3516,792.5641,812.71063,834.0659,1057.2894,-0.2032470703125,-0.01226806640625,0.97711181640625,4.23187255859375,-0.19439697265625,-3.895416259765625,1,1.0,1.0,1.0,1.0,90.00
2021-04-11 22:43:53.137,0.31004432,0.63817394,0.73556674,0.45925915,0.21122216,0.28454348,0.20021386,0.20380577,0.59929246,0.294565,0.6258689,0.8676126,0.29730803,0.31767043,0.06422314,0.37638918,-0.4281278,0.06462398,-0.066195056,-0.25412768,873.95605,834.0659,789.34064,857.03296,696.6667,-0.18328857421875,-0.022705078125,0.9757080078125,24.583740234375,-14.856414794921875,-4.538421630859375,1,1.0,1.0,1.0,1.0,90.00
2021-04-11 22:43:53.663,0.27838752,0.5072617,0.8197852,0.46717316,0.18979463,-0.054123696,-0.043733206,0.15387882,0.46048692,0.045531847,0.5712635,0.83163416,0.30048397,0.29063287,0.03933049,0.31689113,-0.39540794,0.07476082,-3.141159E-4,-0.24731109,805.4579,809.4872,811.0989,828.4249,837.28937,-0.120361328125,0.08001708984375,1.00341796875,7.34222412109375,-6.287994384765625,-9.4207763671875,1,1.0,1.0,1.0,1.0,90.00
2021-04-11 22:43:54.180,0.368006,-0.2974741,0.8820186,0.29571372,0.008903976,-0.87198746,-0.0150491875,0.20652881,0.39864284,-0.25187185,0.5950941,0.052437987,0.27459258,0.2957782,0.03559224,0.11951845,-0.43947038,0.20724782,-0.10803329,-0.2611724,796.99634,826.8132,805.8608,813.1135,709.5604,-0.14605712890625,0.04705810546875,0.9893798828125,-0.28411865234375,-5.256195068359375,19.133148193359375,1,1.0,1.0,1.0,1.0,90.00
2021-04-11 22:43:54.687,0.368006,-0.2888158,1.1077238,0.29571372,0.008903976,-0.81586874,0.4746452,0.20652881,0.39864284,-0.25942132,0.63274586,0.052437987,0.27459258,0.30406213,0.032103207,0.11951845,-0.43947038,0.23009908,-0.303354,-0.2611724,807.47253,800.6227,803.0403,774.43225,596.337,-0.12066650390625,0.0509033203125,0.99053955078125,5.5328369140625,-7.19268798828125,8.067474365234375,1,1.0,1.0,1.0,1.0,90.00
2021-04-11 22:43:55.212,0.368006,-0.2888158,1.0387886,0.29571372,0.008903976,-0.81586874,0.47460532,0.20652881,0.39864284,-0.25942132,0.63074577,0.052437987,0.27459258,0.30406213,-0.06316593,0.11951845,-0.43947038,0.23009908,-0.42657626,-0.2611724,801.02563,796.99634,804.65204,793.36993,875.56775,-0.08056640625,0.08734130859375,0.9918212890625,3.985137939453125,-5.615081787109375,6.6094970703125,1,1.0,1.0,1.0,1.0,90.00
2021-04-11 22:43:55.713,0.05653619,0.6174727,0.9277739,0.7367779,0.23620711,0.25020865,0.48314622,0.7273301,0.49016702,0.34430093,0.39645967,0.5955174,0.20129584,0.40507078,0.014224315,0.11062339,-0.4140284,0.019721892,-0.38001844,-0.11048467,818.3516,794.17584,797.3993,827.619,938.022,-0.05572509765625,0.103271484375,1.0032958984375,6.138458251953125,-3.18511962890625,3.6785888671875,1,1.0,1.0,1.0,1.0,90.00
2021-04-11 22:43:56.083,,,,,,,,,,,,,,,,,,,,,,,,,,,,,,,,,,,,,,/muse/elements/blink
2021-04-11 22:43:56.216,0.2482464,0.6179655,0.55466557,0.7367779,0.25304353,0.1445003,0.09805225,0.7273301,0.5910028,0.34944242,0.17513032,0.5955174,0.19143093,0.36281344,0.095218934,0.11062339,-0.41634533,0.1759942,-0.3425093,-0.11048467,799.41394,815.5311,800.6227,814.7253,833.2601,-0.09075927734375,0.10107421875,0.99700927734375,4.2169189453125,-2.459869384765625,2.75146484375,1,1.0,1.0,1.0,1.0,90.00
2021-04-11 22:43:56.723,0.2482464,0.79242015,0.4553498,0.7367779,0.25304353,0.2320413,0.12568729,0.7273301,0.5910028,0.35847658,0.09712567,0.5955174,0.19143093,0.37409782,0.17032623,0.11062339,-0.41634533,0.22680657,-0.31655493,-0.11048467,825.2015,805.4579,817.1429,841.31866,797.8022,-0.11114501953125,0.0986328125,0.99072265625,4.927215576171875,-6.44500732421875,-1.614990234375,1,1.0,1.0,1.0,1.0,90.00
2021-04-11 22:43:57.225,0.29364866,0.7553748,0.41975546,0.7090151,0.26036033,0.1981024,0.13156068,0.7429206,0.574826,0.50653553,0.44328752,0.5892772,0.14767681,0.32243204,0.14395328,0.11162143,-0.4654739,0.21096236,-0.20988676,-0.10492181,807.0696,803.0403,805.8608,809.0842,624.5421,-0.114990234375,0.08587646484375,0.99530029296875,4.269256591796875,-4.88983154296875,-3.75335693359375,1,1.0,1.0,1.0,1.0,90.00
2021-04-11 22:43:57.701,,,,,,,,,,,,,,,,,,,,,,,,,,,,,,,,,,,,,,/muse/elements/blink
2021-04-11 22:43:57.746,0.29364866,0.8231127,0.5233135,0.7090151,0.26036033,0.35246095,0.4369688,0.7429206,0.574826,0.5780853,0.67372,0.5892772,0.14767681,0.33044463,0.1545158,0.11162143,-0.4654739,0.12083996,-0.05855261,-0.10492181,875.56775,816.7399,792.5641,850.989,779.67035,-0.1134033203125,0.10955810546875,0.9832763671875,4.912261962890625,-3.90289306640625,-4.673004150390625,1,1.0,1.0,1.0,1.0,90.00
2021-04-11 22:43:58.256,0.29364866,0.65132904,1.0124462,0.7090151,0.26036033,0.30843168,0.83872163,0.7429206,0.574826,0.56567514,0.7337171,0.5892772,0.14767681,0.31299025,0.25615346,0.11162143,-0.4654739,0.025127316,0.038479086,-0.10492181,813.1135,807.47253,806.26373,786.9231,732.1245,-0.09136962890625,0.08837890625,0.989990234375,5.734710693359375,-2.811279296875,5.884246826171875,1,1.0,1.0,1.0,1.0,90.00
2021-04-11 22:43:58.783,0.29364866,0.7904793,1.1167928,0.7090151,0.26036033,0.3902372,0.89119554,0.7429206,0.574826,0.28755552,0.72711986,0.5892772,0.14767681,0.32248816,0.2982335,0.11162143,-0.4654739,0.1419328,0.047244493,-0.10492181,821.1722,814.7253,803.8461,821.1722,780.07324,-0.12109375,0.09967041015625,0.98876953125,5.84686279296875,-1.375732421875,1.614990234375,1,2.0,1.0,1.0,2.0,90.00
2021-04-11 22:43:59.296,0.8729044,0.08886286,1.0599483,0.281403,0.76975197,0.08806771,0.74235016,0.31738764,0.7834026,-0.13996589,0.5891442,0.36187184,-0.043032892,0.51477504,0.32931438,0.28141537,0.031040644,-0.049262688,-0.06491837,-0.06451789,823.1868,819.5604,797.8022,817.9487,832.0513,-0.13763427734375,0.12860107421875,0.985107421875,9.10675048828125,-1.517791748046875,0.31402587890625,1,1.0,1.0,1.0,1.0,90.00
2021-04-11 22:43:59.800,1.0183032,0.28698665,0.67983854,0.25014243,0.78800476,0.15587196,0.30834076,0.24460776,0.86427015,0.17772672,0.29797995,0.4527168,0.09370114,0.50647205,0.26597902,0.2959333,-0.0052746306,-0.123587325,-0.16405213,-0.058319,821.5751,809.0842,809.0842,809.0842,683.7729,-0.09539794921875,0.117919921875,0.9835205078125,3.087921142578125,-9.73480224609375,-1.7047119140625,1,1.0,1.0,1.0,1.0,90.00
2021-04-11 22:44:00.327,0.9994567,0.36366624,0.4813494,0.280216,0.8584058,0.184257,0.23939367,0.54859346,1.0455626,0.3101256,0.09130165,0.5451242,0.12347753,0.4938221,0.2636107,0.22735848,-0.11694275,-0.10782038,-0.2248509,-0.14141531,812.71063,803.8461,802.23444,778.46155,622.52747,-0.07305908203125,0.1151123046875,0.99371337890625,2.145843505859375,-5.046844482421875,0.13458251953125,1,1.0,1.0,1.0,1.0,90.00
2021-04-11 22:44:00.829,1.0835752,0.54833364,0.47112542,0.36006135,0.88887554,0.38491973,0.2793676,0.63454646,1.0475367,0.42355216,0.094191544,0.5299778,0.21138848,0.4514848,0.24668127,0.25658065,-0.20592006,-0.108480096,-0.19738165,-0.1513344,807.0696,803.44324,801.02563,803.8461,842.9304,-0.09832763671875,0.10107421875,0.99737548828125,4.568328857421875,-1.712188720703125,2.9010009765625,1,1.0,1.0,1.0,1.0,90.00
2021-04-11 22:44:01.348,1.0292783,0.7036626,0.29063484,0.35652864,0.9251721,0.37810722,0.03997457,0.63241327,0.9694914,0.420594,0.004957581,0.4697874,0.21997106,0.357305,0.27413443,0.23290725,-0.36076126,0.0024079855,-0.2530345,-0.20464939,812.3077,805.4579,800.6227,797.3993,670.4762,-0.0897216796875,0.07769775390625,0.99554443359375,1.136474609375,-4.53094482421875,4.538421630859375,1,1.0,1.0,1.0,1.0,95.00
2021-04-11 22:44:01.862,,,,,,,,,,,,,,,,,,,,,,,,,,,,,,,,,,,,,,/muse/elements/blink
2021-04-11 22:44:01.863,0.95350534,0.7408283,0.38838622,0.3390482,0.6120626,0.36919466,0.14472023,0.28974614,0.74695146,0.5227517,0.24433112,0.6034572,0.25358915,0.37385115,0.29375026,0.31439164,-0.18195128,0.064243056,-0.2131152,-0.19338463,844.94507,823.9927,804.2491,859.0476,683.36993,-0.122802734375,0.092529296875,0.988037109375,3.69354248046875,-2.429962158203125,2.75146484375,1,1.0,1.0,1.0,1.0,95.00
2021-04-11 22:44:02.376,0.84652007,0.88998014,0.824626,0.3040841,0.38059938,0.47599402,0.5342597,-0.03980129,0.57039857,0.564134,0.4672676,0.6028423,0.22374201,0.33446917,0.27748656,0.30018744,-0.13874972,0.108574964,-0.027102347,-0.23124988,801.4286,798.60803,802.6374,782.8938,676.52014,-0.1572265625,0.098388671875,0.9901123046875,2.175750732421875,-4.463653564453125,3.058013916015625,1,1.0,1.0,1.0,1.0,95.00
2021-04-11 22:44:02.888,0.84652007,0.8843794,0.8553594,0.40445918,0.38059938,0.54644865,0.5534374,-0.0823305,0.57039857,0.564134,0.46567282,0.6028423,0.22374201,0.34245855,0.2528402,0.34117582,-0.13874972,0.049162608,0.04055053,-0.304509,784.90845,807.8755,795.78754,753.0769,756.30035,-0.10296630859375,0.12646484375,1.00262451171875,8.134765625,-7.53662109375,17.57049560546875,1,1.0,1.0,1.0,1.0,95.00
2021-04-11 22:44:03.153,,,,,,,,,,,,,,,,,,,,,,,,,,,,,,,,,,,,,,/muse/elements/blink
2021-04-11 22:44:03.400,0.84652007,0.8930743,0.8222317,0.40445918,0.38059938,0.50907403,0.49261162,-0.0823305,0.57039857,0.57367563,0.46567282,0.6028423,0.22374201,0.28416717,0.17407313,0.34117582,-0.13874972,0.028555788,0.029509101,-0.304509,808.68134,794.57874,826.4103,836.8865,967.4359,-0.17852783203125,0.1376953125,0.9705810546875,5.1141357421875,-1.084136962890625,7.65625,1,1.0,1.0,1.0,1.0,95.00
2021-04-11 22:44:03.930,0.84652007,0.69883466,0.69965345,0.40445918,0.38059938,0.29158673,0.0816915,-0.0823305,0.57039857,0.39112577,0.25621146,0.6028423,0.22374201,0.31907013,0.13332549,0.34117582,-0.13874972,-0.016877336,-0.13298383,-0.304509,803.44324,811.50183,803.8461,836.8865,904.57874,-0.14764404296875,0.13568115234375,0.94873046875,-2.489776611328125,-5.00946044921875,3.566436767578125,1,1.0,1.0,1.0,1.0,95.00
2021-04-11 22:44:04.455,0.3700874,0.692905,0.7038682,0.110032186,0.42005694,0.10011871,0.12027479,0.09479716,0.3967696,0.5034752,0.15837635,0.2265362,0.35851285,0.37924564,0.131511,0.30164188,-0.34911406,0.035862587,-0.2069518,-0.29089695,784.10254,803.0403,801.4286,772.4176,568.1319,-0.22259521484375,0.06298828125,0.983154296875,-2.474822998046875,3.00567626953125,-6.0113525390625,1,1.0,1.0,1.0,1.0,95.00
2021-04-11 22:44:04.962,0.31049007,0.6765357,0.722189,0.24172185,0.4271117,0.13123614,0.277596,-0.05744219,0.6471006,0.48107865,0.11346763,0.019811109,0.40804204,0.33032775,0.30125907,0.24063593,-0.19337548,0.032610156,-0.17979349,-0.22461072,712.7839,805.4579,832.4542,680.54944,625.34796,-0.22503662109375,0.1087646484375,0.97845458984375,12.620849609375,3.21502685546875,-3.3197021484375,1,1.0,1.0,1.0,1.0,95.00
2021-04-11 22:44:05.478,0.31049007,0.92423326,0.45173433,0.24172185,0.4271117,0.5493318,0.2350438,-0.05744219,0.6471006,0.64197516,-0.019482113,0.019811109,0.40804204,0.37557974,0.34760225,0.24063593,-0.19337548,0.043063506,-0.1939009,-0.22461072,827.2161,825.2015,807.8755,823.5897,785.31134,-0.17718505859375,0.07000732421875,0.963623046875,4.777679443359375,-1.039276123046875,0.5084228515625,1,1.0,1.0,1.0,1.0,95.00
2021-04-11 22:44:05.979,0.36538613,1.1021945,0.50031215,0.3299437,0.5130664,0.6820632,0.16834052,-0.12412129,0.6471006,0.6348389,-0.019482113,0.019811109,0.4212752,0.4043125,0.36389694,0.17876166,-0.1294636,0.041483156,-0.17048861,-0.19364445,814.7253,820.7692,797.8022,846.9597,864.68866,-0.2489013671875,0.076171875,0.95697021484375,5.14404296875,-2.31781005859375,0.515899658203125,1,1.0,1.0,1.0,1.0,95.00
2021-04-11 22:44:06.490,0.40875655,1.1372248,0.7457834,0.37122786,0.5567343,0.70947546,-0.023369053,-0.08911381,0.6471006,0.5871069,0.16097066,0.019811109,0.38738182,0.4150173,0.31836292,0.14788234,-0.1303243,8.210686E-4,-0.276404,-0.1955183,803.44324,799.41394,807.0696,815.12823,667.25275,-0.15924072265625,0.07403564453125,0.98187255859375,3.2598876953125,-8.2843017578125,-1.60003662109375,1,1.0,1.0,1.0,1.0,95.00
2021-04-11 22:44:07.001,0.40875655,1.0334821,0.53853416,0.37122786,0.5567343,0.37881953,0.28637442,-0.08911381,0.6471006,0.46535468,0.2027221,0.019811109,0.38738182,0.3529374,0.25739202,0.14788234,-0.1303243,-0.104762025,-0.373078,-0.1955183,810.696,809.4872,803.0403,807.8755,811.50183,-0.19805908203125,0.056640625,0.9774169921875,2.452392578125,-1.398162841796875,-1.79443359375,1,1.0,1.0,1.0,1.0,95.00
2021-04-11 22:44:07.510,0.40875655,0.8141182,0.388306,0.37122786,0.5567343,0.026641825,0.27881685,-0.08911381,0.6471006,0.410689,0.20377481,0.019811109,0.38738182,0.34124112,0.22167885,0.14788234,-0.1303243,-0.06789459,-0.4398069,-0.1955183,806.26373,799.41394,797.3993,836.8865,827.619,-0.21856689453125,0.05487060546875,0.9766845703125,4.50103759765625,-0.79254150390625,-0.31402587890625,1,1.0,1.0,1.0,1.0,95.00
2021-04-11 22:44:08.030,0.6443623,0.73398453,0.27109993,0.07741118,0.40603027,0.043752246,0.26967603,0.22178337,0.54840827,0.410689,0.2581509,0.41791877,0.3433615,0.37104443,0.22984171,0.32837528,-0.014058436,-0.0692159,-0.43006456,0.26428896,794.57874,792.1612,795.78754,804.65204,683.36993,-0.23968505859375,0.03277587890625,0.966064453125,4.000091552734375,-4.373931884765625,-0.530853271484375,1,1.0,1.0,1.0,1.0,95.00
2021-04-11 22:44:08.542,0.60927033,0.4267715,0.0977987,0.38784724,0.30750144,0.14771505,0.19506213,0.33349153,0.57527894,0.16328193,0.13608322,0.52399975,0.31727728,0.4502191,0.23773254,0.28103316,-0.12462593,-0.096470706,-0.31164226,0.076179735,826.4103,832.8571,793.7729,823.1868,733.3333,-0.249267578125,0.04541015625,0.9698486328125,5.420684814453125,-5.734710693359375,1.996307373046875,1,1.0,1.0,1.0,1.0,95.00
2021-04-11 22:44:09.057,0.7946651,0.5212076,0.26210874,0.85582143,0.3339131,0.29898736,0.31400445,0.6167282,0.4891755,0.20043753,0.18155688,0.5967705,0.26256627,0.44626653,0.1763077,0.29171374,-0.123797104,-0.11488623,-0.22318466,-0.10561539,795.78754,801.02563,796.5934,790.54944,685.38464,-0.2249755859375,0.0572509765625,0.9697265625,4.164581298828125,-4.38140869140625,-1.084136962890625,1,1.0,1.0,1.0,1.0,95.00
2021-04-11 22:44:09.563,0.84746015,0.5546608,0.32261455,1.1585807,0.36592606,0.3283808,0.4083209,0.7128105,0.4621107,0.20043753,0.24042715,0.678571,0.24906354,0.45369676,0.17756724,0.2566883,-0.12871535,-0.13918526,-0.109780796,-0.28387478,801.8315,805.8608,805.05493,832.4542,1029.0842,-0.2364501953125,0.05810546875,0.98040771484375,3.940277099609375,-4.852447509765625,0.740203857421875,1,1.0,1.0,1.0,1.0,95.00
2021-04-11 22:44:09.566,,,,,,,,,,,,,,,,,,,,,,,,,,,,,,,,,,,,,,/muse/elements/blink
2021-04-11 22:44:10.064,1.0303609,0.7929619,0.70421416,1.2735484,0.51048666,0.3956857,0.5291231,0.8881087,0.36616585,0.18473607,0.4287909,0.68579125,0.17892656,0.39706603,0.10501173,0.24520952,-0.011189347,-0.055142097,-0.09533667,-0.2761473,869.12085,828.4249,784.90845,886.8498,733.73627,-0.22979736328125,0.05035400390625,0.97552490234375,5.286102294921875,-4.47113037109375,1.443023681640625,1,1.0,1.0,1.0,1.0,95.00
2021-04-11 22:44:10.102,,,,,,,,,,,,,,,,,,,,,,,,,,,,,,,,,,,,,,/muse/elements/blink
2021-04-11 22:44:10.576,1.0794846,0.88063157,0.87638146,1.3536118,0.54854774,0.4792944,0.5530315,0.91637045,0.33395943,0.17770465,0.42800522,0.67973447,0.18028304,0.396758,0.17590347,0.24922192,0.025046004,-0.061191432,0.002190749,-0.22109717,804.2491,804.2491,806.6667,790.54944,670.87915,-0.21185302734375,0.04913330078125,0.98468017578125,3.78326416015625,-7.962799072265625,-0.186920166015625,1,1.0,1.0,1.0,1.0,95.00
2021-04-11 22:44:11.103,1.0794846,0.88063157,0.8871606,1.2085316,0.54854774,0.4792944,0.3455861,1.028036,0.33395943,0.17770465,0.42760617,0.60263294,0.18028304,0.396758,0.17819814,0.18306766,0.025046004,-0.061191432,-0.08036636,-0.19277328,807.47253,815.5311,798.20514,769.19415,684.17584,-0.19415283203125,0.04754638671875,0.98028564453125,4.0673828125,-3.805694580078125,-0.28411865234375,1,1.0,1.0,1.0,1.0,95.00
2021-04-11 22:44:11.616,0.16724445,0.55364037,0.67914134,0.31513757,0.062557794,0.27627265,0.16525987,-0.02192569,-0.040745035,0.24896204,0.19284669,0.11970587,0.26729357,0.3613711,0.1678426,0.24997085,-0.28918615,-0.025687987,-0.027056912,-0.17307779,824.3956,787.72894,817.5458,840.5128,885.64105,-0.19061279296875,0.04376220703125,0.9798583984375,5.286102294921875,-6.6094970703125,-0.0897216796875,1,1.0,1.0,1.0,1.0,100.00
2021-04-11 22:44:12.136,0.28184384,0.5019254,0.43238598,0.5981464,0.3540671,0.13491891,0.17014869,0.6756347,0.19600454,0.2648247,0.34596723,0.5353976,0.21097325,0.29668158,0.13609639,0.21087615,-0.28902128,-0.16216882,-0.07127605,-0.13784139,807.47253,801.8315,799.011,832.4542,908.20514,-0.211669921875,0.04498291015625,0.98126220703125,6.1309814453125,-4.732818603515625,3.715972900390625,1,1.0,1.0,1.0,1.0,100.00
2021-04-11 22:44:12.644,0.31711146,0.47332793,0.22377594,0.6020283,0.35696036,0.09874832,0.23399828,0.6585428,0.32198596,0.28781703,0.3507884,0.5443725,0.19234985,0.2668148,0.14930408,0.21542318,-0.30499315,-0.087277666,-0.13378605,-0.18924251,795.78754,807.47253,804.65204,797.8022,597.9487,-0.2015380859375,0.06121826171875,0.98077392578125,4.867401123046875,-4.568328857421875,0.485992431640625,1,1.0,1.0,1.0,1.0,100.00
2021-04-11 22:44:13.160,0.3430679,0.3737664,0.12283308,0.7580146,0.4118696,-0.029106025,0.22665633,0.8183628,0.3184524,0.2550163,0.4184744,0.8371781,0.16360691,0.23338857,0.15379858,0.23461708,-0.31544483,-0.14969188,-0.26331106,-0.1788924,809.4872,803.0403,801.4286,815.5311,826.0073,-0.20111083984375,0.0574951171875,0.978271484375,4.822540283203125,-5.12908935546875,0.800018310546875,1,1.0,1.0,1.0,1.0,100.00
2021-04-11 22:44:13.418,,,,,,,,,,,,,,,,,,,,,,,,,,,,,,,,,,,,,,/muse/elements/blink
2021-04-11 22:44:13.662,0.44513485,0.46099713,0.0985645,1.129979,0.4441254,-0.06804471,0.2193084,1.0874791,0.27580756,0.42349797,0.4811106,1.1034211,0.13472016,0.2434628,0.17065804,0.4065003,-0.3081564,-0.03526361,-0.3052415,-0.09132028,817.1429,788.93774,811.0989,858.24176,882.4176,-0.19818115234375,0.05596923828125,0.9774169921875,4.463653564453125,-5.061798095703125,0.179443359375,1,1.0,1.0,1.0,1.0,100.00
2021-04-11 22:44:14.180,1.3461611,0.6221795,0.5032601,1.3142811,0.7739561,-0.0013310423,0.09550763,1.2506555,1.3154691,0.33051473,0.40300655,1.1034211,0.43958035,0.34122458,0.09622627,0.51488596,-0.27328023,-0.1216319,-0.20596384,0.019754928,763.95605,803.0403,808.2784,769.19415,602.7839,-0.20794677734375,0.04986572265625,0.97967529296875,4.0673828125,-1.92901611328125,0.246734619140625,1,1.0,1.0,1.0,1.0,100.00
2021-04-11 22:44:14.375,,,,,,,,,,,,,,,,,,,,,,,,,,,,,,,,,,,,,,/muse/elements/blink
2021-04-11 22:44:14.685,1.3461611,0.65493655,0.52161676,1.3693985,0.7739561,0.21922751,0.17596266,1.2519363,1.3154691,0.3603799,0.41471276,1.0782675,0.43958035,0.3312415,0.028666383,0.5389203,-0.27328023,-0.1343105,-0.16020237,0.07924445,811.50183,794.9817,808.68134,841.31866,1038.7546,-0.19732666015625,0.04144287109375,0.97625732421875,4.32159423828125,-7.454376220703125,1.906585693359375,1,1.0,1.0,1.0,1.0,100.00
2021-04-11 22:44:15.220,1.3461611,0.5411875,0.44993535,1.3693985,0.7739561,0.26798978,0.018320622,1.2519363,1.3154691,0.044574462,0.15689304,1.0782675,0.43958035,0.30189896,0.014145763,0.5389203,-0.27328023,-0.21442723,-0.11058749,0.07924445,805.8608,809.89014,814.7253,793.36993,785.31134,-0.21209716796875,0.006591796875,0.96856689453125,3.66363525390625,-1.293487548828125,-3.5589599609375,1,1.0,1.0,1.0,1.0,100.00
2021-04-11 22:44:15.744,0.672945,0.32259697,-0.19936049,0.82586426,0.1806132,0.26209143,-0.07740233,0.38331386,0.056358512,0.23266664,0.10328745,-0.05694444,0.20880625,0.2994266,0.10952166,0.1395704,-0.025783114,-0.11462607,-0.13924919,-0.08388149,812.3077,832.0513,798.60803,772.4176,679.34064,-0.25726318359375,0.02264404296875,0.96514892578125,2.624359130859375,-0.007476806640625,9.989013671875,1,1.0,1.0,1.0,1.0,100.00
2021-04-11 22:44:16.108,,,,,,,,,,,,,,,,,,,,,,,,,,,,,,,,,,,,,,/muse/elements/blink
2021-04-11 22:44:16.263,0.7246515,0.41677058,-0.19159183,0.86715573,0.1570964,0.20567764,-0.20633255,0.3793999,0.15408841,0.24687573,-0.084912874,-0.05694444,0.24665986,0.31906205,0.18304254,0.1248488,-0.023842547,-0.05511325,-0.108182795,-0.040422358,819.9634,821.1722,801.8315,822.7839,836.4835,-0.2568359375,0.01788330078125,0.96075439453125,4.478607177734375,-6.183319091796875,3.820648193359375,1,1.0,1.0,1.0,1.0,100.00
2021-04-11 22:44:16.770,0.7246515,0.7384834,0.06915939,0.86715573,0.1570964,0.58884066,0.05346989,0.3793999,0.15408841,0.439477,0.065872036,-0.05694444,0.24665986,0.35782546,0.25197214,0.1248488,-0.023842547,-0.03641022,-0.08959013,-0.040422358,800.6227,821.978,800.2198,835.6777,838.0952,-0.25225830078125,0.0179443359375,0.96087646484375,3.24493408203125,4.007568359375,1.6748046875,1,1.0,1.0,1.0,1.0,100.00
2021-04-11 22:44:17.281,0.7707996,0.86566764,0.09398757,0.9108102,0.067194775,0.63008314,0.018714905,0.3617404,0.06931198,0.4419997,0.055224337,-0.27006406,0.2545044,0.3763011,0.24011602,0.11023247,-0.0082894955,-0.06570466,-0.007440755,0.0091610085,763.95605,821.1722,780.4762,767.5824,729.304,-0.38104248046875,0.03240966796875,0.933349609375,5.203857421875,-3.4991455078125,5.42816162109375,1,1.0,1.0,1.0,1.0,100.00
2021-04-11 22:44:17.414,,,,,,,,,,,,,,,,,,,,,,,,,,,,,,,,,,,,,,/muse/elements/blink
2021-04-11 22:44:17.800,0.7707996,0.84402055,0.23497303,0.9108102,0.067194775,0.6418504,0.05201369,0.3617404,0.06931198,0.4419997,0.18183926,-0.27006406,0.2545044,0.38995612,0.2578779,0.11023247,-0.0082894955,-0.07363752,0.08582564,0.0091610085,795.78754,794.9817,800.2198,789.7436,826.4103,-0.2591552734375,0.06634521484375,0.9688720703125,2.848663330078125,-15.230255126953125,4.05242919921875,1,1.0,1.0,1.0,1.0,100.00
2021-04-11 22:44:18.306,0.7707996,0.7420239,0.2008731,0.9108102,0.067194775,0.26864251,-0.255718,0.3617404,0.06931198,-0.15483989,-0.0011971995,-0.27006406,0.2545044,0.4907217,0.24730815,0.11023247,-0.0082894955,-0.078861706,0.17620048,0.0091610085,774.43225,777.25275,772.4176,746.63007,692.6374,-0.27935791015625,0.03350830078125,0.97015380859375,1.338348388671875,-3.297271728515625,0.11962890625,1,1.0,1.0,1.0,1.0,100.00
2021-04-11 22:44:18.813,1.1980271,0.6541671,0.993982,1.0642656,0.019386042,-0.2745735,-0.09317729,-0.13492496,0.2688989,-0.0044618123,0.17516662,0.3314268,0.23803422,0.47360995,0.064338945,0.26789764,-0.09599793,-0.10041984,-0.07444022,-0.10762207,773.6264,771.2088,777.6557,805.4579,905.38464,-0.28466796875,0.01153564453125,0.9617919921875,4.1571044921875,-2.16827392578125,1.128997802734375,1,2.0,1.0,1.0,2.0,100.00
2021-04-11 22:44:19.124,,,,,,,,,,,,,,,,,,,,,,,,,,,,,,,,,,,,,,/muse/elements/blink
