TimeStamp,Delta_TP9,Delta_AF7,Delta_AF8,Delta_TP10,Theta_TP9,Theta_AF7,Theta_AF8,Theta_TP10,Alpha_TP9,Alpha_AF7,Alpha_AF8,Alpha_TP10,Beta_TP9,Beta_AF7,Beta_AF8,Beta_TP10,Gamma_TP9,Gamma_AF7,Gamma_AF8,Gamma_TP10,RAW_TP9,RAW_AF7,RAW_AF8,RAW_TP10,AUX_RIGHT,Accelerometer_X,Accelerometer_Y,Accelerometer_Z,Gyro_X,Gyro_Y,Gyro_Z,HeadBandOn,HSI_TP9,HSI_AF7,HSI_AF8,HSI_TP10,Battery,Elements
2021-04-08 22:19:25.159,1.2238548,0.7850359,0.6889193,1.436147,0.76394194,0.3396375,0.5468879,1.1684785,0.8500646,0.22092342,0.48093754,0.8837393,0.6920318,0.28969613,-0.009697406,0.5785262,-0.07670028,-0.23444772,-0.3829274,0.14306693,778.86444,768.3883,790.54944,790.14655,797.3993,0.068603515625,0.01953125,1.00238037109375,3.177642822265625,-5.63751220703125,0.25421142578125,1,2.0,1.0,1.0,2.0,100.00
2021-04-08 22:19:25.662,0.6762512,0.33100796,0.54962724,0.8854721,0.6738124,0.057773616,0.32852936,0.38036588,0.93413717,0.36595082,0.5405198,0.5345249,0.39396584,0.31440243,-0.024231,0.29888895,0.0783994,-0.116808206,-0.31991392,0.17013429,805.05493,770.40295,792.96704,805.05493,741.79486,0.07080078125,0.0079345703125,1.00921630859375,4.65057373046875,-6.078643798828125,5.682373046875,1,1.0,1.0,1.0,1.0,100.00
2021-04-08 22:19:26.165,0.716326,0.42714727,0.5738477,0.7971477,0.585114,0.32281184,0.3533544,0.3999759,0.98552406,0.60790557,0.5927809,0.58212066,0.39571476,0.28938058,0.058536325,0.4245573,0.13655537,-0.049064744,-0.18726583,0.17975806,830.0366,777.25275,802.23444,806.6667,725.6777,0.05462646484375,-0.03009033203125,1.01495361328125,8.949737548828125,-15.6414794921875,25.8697509765625,1,1.0,1.0,1.0,1.0,100.00
2021-04-08 22:19:26.671,0.78854483,0.5456958,0.53896254,0.8633509,0.79896224,0.45822892,0.39044657,0.68696177,1.1103103,0.6222351,0.5959576,0.7492286,0.5452931,0.20164855,0.13186993,0.522981,0.11622758,-0.050895054,-0.18786843,0.13792229,818.7546,786.9231,805.05493,815.5311,735.7509,0.1395263671875,-0.01220703125,0.996826171875,10.295562744140625,-8.26934814453125,20.1275634765625,1,1.0,1.0,1.0,1.0,100.00
2021-04-08 22:19:27.179,0.82116634,0.63449717,0.40867302,0.9197634,0.852826,0.4527061,0.26903695,0.81354636,1.0226848,0.6222351,0.6020752,0.7044208,0.6030316,0.09574747,0.20823257,0.6239115,0.13417046,-0.16761757,-0.21558993,0.12838045,816.7399,792.5641,816.337,815.12823,677.72894,0.14739990234375,0.05120849609375,0.9886474609375,9.34600830078125,-6.59454345703125,15.970458984375,1,1.0,1.0,1.0,1.0,100.00
2021-04-08 22:19:27.687,0.87477726,0.6131371,0.2684752,1.0490324,1.0588214,0.30455655,0.23621258,0.9889385,0.99526465,0.34347767,0.39578882,0.7044208,0.7418367,0.044560596,0.2732957,0.6937442,0.060136463,-0.30911326,-0.3199526,0.07028454,809.0842,771.6117,793.7729,808.68134,859.85345,0.2144775390625,0.0738525390625,0.968505859375,8.800201416015625,-4.538421630859375,-1.697235107421875,1,1.0,1.0,1.0,1.0,100.00
2021-04-08 22:19:27.859,,,,,,,,,,,,,,,,,,,,,,,,,,,,,,,,,,,,,,/muse/elements/blink
2021-04-08 22:19:28.197,1.6247267,0.5383532,0.35192493,1.5588771,1.5184664,0.14501438,0.18301938,1.5007646,1.3555824,0.049320508,0.35275435,1.2781233,0.8175804,-0.044864044,0.29086113,0.85496163,0.045798156,-0.3978437,-0.3541505,0.18444122,819.15753,766.3736,800.2198,830.0366,699.4872,0.29864501953125,0.125,0.905517578125,12.72552490234375,-14.9835205078125,-16.88262939453125,1,1.0,1.0,1.0,1.0,100.00
2021-04-08 22:19:28.704,1.6247267,0.49971557,0.5998833,1.5953581,1.5184664,0.09865998,0.20290866,1.5548937,1.3555824,0.14603253,0.5003324,1.2781233,0.8175804,0.11412225,0.23906144,0.8663495,0.045798156,-0.27811664,-0.3428532,0.18187024,802.6374,782.8938,797.3993,806.6667,637.8388,0.318359375,0.10772705078125,0.94757080078125,-5.719757080078125,-5.435638427734375,-1.9140625,1,1.0,1.0,1.0,1.0,100.00
2021-04-08 22:19:29.212,1.6247267,0.65872866,0.80563295,1.5953581,1.5184664,0.03947371,0.16428378,1.5548937,1.3555824,0.12800698,0.41209635,1.2781233,0.8175804,0.16980194,0.19280106,0.8663495,0.045798156,-0.22452262,-0.32402575,0.18187024,816.337,776.4469,803.0403,813.1135,906.5934,0.3072509765625,0.11102294921875,0.94622802734375,3.925323486328125,-5.263671875,-1.054229736328125,1,1.0,1.0,1.0,1.0,100.00
2021-04-08 22:19:29.716,1.6247267,0.7293042,0.9373947,1.6131546,1.5184664,0.22845557,0.006661283,1.5980805,1.3555824,0.25600132,0.39944255,1.2752161,0.8175804,0.21085258,0.11034353,0.8777229,0.045798156,-0.16720723,-0.36856404,0.22411716,821.1722,775.64105,803.44324,833.2601,944.0659,0.33929443359375,0.15472412109375,0.9615478515625,1.18133544921875,6.6094970703125,-11.835784912109375,1,1.0,1.0,1.0,1.0,100.00
2021-04-08 22:19:30.236,0.8161398,0.73748165,0.6318877,1.6131546,0.40442342,0.27961844,0.0881712,1.5980805,0.82135195,0.5418489,0.37591672,1.2752161,0.34462488,0.14564374,0.08585884,0.8777229,0.23230727,-0.14322402,-0.28653845,0.22411716,815.9341,801.8315,776.8498,784.10254,686.1905,0.2308349609375,0.24896240234375,0.93963623046875,3.33465576171875,-2.811279296875,-64.93606567382812,1,1.0,1.0,1.0,1.0,100.00
2021-04-08 22:19:30.547,,,,,,,,,,,,,,,,,,,,,,,,,,,,,,,,,,,,,,/muse/elements/blink
2021-04-08 22:19:30.745,0.8161398,0.650712,0.33755982,1.6131546,0.40442342,0.3061387,0.13174358,1.5980805,0.82135195,0.5418489,0.29507098,1.2752161,0.34462488,0.119710766,0.12906934,0.8777229,0.23230727,-0.1524812,-0.26384866,0.22411716,667.25275,624.5421,644.2857,676.1172,843.73627,-0.063720703125,0.13189697265625,1.001220703125,-10.250701904296875,2.026214599609375,-56.33026123046875,1,1.0,1.0,1.0,1.0,100.00
2021-04-08 22:19:31.264,0.99240506,0.72012144,0.377516,1.6131546,0.46573454,0.08983128,0.15569039,1.5980805,0.8086151,0.5418489,0.29191402,1.2752161,0.3401657,0.15352112,0.12553866,0.8777229,0.24196096,-0.08829339,-0.2526318,0.22411716,155.93407,101.13553,176.88644,141.8315,714.7985,-0.06195068359375,-0.07525634765625,0.98553466796875,-2.930908203125,8.605804443359375,-42.69256591796875,1,1.0,1.0,1.0,1.0,100.00
2021-04-08 22:19:31.411,,,,,,,,,,,,,,,,,,,,,,,,,,,,,,,,,,,,,,/muse/elements/blink
2021-04-08 22:19:31.787,0.99240506,0.7836333,0.5012172,1.6131546,0.46573454,0.1507868,0.2375342,1.5980805,0.8086151,0.54056066,0.27833307,1.2752161,0.3401657,0.1582508,0.16014148,0.8777229,0.24196096,-0.08557343,-0.27572697,0.22411716,788.5348,787.72894,760.32965,783.2967,815.5311,-0.14300537109375,0.01568603515625,0.9486083984375,7.49176025390625,-5.263671875,8.2244873046875,1,1.0,1.0,1.0,1.0,100.00
2021-04-08 22:19:32.127,,,,,,,,,,,,,,,,,,,,,,,,,,,,,,,,,,,,,,/muse/elements/blink
2021-04-08 22:19:32.291,0.99240506,0.7836333,0.5012172,1.6131546,0.46573454,0.1507868,0.2375342,1.5980805,0.8086151,0.54056066,0.27833307,1.2752161,0.3401657,0.1582508,0.16014148,0.8777229,0.24196096,-0.08557343,-0.27572697,0.22411716,946.08057,923.5165,956.9597,958.97437,809.4872,-0.0660400390625,-0.0728759765625,0.97796630859375,3.551483154296875,-3.775787353515625,0.94207763671875,1,1.0,1.0,1.0,1.0,100.00
2021-04-08 22:19:32.720,,,,,,,,,,,,,,,,,,,,,,,,,,,,,,,,,,,,,,/muse/elements/blink
2021-04-08 22:19:32.823,0.99240506,0.7836333,0.5012172,1.6131546,0.46573454,0.1507868,0.2375342,1.5980805,0.8086151,0.54056066,0.27833307,1.2752161,0.3401657,0.1582508,0.16014148,0.8777229,0.24196096,-0.08557343,-0.27572697,0.22411716,861.06226,836.08057,860.65936,884.43225,761.13556,-0.11761474609375,-0.00872802734375,1.01898193359375,10.684356689453125,-5.884246826171875,-7.888031005859375,1,1.0,1.0,1.0,2.0,100.00
2021-04-08 22:19:33.337,0.99240506,0.7836333,0.5012172,1.6131546,0.46573454,0.1507868,0.2375342,1.5980805,0.8086151,0.54056066,0.27833307,1.2752161,0.3401657,0.1582508,0.16014148,0.8777229,0.24196096,-0.08557343,-0.27572697,0.22411716,820.3663,813.1135,832.8571,845.34796,912.6374,-0.0660400390625,0.04296875,0.99658203125,9.7796630859375,5.682373046875,-0.755157470703125,1,2.0,1.0,1.0,2.0,100.00
2021-04-08 22:19:33.843,0.99240506,0.7836333,1.2067219,1.6131546,0.46573454,0.1507868,0.2372338,1.5980805,0.8086151,0.54056066,0.56997246,1.2752161,0.3401657,0.1582508,-0.035761744,0.8777229,0.24196096,-0.08557343,-0.017174441,0.22411716,845.7509,779.67035,839.304,864.2857,717.619,-0.00823974609375,0.19805908203125,0.99267578125,12.583465576171875,-0.95703125,26.191253662109375,1,2.0,1.0,1.0,2.0,100.00
2021-04-08 22:19:34.371,1.0021266,0.7836333,1.1576953,0.8189441,0.69563526,0.1507868,0.0853834,0.5764668,0.717182,0.54056066,0.6105864,0.4283583,0.62432873,0.1582508,0.17091945,0.6177926,-0.052654047,-0.08557343,-0.09646952,0.01846114,801.4286,806.6667,810.293,810.293,827.2161,-0.036376953125,0.068115234375,0.997314453125,2.1533203125,-0.83740234375,17.338714599609375,1,1.0,1.0,1.0,1.0,100.00
2021-04-08 22:19:34.733,,,,,,,,,,,,,,,,,,,,,,,,,,,,,,,,,,,,,,/muse/elements/blink
2021-04-08 22:19:34.899,1.0218232,1.2733591,1.1813531,0.8189441,0.66968274,0.9114432,0.088457406,0.5764668,0.72230065,0.6816364,0.6245221,0.4283583,0.6223446,0.26767945,0.24202354,0.6177926,-0.03399528,-0.15462272,-0.18896678,0.01846114,853.4066,811.9048,807.47253,835.2747,789.34064,-0.09295654296875,0.03753662109375,1.00604248046875,2.19818115234375,-4.687957763671875,15.469512939453125,1,1.0,1.0,1.0,1.0,100.00
2021-04-08 22:19:35.423,0.86126184,1.2733591,1.2222717,0.78438956,0.6381031,0.9114432,0.20765603,0.52603525,0.6949332,0.6816364,0.5516531,0.3628087,0.6133805,0.26767945,0.3220772,0.60913396,-0.09118354,-0.15462272,-0.26633847,-0.04165625,790.14655,795.38464,805.4579,816.337,776.4469,-0.09442138671875,0.02276611328125,0.99346923828125,-0.186920166015625,-1.757049560546875,8.157196044921875,1,1.0,1.0,1.0,1.0,100.00
2021-04-08 22:19:35.948,0.89164263,1.1542562,1.0935992,0.78438956,0.57314,0.7205819,0.3163438,0.52603525,0.5392604,0.6464984,0.47498438,0.3628087,0.6159001,0.19802329,0.25845894,0.60913396,-0.059065957,-0.16880094,-0.259096,-0.04165625,816.337,792.1612,805.05493,826.4103,799.011,-0.13372802734375,0.0238037109375,0.997802734375,4.71038818359375,-1.742095947265625,-2.07855224609375,1,1.0,1.0,1.0,1.0,100.00
2021-04-08 22:19:36.453,0.57102364,1.0497177,0.8441295,0.73949593,0.19658582,-0.045279082,0.39196846,-0.007317127,0.5093549,0.11060206,0.34205383,0.28316697,0.27503705,0.06806494,0.18291038,0.48187387,-0.0970639,-0.17190409,-0.15283884,-0.032457672,833.663,784.90845,807.0696,818.3516,757.1062,-0.09100341796875,-0.0013427734375,1.0010986328125,9.248809814453125,-9.16656494140625,-13.876953125,1,1.0,1.0,1.0,1.0,100.00
2021-04-08 22:19:36.962,0.6168002,0.9962582,0.38047147,0.7107378,0.08702035,0.27084735,0.28742313,-0.15906624,0.7342148,0.389293,0.37732843,0.3864061,0.43207288,0.18095185,0.119001865,0.41718638,-0.105526,-0.15553066,-0.15471435,-0.039880738,813.1135,774.83514,808.2784,793.36993,675.7143,-0.05267333984375,0.03643798828125,0.994873046875,10.0787353515625,-6.74407958984375,3.0206298828125,1,1.0,1.0,1.0,1.0,100.00
2021-04-08 22:19:37.480,0.6546329,1.0316355,0.45656934,0.77010113,0.14934391,0.4273932,0.18788524,-0.03913609,0.7246193,0.50051993,0.42650852,0.5355421,0.48733062,0.24454588,0.13686343,0.43961105,-0.11167873,-0.18387137,-0.14287588,-0.0819977,819.5604,794.17584,810.696,820.3663,879.59705,0.010009765625,0.079833984375,1.013671875,7.170257568359375,-16.28448486328125,24.322052001953125,1,1.0,1.0,1.0,1.0,100.00
2021-04-08 22:19:37.981,0.74107635,1.0765767,0.8128025,0.9415945,0.48800766,0.63568294,0.21604018,0.44267032,0.930933,0.6516527,0.46865937,0.77137387,0.5108354,0.28721476,0.07815751,0.48669317,-0.10212959,-0.2624917,-0.16962564,-0.1237732,788.1319,777.25275,788.93774,805.8608,910.2198,0.09521484375,0.16363525390625,0.9796142578125,24.04541015625,11.0357666015625,29.570770263671875,1,1.0,1.0,1.0,1.0,100.00
2021-04-08 22:19:38.494,0.7340338,1.2200431,0.9055237,1.0604634,0.6342272,0.6702662,0.41023687,0.75305825,0.83912104,0.66838324,0.4571347,0.9532068,0.4665417,0.19060466,0.08177599,0.5766662,-0.011809025,-0.3180628,-0.20856327,0.024537897,807.47253,791.3553,796.1905,811.50183,674.5055,0.1490478515625,0.17718505859375,0.9349365234375,-4.837493896484375,12.0526123046875,74.468994140625,1,1.0,1.0,1.0,1.0,100.00
2021-04-08 22:19:39.007,0.70966756,1.1663545,1.0645967,1.0350227,0.70936185,0.7960016,0.65815157,0.8510665,0.870597,0.8299868,0.42511618,0.92420065,0.47447374,0.12549002,0.055601202,0.5681342,0.044187892,-0.23261979,-0.24354783,0.10680167,820.3663,801.8315,790.54944,811.9048,645.09155,-0.06719970703125,-0.01348876953125,0.9576416015625,-12.733001708984375,-3.132781982421875,89.58709716796875,1,1.0,1.0,1.0,1.0,100.00
2021-04-08 22:19:39.523,0.984599,1.2273134,1.1441507,1.1033723,0.80329186,0.9667306,0.869182,0.9467011,0.84605366,0.75381845,0.26406333,1.0708599,0.5605358,0.11306781,0.08172928,0.49466905,0.07228876,-0.19296257,-0.28891632,0.11781312,667.6557,651.13556,713.1868,674.90845,672.49084,-0.16802978515625,-0.1063232421875,1.1357421875,-1.7047119140625,0.515899658203125,19.133148193359375,1,1.0,1.0,1.0,1.0,100.00
2021-04-08 22:19:39.719,,,,,,,,,,,,,,,,,,,,,,,,,,,,,,,,,,,,,,/muse/elements/blink
2021-04-08 22:19:40.029,1.1027032,1.1844864,1.2738063,1.1233612,0.89888334,1.1343294,0.9894319,0.95723194,0.81503594,0.71141934,0.23516779,0.9782173,0.59598583,0.13758944,0.05525997,0.39779815,0.09432722,-0.14831954,-0.2586543,0.05648329,824.7985,796.99634,819.5604,840.5128,764.7619,-0.09515380859375,-0.07879638671875,0.958740234375,13.50311279296875,-13.11431884765625,-19.9481201171875,1,1.0,1.0,1.0,1.0,100.00
2021-04-08 22:19:40.536,1.2366625,1.3079458,1.2895373,1.2710241,0.95200557,1.252718,1.0308988,1.0429512,0.81503594,0.69072485,0.21009426,0.9402827,0.6119755,0.1537526,0.06387404,0.3378625,0.09848344,-0.14899963,-0.30460435,-0.057516348,573.7729,523.4066,561.685,587.0696,1141.5018,-0.01776123046875,0.0072021484375,0.9801025390625,2.1533203125,0.478515625,-27.67913818359375,1,1.0,1.0,1.0,1.0,100.00
2021-04-08 22:19:40.721,,,,,,,,,,,,,,,,,,,,,,,,,,,,,,,,,,,,,,/muse/elements/blink
2021-04-08 22:19:41.040,1.249452,1.3079458,1.2895373,1.3453571,0.9588189,1.252718,1.0308988,1.1007502,0.8149305,0.69072485,0.21009426,0.91696477,0.6347599,0.1537526,0.06387404,0.3091719,0.1066069,-0.14899963,-0.30460435,-0.08662135,820.7692,787.72894,812.3077,831.2454,776.04395,0.07476806640625,0.029296875,0.9873046875,5.5029296875,-13.29376220703125,-13.26385498046875,1,1.0,1.0,1.0,1.0,100.00
2021-04-08 22:19:41.545,1.249452,1.3079458,1.2895373,1.3453571,0.9588189,1.252718,1.0308988,1.1007502,0.8149305,0.69072485,0.21009426,0.91696477,0.6347599,0.1537526,0.06387404,0.3091719,0.1066069,-0.14899963,-0.30460435,-0.08662135,817.5458,790.54944,810.696,828.4249,828.8278,0.0693359375,0.040283203125,1.00115966796875,4.583282470703125,-8.575897216796875,-5.54779052734375,1,1.0,1.0,1.0,1.0,100.00
2021-04-08 22:19:42.060,1.249452,1.3079458,1.2895373,1.3453571,0.9588189,1.252718,1.0308988,1.1007502,0.8149305,0.69072485,0.21009426,0.91696477,0.6347599,0.1537526,0.06387404,0.3091719,0.1066069,-0.14899963,-0.30460435,-0.08662135,791.75824,770.40295,790.54944,801.02563,710.3663,0.1029052734375,0.0126953125,1.02960205078125,3.9178466796875,-8.785247802734375,-7.1478271484375,1,1.0,1.0,1.0,1.0,100.00
2021-04-08 22:19:42.580,0.746907,0.6440832,0.7597105,0.8166489,0.46856275,-0.012828341,-0.0639061,0.5643775,0.4328994,0.21531208,0.15976757,0.6638849,0.3655115,0.090988606,0.24255997,0.52129585,0.0677821,-0.24784864,-0.19742127,0.24840868,798.20514,777.25275,796.1905,796.99634,694.65204,0.10736083984375,0.01611328125,0.99395751953125,5.644989013671875,-4.94964599609375,2.145843505859375,1,1.0,1.0,1.0,1.0,100.00
2021-04-08 22:19:43.084,0.7177341,0.6309171,0.7880813,0.78869593,0.35927668,-0.0529982,-0.13414997,0.52748305,0.49943966,0.3136813,0.23916434,0.6683574,0.38606313,0.11487621,0.1723401,0.53417796,0.08553624,-0.19067007,-0.22993758,0.2813177,809.89014,772.01465,789.34064,823.5897,849.3773,0.0550537109375,0.04852294921875,0.95269775390625,11.402130126953125,-2.579498291015625,2.145843505859375,1,1.0,1.0,1.0,1.0,100.00
2021-04-08 22:19:43.613,0.72196573,0.6149021,0.7419973,0.80613846,0.33628252,-0.01548772,-0.13088164,0.51806194,0.5344206,0.39263967,0.41786492,0.6632544,0.35257915,0.14942983,0.105375804,0.5430584,0.07526868,-0.20224857,-0.2273438,0.30331847,734.5421,731.7216,720.0366,752.27106,682.5641,0.0693359375,0.06170654296875,0.9962158203125,4.23187255859375,-8.95721435546875,5.54779052734375,1,1.0,1.0,1.0,1.0,100.00
2021-04-08 22:19:43.890,,,,,,,,,,,,,,,,,,,,,,,,,,,,,,,,,,,,,,/muse/elements/blink
2021-04-08 22:19:44.124,0.6292116,0.51062703,0.69783276,0.7299312,0.07923395,0.034230825,-0.12284258,0.41687927,0.42528406,0.39263967,0.5065442,0.4993685,0.4241238,0.17950034,0.037300646,0.5498175,0.10197878,-0.18238196,-0.2442931,0.3036367,783.2967,713.1868,683.36993,787.72894,779.67035,0.0814208984375,0.06207275390625,0.9915771484375,4.000091552734375,-5.57769775390625,-11.940460205078125,1,1.0,1.0,1.0,1.0,100.00
2021-04-08 22:19:44.654,0.4214755,0.34459317,0.50703937,0.60501987,-0.0062382487,0.17599559,-0.0091086775,0.2868969,0.39642265,0.3771009,0.50530076,0.321573,0.45845798,0.21316087,0.04525584,0.56050944,0.093633965,-0.28941226,-0.20489225,0.23860212,873.5531,848.97437,853.8095,875.56775,755.09155,0.0853271484375,0.0694580078125,0.99334716796875,3.596343994140625,-5.211334228515625,-9.652557373046875,1,1.0,1.0,1.0,1.0,100.00
2021-04-08 22:19:45.177,0.4214755,0.34459317,0.4887312,0.60501987,-0.0062382487,0.17599559,-0.015750716,0.2868969,0.39642265,0.3771009,0.49561992,0.321573,0.45845798,0.21316087,0.06042537,0.56050944,0.093633965,-0.28941226,-0.19139376,0.23860212,832.4542,809.0842,823.1868,821.978,831.2454,0.07696533203125,0.0919189453125,0.99005126953125,4.7552490234375,-5.046844482421875,-3.6785888671875,1,1.0,1.0,1.0,1.0,100.00
2021-04-08 22:19:45.685,0.4214755,0.34459317,0.4887312,1.1065698,-0.0062382487,0.17599559,-0.015750716,1.1773583,0.39642265,0.3771009,0.49561992,0.95197415,0.45845798,0.21316087,0.06042537,0.64408034,0.093633965,-0.28941226,-0.19139376,-0.04969342,824.7985,809.89014,824.3956,836.08057,857.8388,0.09674072265625,0.12249755859375,0.98712158203125,6.47491455078125,-8.904876708984375,-17.951812744140625,1,1.0,1.0,1.0,1.0,100.00
2021-04-08 22:19:46.188,0.4214755,0.34459317,0.4887312,1.051541,-0.0062382487,0.17599559,-0.015750716,1.0961473,0.39642265,0.3771009,0.49561992,0.9524792,0.45845798,0.21316087,0.06042537,0.6229305,0.093633965,-0.28941226,-0.19139376,-0.04152679,815.12823,798.60803,805.05493,810.696,788.93774,0.19989013671875,0.14190673828125,0.97943115234375,5.061798095703125,-1.921539306640625,27.94830322265625,1,1.0,1.0,1.0,1.0,100.00
2021-04-08 22:19:46.720,0.4214755,0.34459317,0.4887312,1.051541,-0.0062382487,0.17599559,-0.015750716,1.0961473,0.39642265,0.3771009,0.49561992,0.9524792,0.45845798,0.21316087,0.06042537,0.6229305,0.093633965,-0.28941226,-0.19139376,-0.04152679,804.65204,789.34064,793.36993,815.5311,682.96704,0.09625244140625,0.058349609375,0.977783203125,-0.70281982421875,4.957122802734375,39.754180908203125,1,1.0,1.0,1.0,1.0,100.00
2021-04-08 22:19:47.250,0.4214755,0.96215385,0.7781068,0.8490263,-0.0062382487,0.346937,0.32542202,0.90914494,0.39642265,0.20832257,0.30654287,0.6275814,0.45845798,-0.054477345,0.09598653,0.46330735,0.093633965,-0.4210935,-0.19363067,0.14654785,818.3516,805.05493,815.5311,826.0073,789.7436,-0.0245361328125,-0.00927734375,0.9610595703125,2.594451904296875,1.443023681640625,38.95416259765625,1,1.0,1.0,1.0,1.0,100.00
2021-04-08 22:19:47.762,0.6627687,0.85766447,0.7715169,0.64236385,0.5177387,0.46895993,0.2468267,0.75515276,0.6712804,0.37695962,0.30654287,0.609881,0.20660606,-0.079809576,0.03595002,0.44784874,-0.0914177,-0.19488068,-0.21910378,0.036331534,819.15753,798.20514,821.5751,818.3516,859.85345,-0.03179931640625,-0.0595703125,1.02862548828125,8.074951171875,-3.177642822265625,4.792633056640625,1,1.0,1.0,1.0,1.0,100.00
2021-04-08 22:19:48.268,0.66015005,0.8152573,0.73765695,0.6003732,0.48190838,0.42206404,0.18325064,0.671225,0.7348511,0.35592577,0.29360873,0.5719508,0.16815177,-0.14718905,-0.05096492,0.42056155,-0.12165067,-0.19259366,-0.31109855,-0.0427779,811.50183,777.6557,785.31134,802.23444,735.34796,-0.12249755859375,0.102783203125,0.99932861328125,1.487884521484375,3.297271728515625,28.59130859375,1,1.0,1.0,1.0,1.0,100.00
2021-04-08 22:19:48.792,0.61487806,0.6806996,0.67700225,0.47330323,0.4112525,0.41575643,0.10936706,0.49436104,0.71063495,0.32098517,-0.02058109,0.5290887,0.16130337,-0.15431634,-0.1559777,0.4334212,-0.12005441,-0.12163274,-0.51506937,-0.13982166,749.0476,711.978,717.2161,720.0366,837.28937,-0.1754150390625,0.11956787109375,0.99530029296875,4.246826171875,-6.80389404296875,6.362762451171875,1,1.0,1.0,1.0,1.0,100.00
2021-04-08 22:19:49.304,0.655927,0.67461276,0.67700225,0.6173594,0.41761613,0.107202694,0.10936706,0.5559283,0.2982105,-0.19773991,-0.02058109,0.35829684,0.09852395,-0.2600153,-0.1559777,0.42483225,-0.17487958,-0.20495178,-0.51506937,-0.105437405,838.9011,811.0989,813.5165,822.381,614.0659,-0.19775390625,0.034423828125,0.984130859375,3.33465576171875,-5.106658935546875,1.143951416015625,1,1.0,1.0,1.0,1.0,100.00
2021-04-08 22:19:49.831,0.61563385,0.67461276,0.67700225,0.54327804,0.46990898,0.107202694,0.10936706,0.48493052,0.27900138,-0.19773991,-0.02058109,0.3409425,0.04990409,-0.2600153,-0.1559777,0.48745075,-0.20396377,-0.20495178,-0.51506937,-0.03779839,709.5604,734.94507,758.71796,712.381,762.74725,-0.1448974609375,0.171875,0.97637939453125,2.67669677734375,-9.084320068359375,2.7215576171875,1,1.0,1.0,1.0,1.0,100.00
2021-04-08 22:19:49.834,,,,,,,,,,,,,,,,,,,,,,,,,,,,,,,,,,,,,,/muse/elements/blink
2021-04-08 22:19:50.340,0.61563385,0.67461276,0.67700225,0.54327804,0.46990898,0.107202694,0.10936706,0.48493052,0.27900138,-0.19773991,-0.02058109,0.3409425,0.04990409,-0.2600153,-0.1559777,0.48745075,-0.20396377,-0.20495178,-0.51506937,-0.03779839,754.2857,737.76556,740.58606,758.71796,787.326,-0.25653076171875,0.107421875,0.9686279296875,1.801910400390625,3.386993408203125,4.90478515625,1,1.0,1.0,1.0,1.0,100.00
2021-04-08 22:19:50.605,,,,,,,,,,,,,,,,,,,,,,,,,,,,,,,,,,,,,,/muse/elements/blink
2021-04-08 22:19:50.770,,,,,,,,,,,,,,,,,,,,,,,,,,,,,,,,,,,,,,/muse/elements/blink
2021-04-08 22:19:50.865,0.61563385,0.67461276,0.67700225,0.54327804,0.46990898,0.107202694,0.10936706,0.48493052,0.27900138,-0.19773991,-0.02058109,0.3409425,0.04990409,-0.2600153,-0.1559777,0.48745075,-0.20396377,-0.20495178,-0.51506937,-0.03779839,836.08057,824.7985,828.8278,826.0073,666.04395,-0.2198486328125,0.11749267578125,0.97198486328125,12.69561767578125,-9.04693603515625,-5.734710693359375,1,1.0,1.0,1.0,1.0,100.00
2021-04-08 22:19:51.394,0.61563385,0.67461276,0.67700225,0.54327804,0.46990898,0.107202694,0.10936706,0.48493052,0.27900138,-0.19773991,-0.02058109,0.3409425,0.04990409,-0.2600153,-0.1559777,0.48745075,-0.20396377,-0.20495178,-0.51506937,-0.03779839,786.1172,765.16486,828.8278,811.9048,867.9121,-0.2244873046875,0.19842529296875,0.9666748046875,-0.0,0.2093505859375,5.525360107421875,1,2.0,1.0,1.0,2.0,100.00
2021-04-08 22:19:51.917,0.61563385,0.67461276,0.67700225,0.54327804,0.46990898,0.107202694,0.10936706,0.48493052,0.27900138,-0.19773991,-0.02058109,0.3409425,0.04990409,-0.2600153,-0.1559777,0.48745075,-0.20396377,-0.20495178,-0.51506937,-0.03779839,827.619,798.20514,817.1429,817.9487,653.5531,-0.23626708984375,0.08624267578125,1.02593994140625,-5.443115234375,0.5084228515625,-1.562652587890625,1,2.0,1.0,1.0,2.0,100.00
2021-04-08 22:19:52.416,,,,,,,,,,,,,,,,,,,,,,,,,,,,,,,,,,,,,,/muse/elements/blink
2021-04-08 22:19:52.444,0.61563385,0.67461276,0.67700225,0.54327804,0.46990898,0.107202694,0.10936706,0.48493052,0.27900138,-0.19773991,-0.02058109,0.3409425,0.04990409,-0.2600153,-0.1559777,0.48745075,-0.20396377,-0.20495178,-0.51506937,-0.03779839,774.0293,752.27106,778.86444,775.64105,641.4652,-0.1761474609375,0.13983154296875,0.99029541015625,10.4974365234375,-16.247100830078125,0.560760498046875,1,2.0,1.0,1.0,2.0,100.00
2021-04-08 22:19:52.842,,,,,,,,,,,,,,,,,,,,,,,,,,,,,,,,,,,,,,/muse/elements/blink
2021-04-08 22:19:52.972,0.61563385,0.67461276,0.67700225,0.54327804,0.46990898,0.107202694,0.10936706,0.48493052,0.27900138,-0.19773991,-0.02058109,0.3409425,0.04990409,-0.2600153,-0.1559777,0.48745075,-0.20396377,-0.20495178,-0.51506937,-0.03779839,820.7692,793.7729,809.4872,818.3516,918.68134,-0.1739501953125,0.14862060546875,0.98345947265625,1.9140625,-0.4486083984375,-1.024322509765625,1,2.0,1.0,1.0,2.0,100.00
2021-04-08 22:19:53.501,0.61563385,0.67461276,0.67700225,0.54327804,0.46990898,0.107202694,0.10936706,0.48493052,0.27900138,-0.19773991,-0.02058109,0.3409425,0.04990409,-0.2600153,-0.1559777,0.48745075,-0.20396377,-0.20495178,-0.51506937,-0.03779839,833.663,811.50183,807.0696,834.4689,817.5458,-0.23077392578125,0.07440185546875,0.95355224609375,4.538421630859375,7.334747314453125,-3.686065673828125,1,2.0,1.0,1.0,2.0,100.00
2021-04-08 22:19:53.830,,,,,,,,,,,,,,,,,,,,,,,,,,,,,,,,,,,,,,/muse/elements/blink
2021-04-08 22:19:54.023,0.61563385,0.67461276,0.67700225,0.54327804,0.46990898,0.107202694,0.10936706,0.48493052,0.27900138,-0.19773991,-0.02058109,0.3409425,0.04990409,-0.2600153,-0.1559777,0.48745075,-0.20396377,-0.20495178,-0.51506937,-0.03779839,787.72894,763.95605,774.0293,803.0403,966.2271,-0.2161865234375,0.12103271484375,0.97271728515625,2.429962158203125,-10.699310302734375,-9.49554443359375,1,2.0,1.0,1.0,2.0,100.00
2021-04-08 22:19:54.432,,,,,,,,,,,,,,,,,,,,,,,,,,,,,,,,,,,,,,/muse/elements/blink
2021-04-08 22:19:54.529,0.61563385,0.67461276,0.67700225,0.54327804,0.46990898,0.107202694,0.10936706,0.48493052,0.27900138,-0.19773991,-0.02058109,0.3409425,0.04990409,-0.2600153,-0.1559777,0.48745075,-0.20396377,-0.20495178,-0.51506937,-0.03779839,805.8608,762.74725,775.2381,810.293,798.60803,-0.19757080078125,0.1258544921875,0.9737548828125,5.719757080078125,-6.98333740234375,-1.854248046875,1,2.0,1.0,1.0,2.0,100.00
2021-04-08 22:19:55.044,0.61563385,0.67461276,0.67700225,0.54327804,0.46990898,0.107202694,0.10936706,0.48493052,0.27900138,-0.19773991,-0.02058109,0.3409425,0.04990409,-0.2600153,-0.1559777,0.48745075,-0.20396377,-0.20495178,-0.51506937,-0.03779839,812.71063,764.7619,803.0403,814.7253,670.87915,-0.1983642578125,0.13153076171875,0.9794921875,5.15899658203125,-4.366455078125,3.043060302734375,1,2.0,1.0,1.0,2.0,100.00
2021-04-08 22:19:55.551,0.61563385,0.67461276,0.67700225,0.54327804,0.46990898,0.107202694,0.10936706,0.48493052,0.27900138,-0.19773991,-0.02058109,0.3409425,0.04990409,-0.2600153,-0.1559777,0.48745075,-0.20396377,-0.20495178,-0.51506937,-0.03779839,760.32965,723.2601,726.08057,756.30035,641.06226,-0.18914794921875,0.12506103515625,0.977294921875,4.71038818359375,-5.630035400390625,1.45050048828125,1,2.0,1.0,1.0,2.0,100.00
2021-04-08 22:19:56.059,0.61563385,0.67461276,0.67700225,0.54327804,0.46990898,0.107202694,0.10936706,0.48493052,0.27900138,-0.19773991,-0.02058109,0.3409425,0.04990409,-0.2600153,-0.1559777,0.48745075,-0.20396377,-0.20495178,-0.51506937,-0.03779839,833.663,801.8315,801.4286,834.87177,853.00366,-0.1826171875,0.1160888671875,0.9803466796875,4.777679443359375,-6.08612060546875,1.0467529296875,1,2.0,1.0,1.0,2.0,100.00
2021-04-08 22:19:56.571,0.61563385,0.67461276,0.67700225,0.54327804,0.46990898,0.107202694,0.10936706,0.48493052,0.27900138,-0.19773991,-0.02058109,0.3409425,0.04990409,-0.2600153,-0.1559777,0.48745075,-0.20396377,-0.20495178,-0.51506937,-0.03779839,698.68134,789.34064,831.6484,697.47253,746.2271,-0.18658447265625,0.10394287109375,0.98419189453125,-3.910369873046875,-2.88604736328125,15.89569091796875,1,2.0,1.0,1.0,2.0,100.00
2021-04-08 22:19:56.651,,,,,,,,,,,,,,,,,,,,,,,,,,,,,,,,,,,,,,/muse/elements/blink
2021-04-08 22:19:57.080,0.61563385,0.67461276,0.67700225,0.54327804,0.46990898,0.107202694,0.10936706,0.48493052,0.27900138,-0.19773991,-0.02058109,0.3409425,0.04990409,-0.2600153,-0.1559777,0.48745075,-0.20396377,-0.20495178,-0.51506937,-0.03779839,831.2454,800.2198,805.4579,810.696,787.72894,-0.19476318359375,0.0572509765625,0.98236083984375,3.252410888671875,-8.20953369140625,4.822540283203125,1,2.0,1.0,1.0,2.0,100.00
2021-04-08 22:19:57.590,0.61563385,0.67461276,0.67700225,0.54327804,0.46990898,0.107202694,0.10936706,0.48493052,0.27900138,-0.19773991,-0.02058109,0.3409425,0.04990409,-0.2600153,-0.1559777,0.48745075,-0.20396377,-0.20495178,-0.51506937,-0.03779839,734.5421,711.5751,736.55676,734.5421,763.1502,-0.18841552734375,0.05560302734375,0.96636962890625,7.424468994140625,-5.7122802734375,3.1103515625,1,2.0,1.0,1.0,2.0,100.00
2021-04-08 22:19:58.098,0.61563385,0.67461276,0.67700225,0.54327804,0.46990898,0.107202694,0.10936706,0.48493052,0.27900138,-0.19773991,-0.02058109,0.3409425,0.04990409,-0.2600153,-0.1559777,0.48745075,-0.20396377,-0.20495178,-0.51506937,-0.03779839,801.4286,774.83514,788.1319,816.337,954.94507,-0.13909912109375,0.0699462890625,0.99090576171875,3.1402587890625,-0.22430419921875,1.786956787109375,1,2.0,1.0,1.0,2.0,100.00
2021-04-08 22:19:58.616,0.61563385,0.67461276,0.67700225,0.54327804,0.46990898,0.107202694,0.10936706,0.48493052,0.27900138,-0.19773991,-0.02058109,0.3409425,0.04990409,-0.2600153,-0.1559777,0.48745075,-0.20396377,-0.20495178,-0.51506937,-0.03779839,816.7399,792.1612,806.6667,832.4542,945.2747,-0.17559814453125,0.08056640625,0.96490478515625,5.001983642578125,6.587066650390625,0.859832763671875,1,2.0,1.0,1.0,2.0,100.00
2021-04-08 22:19:59.119,0.61563385,0.67461276,0.67700225,0.54327804,0.46990898,0.107202694,0.10936706,0.48493052,0.27900138,-0.19773991,-0.02058109,0.3409425,0.04990409,-0.2600153,-0.1559777,0.48745075,-0.20396377,-0.20495178,-0.51506937,-0.03779839,669.67035,643.8828,654.7619,664.83514,691.8315,-0.22198486328125,0.14422607421875,0.96966552734375,3.887939453125,-11.6937255859375,0.13458251953125,1,2.0,1.0,1.0,2.0,100.00
2021-04-08 22:19:59.628,0.61563385,0.67461276,0.67700225,0.54327804,0.46990898,0.107202694,0.10936706,0.48493052,0.27900138,-0.19773991,-0.02058109,0.3409425,0.04990409,-0.2600153,-0.1559777,0.48745075,-0.20396377,-0.20495178,-0.51506937,-0.03779839,822.381,807.0696,803.0403,820.7692,710.3663,-0.17950439453125,0.14288330078125,0.9727783203125,4.717864990234375,-8.17962646484375,-2.474822998046875,1,2.0,1.0,1.0,2.0,100.00
2021-04-08 22:20:00.142,0.61563385,0.67461276,0.67700225,0.54327804,0.46990898,0.107202694,0.10936706,0.48493052,0.27900138,-0.19773991,-0.02058109,0.3409425,0.04990409,-0.2600153,-0.1559777,0.48745075,-0.20396377,-0.20495178,-0.51506937,-0.03779839,757.9121,736.1539,751.4652,762.3443,786.9231,-0.19964599609375,0.1387939453125,0.98602294921875,3.30474853515625,0.13458251953125,3.39447021484375,1,2.0,1.0,1.0,2.0,100.00
2021-04-08 22:20:00.423,,,,,,,,,,,,,,,,,,,,,,,,,,,,,,,,,,,,,,/muse/elements/blink
2021-04-08 22:20:00.651,0.61563385,0.67461276,0.67700225,0.54327804,0.46990898,0.107202694,0.10936706,0.48493052,0.27900138,-0.19773991,-0.02058109,0.3409425,0.04990409,-0.2600153,-0.1559777,0.48745075,-0.20396377,-0.20495178,-0.51506937,-0.03779839,771.6117,757.9121,772.01465,769.59705,614.4689,-0.1976318359375,0.11944580078125,0.97979736328125,6.95343017578125,-9.510498046875,0.067291259765625,1,2.0,1.0,1.0,2.0,100.00
2021-04-08 22:20:01.161,0.61563385,0.67461276,0.67700225,0.54327804,0.46990898,0.107202694,0.10936706,0.48493052,0.27900138,-0.19773991,-0.02058109,0.3409425,0.04990409,-0.2600153,-0.1559777,0.48745075,-0.20396377,-0.20495178,-0.51506937,-0.03779839,848.5714,819.9634,823.1868,825.6044,838.0952,-0.17449951171875,0.128173828125,0.9630126953125,4.486083984375,-11.23016357421875,-8.17962646484375,1,2.0,1.0,1.0,2.0,100.00
2021-04-08 22:20:01.671,0.61563385,0.67461276,0.67700225,0.54327804,0.46990898,0.107202694,0.10936706,0.48493052,0.27900138,-0.19773991,-0.02058109,0.3409425,0.04990409,-0.2600153,-0.1559777,0.48745075,-0.20396377,-0.20495178,-0.51506937,-0.03779839,799.41394,777.6557,795.38464,802.6374,936.4103,-0.1871337890625,0.12518310546875,0.97467041015625,-0.37384033203125,-0.0299072265625,0.478515625,1,2.0,1.0,1.0,2.0,100.00
2021-04-08 22:20:02.179,0.61563385,0.67461276,0.67700225,0.54327804,0.46990898,0.107202694,0.10936706,0.48493052,0.27900138,-0.19773991,-0.02058109,0.3409425,0.04990409,-0.2600153,-0.1559777,0.48745075,-0.20396377,-0.20495178,-0.51506937,-0.03779839,802.23444,764.35895,784.10254,813.1135,856.2271,-0.22503662109375,0.0054931640625,0.964111328125,0.814971923828125,-12.2320556640625,-0.8074951171875,1,2.0,1.0,1.0,2.0,100.00
2021-04-08 22:20:02.296,,,,,,,,,,,,,,,,,,,,,,,,,,,,,,,,,,,,,,/muse/elements/blink
2021-04-08 22:20:02.695,0.61563385,0.67461276,0.67700225,0.54327804,0.46990898,0.107202694,0.10936706,0.48493052,0.27900138,-0.19773991,-0.02058109,0.3409425,0.04990409,-0.2600153,-0.1559777,0.48745075,-0.20396377,-0.20495178,-0.51506937,-0.03779839,813.91943,783.2967,806.6667,826.0073,917.0696,-0.24273681640625,0.027099609375,0.97271728515625,3.78326416015625,-3.81317138671875,-7.25250244140625,1,2.0,1.0,1.0,2.0,100.00
2021-04-08 22:20:03.112,,,,,,,,,,,,,,,,,,,,,,,,,,,,,,,,,,,,,,/muse/elements/blink
2021-04-08 22:20:03.203,0.61563385,0.67461276,0.67700225,0.54327804,0.46990898,0.107202694,0.10936706,0.48493052,0.27900138,-0.19773991,-0.02058109,0.3409425,0.04990409,-0.2600153,-0.1559777,0.48745075,-0.20396377,-0.20495178,-0.51506937,-0.03779839,772.8205,731.31866,751.8681,770.0,649.12085,-0.23626708984375,0.01922607421875,0.974853515625,5.525360107421875,-5.8319091796875,1.114044189453125,1,2.0,1.0,1.0,2.0,100.00
2021-04-08 22:20:03.708,0.61563385,0.67461276,0.67700225,0.54327804,0.46990898,0.107202694,0.10936706,0.48493052,0.27900138,-0.19773991,-0.02058109,0.3409425,0.04990409,-0.2600153,-0.1559777,0.48745075,-0.20396377,-0.20495178,-0.51506937,-0.03779839,780.87915,758.315,770.0,786.52014,736.9597,-0.23858642578125,0.0289306640625,0.9749755859375,4.5159912109375,-4.523468017578125,5.151519775390625,1,2.0,1.0,1.0,2.0,100.00
2021-04-08 22:20:03.984,,,,,,,,,,,,,,,,,,,,,,,,,,,,,,,,,,,,,,/muse/elements/blink
2021-04-08 22:20:04.218,0.61563385,0.67461276,0.67700225,0.54327804,0.46990898,0.107202694,0.10936706,0.48493052,0.27900138,-0.19773991,-0.02058109,0.3409425,0.04990409,-0.2600153,-0.1559777,0.48745075,-0.20396377,-0.20495178,-0.51506937,-0.03779839,815.9341,786.52014,787.326,823.9927,800.6227,-0.23614501953125,0.02447509765625,0.97406005859375,4.71038818359375,-4.762725830078125,2.459869384765625,1,2.0,1.0,1.0,2.0,100.00
2021-04-08 22:20:04.729,0.61563385,0.67461276,0.67700225,0.54327804,0.46990898,0.107202694,0.10936706,0.48493052,0.27900138,-0.19773991,-0.02058109,0.3409425,0.04990409,-0.2600153,-0.1559777,0.48745075,-0.20396377,-0.20495178,-0.51506937,-0.03779839,813.1135,796.1905,808.68134,802.6374,598.7546,-0.22686767578125,0.02166748046875,0.9737548828125,4.732818603515625,-6.392669677734375,-0.82244873046875,1,2.0,1.0,1.0,2.0,100.00
2021-04-08 22:20:05.242,0.61563385,0.67461276,0.67700225,0.54327804,0.46990898,0.107202694,0.10936706,0.48493052,0.27900138,-0.19773991,-0.02058109,0.3409425,0.04990409,-0.2600153,-0.1559777,0.48745075,-0.20396377,-0.20495178,-0.51506937,-0.03779839,788.1319,753.0769,775.2381,788.93774,756.7033,-0.224365234375,0.02386474609375,0.98333740234375,4.85992431640625,-3.768310546875,0.680389404296875,1,2.0,1.0,1.0,2.0,100.00
2021-04-08 22:20:05.523,,,,,,,,,,,,,,,,,,,,,,,,,,,,,,,,,,,,,,/muse/elements/blink
2021-04-08 22:20:05.751,0.61563385,1.1935819,1.074918,1.1399953,0.46990898,1.0993927,0.88684875,0.98927677,0.27900138,1.2300701,0.98050827,1.1525056,0.04990409,0.4732663,0.58267856,0.66198295,-0.20396377,-0.0596307,0.08462975,0.08522273,823.1868,815.12823,807.8755,824.3956,866.7033,-0.23931884765625,0.01788330078125,0.97271728515625,4.844970703125,-3.72344970703125,-1.622467041015625,1,2.0,1.0,1.0,2.0,100.00
2021-04-08 22:20:06.260,1.2977427,1.1935819,1.186956,1.2186617,1.1293349,1.0993927,0.96743137,1.0751432,1.2801701,1.2300701,1.012175,1.1808425,0.75420856,0.4732663,0.62120426,0.6862326,-0.0104553355,-0.0596307,0.11744786,0.09709118,819.5604,798.60803,813.1135,817.9487,843.73627,-0.23199462890625,0.00823974609375,0.976318359375,4.777679443359375,-6.198272705078125,0.25421142578125,1,1.0,1.0,1.0,1.0,100.00
2021-04-08 22:20:06.504,,,,,,,,,,,,,,,,,,,,,,,,,,,,,,,,,,,,,,/muse/elements/blink
2021-04-08 22:20:06.767,1.2977427,1.2081369,1.246234,1.2221012,1.1293349,1.1658537,1.0213948,1.1105123,1.2801701,1.2300701,1.012175,1.1808425,0.75420856,0.4829599,0.65960777,0.694894,-0.0104553355,-0.0663185,0.15174857,0.091711454,833.2601,796.5934,809.89014,830.84247,698.68134,-0.2332763671875,0.00811767578125,0.975341796875,4.358978271484375,-4.42626953125,0.6280517578125,1,1.0,1.0,1.0,1.0,100.00
2021-04-08 22:20:07.282,1.2977427,0.7554011,1.3937709,1.2051479,1.1293349,1.125591,1.1674997,1.1292584,1.2801701,1.0025475,1.012175,1.1668259,0.75420856,0.21713214,0.76137024,0.66579944,-0.0104553355,-0.26518157,0.2349571,0.06983648,833.2601,803.8461,806.26373,822.7839,668.0586,-0.23590087890625,0.009521484375,0.97344970703125,4.4561767578125,-4.613189697265625,0.5682373046875,1,1.0,1.0,1.0,1.0,100.00
2021-04-08 22:20:07.728,,,,,,,,,,,,,,,,,,,,,,,,,,,,,,,,,,,,,,/muse/elements/blink
2021-04-08 22:20:07.791,1.2977427,0.60533345,0.4156747,1.2051479,1.1293349,0.9596894,0.060737286,1.1292584,1.2801701,1.0025475,0.22407272,1.1668259,0.75420856,0.18906327,0.19858024,0.66579944,-0.0104553355,-0.28106645,-0.51913744,0.06983648,865.89746,809.89014,805.4579,867.9121,768.3883,-0.2283935546875,0.0093994140625,0.97802734375,4.56085205078125,-5.5029296875,2.3028564453125,1,1.0,1.0,1.0,1.0,100.00
2021-04-08 22:20:08.299,1.2977427,0.54758364,0.4156747,1.2051479,1.1293349,0.9187254,0.060737286,1.1292584,1.2801701,0.9968243,0.22407272,1.1668259,0.75420856,0.18768875,0.19858024,0.66579944,-0.0104553355,-0.28911948,-0.51913744,0.06983648,830.0366,799.011,817.9487,838.49817,968.6447,-0.23223876953125,0.00469970703125,0.9757080078125,4.912261962890625,-3.850555419921875,2.1832275390625,1,1.0,1.0,1.0,1.0,100.00
2021-04-08 22:20:08.806,1.2977427,-0.044906966,0.30823073,1.2051479,1.1293349,0.0046354774,0.07832597,1.1292584,1.2801701,0.10417214,0.15846552,1.1668259,0.75420856,0.16257893,0.19209395,0.66579944,-0.0104553355,-0.31756425,-0.44986206,0.06983648,813.91943,796.99634,802.6374,806.6667,755.89746,-0.23602294921875,0.0020751953125,0.97760009765625,4.18701171875,-4.62066650390625,5.203857421875,1,1.0,1.0,1.0,1.0,100.00
2021-04-08 22:20:09.324,0.63549197,0.08472966,0.2885497,0.38356343,-0.036255218,-0.15739568,-0.063135944,-0.21469858,-0.3670819,-0.0582154,-0.1989484,0.28119594,0.30679405,0.089126565,0.15065072,0.625171,-0.33730572,-0.2202573,-0.3781526,-0.037244834,815.5311,791.75824,807.0696,806.26373,628.1685,-0.2142333984375,0.0155029296875,0.99053955078125,4.26177978515625,-12.075042724609375,-4.41131591796875,1,1.0,1.0,1.0,1.0,100.00
2021-04-08 22:20:09.833,0.5029986,0.16799174,0.3654379,0.4455084,0.14110492,3.619588E-4,0.07939471,-0.07829728,-0.027658843,-0.028763983,0.01786865,0.4335247,0.22136727,-0.0073248856,0.09423567,0.46146637,-0.21858689,-0.30278274,-0.39804462,-0.051789295,743.8095,772.01465,829.2308,749.85345,971.8681,-0.11029052734375,-0.02490234375,1.00390625,3.312225341796875,-7.454376220703125,-8.23944091796875,1,1.0,1.0,1.0,1.0,100.00
2021-04-08 22:20:10.262,,,,,,,,,,,,,,,,,,,,,,,,,,,,,,,,,,,,,,/muse/elements/blink
2021-04-08 22:20:10.338,0.5029986,0.34107286,0.4038747,0.4455084,0.14110492,0.057577953,0.26402378,-0.07829728,-0.027658843,-0.0029825987,0.2576953,0.4335247,0.22136727,0.011146548,0.15912783,0.46146637,-0.21858689,-0.31483775,-0.40048975,-0.051789295,658.7912,1625.4213,722.4542,661.2088,713.5897,-0.053955078125,-0.06298828125,0.99884033203125,6.6094970703125,-3.596343994140625,3.78326416015625,1,1.0,1.0,1.0,1.0,100.00
2021-04-08 22:20:10.696,,,,,,,,,,,,,,,,,,,,,,,,,,,,,,,,,,,,,,/muse/elements/blink
2021-04-08 22:20:10.851,0.3570714,0.44781867,0.46228254,0.49971077,0.24430041,0.15240403,0.42748544,0.025347808,-0.032675024,-0.10504431,0.23720704,0.40922776,0.13839707,-0.04581841,0.17007338,0.19560789,-0.1425493,-0.38647807,-0.39991152,-0.06683778,813.1135,1625.0183,780.87915,799.011,665.64105,-0.06494140625,-0.031982421875,1.00689697265625,6.018829345703125,-5.241241455078125,-1.92901611328125,1,1.0,1.0,1.0,1.0,100.00
2021-04-08 22:20:11.316,,,,,,,,,,,,,,,,,,,,,,,,,,,,,,,,,,,,,,/muse/elements/blink
2021-04-08 22:20:11.361,0.34780422,0.577459,0.5056932,0.5650082,0.2809244,0.208083,0.6199715,0.08203173,-0.03410289,-0.2266147,0.21267973,0.40434813,0.15411463,0.024886383,0.3114527,0.16443965,-0.11865906,-0.35989925,-0.39683717,-0.10543409,936.8132,516.55676,848.1685,935.6044,855.0183,-0.1337890625,-0.01239013671875,0.99212646484375,6.71417236328125,-1.12152099609375,13.9068603515625,1,1.0,1.0,1.0,1.0,100.00
2021-04-08 22:20:11.714,,,,,,,,,,,,,,,,,,,,,,,,,,,,,,,,,,,,,,/muse/elements/blink
2021-04-08 22:20:11.891,0.34780422,0.577459,0.5056932,0.5650082,0.2809244,0.208083,0.6199715,0.08203173,-0.03410289,-0.2266147,0.21267973,0.40434813,0.15411463,0.024886383,0.3114527,0.16443965,-0.11865906,-0.35989925,-0.39683717,-0.10543409,900.54944,496.8132,876.77655,906.1905,768.7912,-0.1546630859375,-0.05206298828125,0.99554443359375,-4.852447509765625,-0.949554443359375,7.3870849609375,1,1.0,1.0,1.0,1.0,100.00
2021-04-08 22:20:12.418,0.34780422,0.577459,0.5056932,0.5650082,0.2809244,0.208083,0.6199715,0.08203173,-0.03410289,-0.2266147,0.21267973,0.40434813,0.15411463,0.024886383,0.3114527,0.16443965,-0.11865906,-0.35989925,-0.39683717,-0.10543409,790.14655,425.09158,800.6227,810.293,976.30035,-0.21673583984375,0.026123046875,0.9808349609375,6.646881103515625,-4.717864990234375,12.359161376953125,1,1.0,1.0,1.0,1.0,100.00
2021-04-08 22:20:12.422,,,,,,,,,,,,,,,,,,,,,,,,,,,,,,,,,,,,,,/muse/elements/blink
2021-04-08 22:20:12.925,0.34780422,0.577459,0.5056932,0.5650082,0.2809244,0.208083,0.6199715,0.08203173,-0.03410289,-0.2266147,0.21267973,0.40434813,0.15411463,0.024886383,0.3114527,0.16443965,-0.11865906,-0.35989925,-0.39683717,-0.10543409,741.79486,482.30768,707.5458,743.8095,1001.28204,-0.1915283203125,0.0828857421875,0.9608154296875,7.94036865234375,-5.659942626953125,-0.16448974609375,1,2.0,1.0,1.0,2.0,100.00
2021-04-08 22:20:12.929,,,,,,,,,,,,,,,,,,,,,,,,,,,,,,,,,,,,,,/muse/elements/blink
2021-04-08 22:20:13.310,,,,,,,,,,,,,,,,,,,,,,,,,,,,,,,,,,,,,,/muse/elements/blink
2021-04-08 22:20:13.440,0.34780422,0.577459,0.5056932,0.5650082,0.2809244,0.208083,0.6199715,0.08203173,-0.03410289,-0.2266147,0.21267973,0.40434813,0.15411463,0.024886383,0.3114527,0.16443965,-0.11865906,-0.35989925,-0.39683717,-0.10543409,861.06226,693.44324,848.1685,863.8828,699.4872,-0.2147216796875,0.072265625,0.96923828125,5.031890869140625,-1.62994384765625,7.304840087890625,1,2.0,1.0,1.0,2.0,100.00
2021-04-08 22:20:13.780,,,,,,,,,,,,,,,,,,,,,,,,,,,,,,,,,,,,,,/muse/elements/blink
2021-04-08 22:20:13.965,0.34780422,0.577459,0.5056932,0.5650082,0.2809244,0.208083,0.6199715,0.08203173,-0.03410289,-0.2266147,0.21267973,0.40434813,0.15411463,0.024886383,0.3114527,0.16443965,-0.11865906,-0.35989925,-0.39683717,-0.10543409,863.8828,723.2601,839.304,846.55676,576.5934,-0.21160888671875,0.04302978515625,0.9783935546875,2.811279296875,-5.988922119140625,-2.46734619140625,1,2.0,1.0,1.0,2.0,100.00
2021-04-08 22:20:14.477,0.34780422,0.577459,0.5056932,0.5650082,0.2809244,0.208083,0.6199715,0.08203173,-0.03410289,-0.2266147,0.21267973,0.40434813,0.15411463,0.024886383,0.3114527,0.16443965,-0.11865906,-0.35989925,-0.39683717,-0.10543409,536.7033,675.31134,743.8095,558.86444,1011.3553,-0.20770263671875,0.03070068359375,0.9696044921875,1.697235107421875,-3.686065673828125,-2.88604736328125,1,2.0,1.0,1.0,2.0,100.00
2021-04-08 22:20:14.675,,,,,,,,,,,,,,,,,,,,,,,,,,,,,,,,,,,,,,/muse/elements/blink
2021-04-08 22:20:14.998,0.34780422,0.577459,0.5056932,0.5650082,0.2809244,0.208083,0.6199715,0.08203173,-0.03410289,-0.2266147,0.21267973,0.40434813,0.15411463,0.024886383,0.3114527,0.16443965,-0.11865906,-0.35989925,-0.39683717,-0.10543409,841.31866,739.3773,820.7692,843.73627,784.5055,-0.228759765625,0.04302978515625,0.97235107421875,8.934783935546875,-4.822540283203125,0.0897216796875,1,2.0,1.0,1.0,2.0,100.00
2021-04-08 22:20:15.510,0.34780422,0.577459,0.5056932,0.5650082,0.2809244,0.208083,0.6199715,0.08203173,-0.03410289,-0.2266147,0.21267973,0.40434813,0.15411463,0.024886383,0.3114527,0.16443965,-0.11865906,-0.35989925,-0.39683717,-0.10543409,820.7692,748.6447,817.5458,826.8132,851.79486,-0.15020751953125,0.11883544921875,1.00006103515625,13.226470947265625,-11.237640380859375,7.19268798828125,1,2.0,1.0,1.0,2.0,100.00
2021-04-08 22:20:16.035,0.34780422,0.577459,0.5056932,0.5650082,0.2809244,0.208083,0.6199715,0.08203173,-0.03410289,-0.2266147,0.21267973,0.40434813,0.15411463,0.024886383,0.3114527,0.16443965,-0.11865906,-0.35989925,-0.39683717,-0.10543409,809.89014,730.5128,781.685,803.8461,666.4469,-0.21734619140625,-0.0487060546875,0.9346923828125,-17.10693359375,26.116485595703125,5.136566162109375,1,2.0,1.0,1.0,2.0,100.00
2021-04-08 22:20:16.542,0.34780422,0.577459,0.5056932,0.5650082,0.2809244,0.208083,0.6199715,0.08203173,-0.03410289,-0.2266147,0.21267973,0.40434813,0.15411463,0.024886383,0.3114527,0.16443965,-0.11865906,-0.35989925,-0.39683717,-0.10543409,748.6447,687.8022,722.4542,752.674,954.1392,-0.2847900390625,0.043701171875,0.96051025390625,4.792633056640625,-7.185211181640625,1.233673095703125,1,2.0,1.0,1.0,2.0,100.00
2021-04-08 22:20:16.894,,,,,,,,,,,,,,,,,,,,,,,,,,,,,,,,,,,,,,/muse/elements/blink
2021-04-08 22:20:17.072,0.34780422,0.577459,0.5056932,0.5650082,0.2809244,0.208083,0.6199715,0.08203173,-0.03410289,-0.2266147,0.21267973,0.40434813,0.15411463,0.024886383,0.3114527,0.16443965,-0.11865906,-0.35989925,-0.39683717,-0.10543409,869.5238,782.8938,839.707,871.53845,827.2161,-0.2607421875,0.05670166015625,0.9888916015625,4.0972900390625,-5.914154052734375,2.459869384765625,1,2.0,1.0,1.0,2.0,100.00
2021-04-08 22:20:17.576,0.34780422,0.577459,0.5056932,0.5650082,0.2809244,0.208083,0.6199715,0.08203173,-0.03410289,-0.2266147,0.21267973,0.40434813,0.15411463,0.024886383,0.3114527,0.16443965,-0.11865906,-0.35989925,-0.39683717,-0.10543409,831.6484,774.43225,816.337,836.8865,664.43225,-0.27349853515625,0.02008056640625,0.9759521484375,4.418792724609375,-3.058013916015625,-4.007568359375,1,2.0,1.0,1.0,2.0,100.00
2021-04-08 22:20:18.086,0.34780422,0.577459,0.5056932,0.5650082,0.2809244,0.208083,0.6199715,0.08203173,-0.03410289,-0.2266147,0.21267973,0.40434813,0.15411463,0.024886383,0.3114527,0.16443965,-0.11865906,-0.35989925,-0.39683717,-0.10543409,830.4396,771.2088,822.7839,823.1868,663.6264,-0.24176025390625,0.01971435546875,0.97216796875,6.160888671875,-9.13665771484375,-0.657958984375,1,2.0,1.0,1.0,2.0,100.00
2021-04-08 22:20:18.596,0.34780422,0.6246225,0.47926491,0.5650082,0.2809244,0.220893,0.252082,0.08203173,-0.03410289,0.3181835,0.21549864,0.40434813,0.15411463,0.12933643,0.28911623,0.16443965,-0.11865906,-0.23149143,-0.19864202,-0.10543409,828.8278,778.86444,812.71063,834.4689,809.89014,-0.21990966796875,0.0057373046875,0.97235107421875,4.4561767578125,-5.2935791015625,-1.757049560546875,1,2.0,1.0,1.0,2.0,100.00
2021-04-08 22:20:19.106,0.46127173,0.61851573,0.52324367,0.79087657,0.114544965,0.30107057,0.38071993,0.2097474,0.2940101,0.4992581,0.37108195,0.47928113,0.11125055,0.19645356,0.24734864,0.33844703,-0.18473114,-0.24352582,-0.2061563,0.10338579,882.01465,774.43225,783.2967,898.93774,823.9927,-0.208984375,-0.01617431640625,0.9794921875,3.760833740234375,-5.03936767578125,-0.530853271484375,1,1.0,1.0,1.0,1.0,100.00
2021-04-08 22:20:19.126,,,,,,,,,,,,,,,,,,,,,,,,,,,,,,,,,,,,,,/muse/elements/blink
2021-04-08 22:20:19.618,0.46127173,0.81054837,0.79117703,0.7686245,0.114544965,0.38253686,0.5211938,0.21889529,0.2940101,0.50833094,0.5585781,0.46079656,0.11125055,0.2082854,0.2363373,0.37741077,-0.18473114,-0.28084117,-0.18159676,0.0767788,812.3077,764.7619,801.8315,821.5751,850.989,-0.233642578125,-0.0072021484375,0.97735595703125,5.084228515625,-3.96270751953125,2.594451904296875,1,1.0,1.0,1.0,1.0,100.00
2021-04-08 22:20:20.128,0.43384752,0.8718394,0.9517925,0.7288977,0.06644454,0.44359675,0.6735323,0.25042164,0.2564395,0.44850153,0.5508708,0.4568287,0.066545516,0.253509,0.18118685,0.3720862,-0.20774159,-0.3092407,-0.17740265,0.056461,803.44324,761.13556,803.44324,796.99634,622.1245,-0.2213134765625,0.0057373046875,0.97412109375,5.57769775390625,-3.7384033203125,5.60760498046875,1,1.0,1.0,1.0,1.0,100.00
2021-04-08 22:20:20.637,0.43384752,0.92852736,1.1055919,0.7288977,0.06644454,0.35971886,0.4862385,0.25042164,0.2564395,0.36777666,0.5191423,0.4568287,0.066545516,0.2974527,0.09019553,0.3720862,-0.20774159,-0.33747146,-0.11448719,0.056461,828.4249,753.8828,761.53845,825.6044,833.663,-0.2352294921875,0.0203857421875,0.97021484375,4.5758056640625,-5.510406494140625,0.31402587890625,1,1.0,1.0,1.0,1.0,100.00
2021-04-08 22:20:20.771,,,,,,,,,,,,,,,,,,,,,,,,,,,,,,,,,,,,,,/muse/elements/blink
2021-04-08 22:20:21.149,0.43384752,0.9665485,1.0038334,0.7288977,0.06644454,0.5491225,0.2603522,0.25042164,0.2564395,0.5914776,0.2673845,0.4568287,0.066545516,0.30503717,0.07642623,0.3720862,-0.20774159,-0.2466591,-0.12144775,0.056461,803.8461,770.0,799.81683,810.696,897.326,-0.245361328125,0.0211181640625,0.97137451171875,4.56085205078125,-4.792633056640625,0.8673095703125,1,1.0,1.0,1.0,1.0,100.00
2021-04-08 22:20:21.657,0.43384752,0.9934025,1.0038334,0.7288977,0.06644454,0.58012915,0.2603522,0.25042164,0.2564395,0.5914776,0.2673845,0.4568287,0.066545516,0.31326228,0.07642623,0.3720862,-0.20774159,-0.2331333,-0.12144775,0.056461,827.2161,786.9231,820.3663,827.2161,649.92676,-0.24566650390625,0.01611328125,0.97613525390625,4.628143310546875,-5.0543212890625,1.114044189453125,1,2.0,1.0,1.0,2.0,100.00
2021-04-08 22:20:22.172,0.43384752,1.072064,1.111589,0.46653527,0.06644454,0.7242112,0.3026878,0.4560026,0.2564395,0.60138935,0.25019187,0.37597024,0.066545516,0.19648504,0.12216287,0.51069254,-0.20774159,-0.19503902,-0.10236213,-0.026662461,832.8571,807.8755,829.2308,844.5421,753.0769,-0.2388916015625,0.019287109375,0.9761962890625,5.921630859375,-4.306640625,0.231781005859375,1,2.0,1.0,1.0,2.0,100.00
2021-04-08 22:20:22.682,0.5447923,0.8478842,0.44761395,0.5914406,0.13385244,0.2960598,0.21163942,0.4974968,0.32305634,0.04681923,0.47529066,0.41928312,0.34383354,0.11985022,0.055004645,0.4346803,-0.14728148,-0.3148816,-0.4453476,-0.088372886,828.4249,781.685,813.91943,819.5604,666.4469,-0.23565673828125,0.01690673828125,0.97174072265625,5.031890869140625,-4.344024658203125,0.31402587890625,1,1.0,1.0,1.0,1.0,100.00
2021-04-08 22:20:23.189,0.6768436,0.81102526,0.5451102,0.6467728,0.27280325,0.327042,0.15834299,0.52365845,0.48811522,0.04681923,0.47529066,0.49651816,0.35063273,0.06227627,0.10249585,0.42277506,-0.10703736,-0.29342923,-0.39484718,-0.0028699755,816.7399,782.8938,809.4872,821.978,696.6667,-0.2452392578125,0.01129150390625,0.96868896484375,4.44122314453125,-6.078643798828125,-0.43365478515625,1,1.0,1.0,1.0,1.0,100.00
2021-04-08 22:20:23.697,0.6823506,0.8971971,0.5698665,0.836179,0.1584258,0.5001362,0.04597864,0.5149434,0.49173754,0.7021693,0.38978893,0.65780103,0.3730533,0.110581696,0.14953215,0.42107314,-0.0720567,-0.19757994,-0.3826107,0.03345181,810.293,784.5055,805.4579,824.3956,788.93774,-0.24090576171875,0.0211181640625,0.97808837890625,4.3365478515625,-6.639404296875,0.216827392578125,1,1.0,1.0,1.0,1.0,100.00
2021-04-08 22:20:24.104,,,,,,,,,,,,,,,,,,,,,,,,,,,,,,,,,,,,,,/muse/elements/blink
2021-04-08 22:20:24.204,0.71816665,0.94261587,0.78795654,0.92783767,0.18165997,0.6275822,0.098536655,0.5358265,0.45650858,0.70459425,0.26255873,0.65780103,0.42106676,0.1251088,0.30215475,0.45824465,-0.007025208,-0.1453472,-0.21691787,0.112146825,805.05493,745.0183,762.3443,803.44324,919.0842,-0.2291259765625,0.0087890625,0.969970703125,1.054229736328125,-5.90667724609375,-1.7645263671875,1,1.0,1.0,1.0,1.0,100.00
2021-04-08 22:20:24.712,0.6370805,1.0568452,0.9189645,1.0607268,-0.13070755,0.77131516,0.21253245,0.55605656,0.39028695,0.70459425,0.21530235,0.6491972,0.46209446,0.1894715,0.40088242,0.51955855,0.027993288,-0.056949914,-0.122649334,0.10568618,727.6923,682.1612,707.5458,716.4103,662.4176,-0.27105712890625,0.02496337890625,0.965576171875,3.701019287109375,-3.84307861328125,8.934783935546875,1,1.0,1.0,1.0,1.0,100.00
2021-04-08 22:20:25.216,0.6370805,1.1643561,0.9189645,1.1898835,-0.13070755,0.91079223,0.21253245,0.67756504,0.39028695,0.70459425,0.21530235,0.550922,0.46209446,0.20074767,0.40088242,0.57422787,0.027993288,-0.0017786232,-0.122649334,0.17467313,830.84247,791.75824,815.9341,814.7253,647.9121,-0.25555419921875,0.01544189453125,0.972412109375,4.373931884765625,-7.10296630859375,0.34393310546875,1,1.0,1.0,1.0,1.0,100.00
2021-04-08 22:20:25.722,0.6370805,1.1643561,0.9189645,1.1898835,-0.13070755,0.91079223,0.21253245,0.67756504,0.39028695,0.70459425,0.21530235,0.550922,0.46209446,0.20074767,0.40088242,0.57422787,0.027993288,-0.0017786232,-0.122649334,0.17467313,817.5458,794.17584,805.4579,817.5458,788.1319,-0.2386474609375,0.0128173828125,0.96795654296875,5.0244140625,-4.83001708984375,0.814971923828125,1,1.0,1.0,1.0,1.0,100.00
2021-04-08 22:20:26.239,0.6370805,1.1643561,0.9189645,1.1898835,-0.13070755,0.91079223,0.21253245,0.67756504,0.39028695,0.70459425,0.21530235,0.550922,0.46209446,0.20074767,0.40088242,0.57422787,0.027993288,-0.0017786232,-0.122649334,0.17467313,839.707,802.6374,814.3223,822.381,655.16486,-0.2376708984375,0.017578125,0.9744873046875,5.12908935546875,-6.53472900390625,1.79443359375,1,1.0,1.0,1.0,1.0,100.00
2021-04-08 22:20:26.742,0.6370805,1.037678,0.9044802,1.0326906,-0.13070755,0.6253666,0.34738478,0.7803704,0.39028695,-0.02421384,0.258819,0.19026273,0.46209446,0.17564015,0.23944944,0.4737637,0.027993288,-0.20997228,-0.40884432,0.08893536,818.7546,788.93774,811.50183,826.8132,836.08057,-0.23162841796875,0.019775390625,0.9730224609375,4.5458984375,-5.659942626953125,0.530853271484375,1,1.0,1.0,1.0,1.0,100.00
2021-04-08 22:20:27.246,,,,,,,,,,,,,,,,,,,,,,,,,,,,,,,,,,,,,,/muse/elements/blink
2021-04-08 22:20:27.260,0.7580464,0.84731406,0.7357791,0.9155805,0.62188786,0.4922085,0.30138174,0.6299167,0.45612672,0.23390499,0.42489874,0.31991717,0.58600175,0.2663077,0.31511453,0.5549438,0.04493112,-0.16177772,-0.33757594,0.1595491,820.7692,766.77655,783.2967,831.6484,810.293,-0.22900390625,0.02044677734375,0.9749755859375,4.463653564453125,-4.127197265625,0.52337646484375,1,1.0,1.0,1.0,1.0,100.00
2021-04-08 22:20:27.766,0.7580464,0.8933131,0.78582686,0.9155805,0.62188786,0.5057129,0.37876788,0.6299167,0.45612672,0.26870716,0.48987737,0.31991717,0.58600175,0.28540087,0.3319438,0.5549438,0.04493112,-0.16863848,-0.32295913,0.1595491,831.2454,792.96704,811.9048,826.8132,629.3773,-0.23590087890625,0.0201416015625,0.97515869140625,4.68048095703125,-5.18890380859375,0.5682373046875,1,1.0,1.0,1.0,1.0,100.00
2021-04-08 22:20:28.283,0.6643712,0.80779415,0.89784825,0.7441623,0.59192955,0.45572534,0.4318897,0.2746212,0.3105104,0.69181556,0.4694337,0.2813535,0.5775893,0.27144217,0.34631893,0.61612546,0.0671127,-0.21516468,-0.26206395,0.22796436,800.2198,767.98535,777.6557,799.011,719.6337,-0.2332763671875,0.0194091796875,0.97528076171875,4.822540283203125,-5.016937255859375,0.889739990234375,1,1.0,1.0,1.0,1.0,100.00
2021-04-08 22:20:28.797,0.6643712,1.0443065,1.1917758,0.7441623,0.59192955,0.8125705,0.6207447,0.2746212,0.3105104,0.76389545,0.5052247,0.2813535,0.5775893,0.20202479,0.26689598,0.61612546,0.0671127,-0.26033893,-0.06735253,0.22796436,825.6044,786.1172,806.26373,837.28937,959.7802,-0.22625732421875,0.01275634765625,0.97259521484375,4.314117431640625,-5.061798095703125,0.052337646484375,1,1.0,1.0,1.0,1.0,100.00
2021-04-08 22:20:28.897,,,,,,,,,,,,,,,,,,,,,,,,,,,,,,,,,,,,,,/muse/elements/blink
2021-04-08 22:20:29.305,0.6643712,0.96658194,1.1176345,0.7441623,0.59192955,0.72223437,0.26436996,0.2746212,0.3105104,0.73497754,0.38126904,0.2813535,0.5775893,0.08308024,0.026456023,0.61612546,0.0671127,-0.3186451,-0.027047994,0.22796436,819.9634,784.90845,800.2198,820.7692,690.6227,-0.2308349609375,0.0120849609375,0.9788818359375,4.613189697265625,-4.927215576171875,1.293487548828125,1,1.0,1.0,1.0,1.0,100.00
2021-04-08 22:20:29.817,0.6643712,0.944575,1.0420018,0.7441623,0.59192955,0.65300095,0.10252637,0.2746212,0.3105104,0.7347597,0.38126904,0.2813535,0.5775893,0.11506156,0.13732047,0.61612546,0.0671127,-0.34991783,-0.114395276,0.22796436,817.5458,786.52014,811.9048,822.381,588.2784,-0.23187255859375,0.01495361328125,0.9755859375,5.031890869140625,-5.203857421875,1.27105712890625,1,2.0,1.0,1.0,2.0,100.00
2021-04-08 22:20:30.330,0.49802834,0.72617644,0.878952,0.20146936,0.24139255,0.18324575,0.0547061,0.56536674,0.101709746,0.40932736,0.39167643,0.42849395,0.44260928,0.19325922,0.25855508,0.43189153,-0.021482147,-0.4268202,-0.17453298,-0.14453697,843.3333,803.0403,826.4103,835.2747,691.8315,-0.2259521484375,0.02105712890625,0.97906494140625,5.27862548828125,-6.08612060546875,1.263580322265625,1,2.0,1.0,1.0,2.0,100.00
2021-04-08 22:20:30.843,0.54338866,0.68128246,0.8127,0.5275289,0.19917542,0.14124939,0.20942527,0.44823498,0.37878308,0.41214272,0.35737035,0.4563282,0.38188064,0.27090564,0.3465834,0.45605835,-0.057738863,-0.4434285,-0.2216976,-0.07861696,822.381,799.81683,807.0696,823.9927,794.17584,-0.2144775390625,0.02203369140625,0.9801025390625,5.271148681640625,-4.7552490234375,1.21124267578125,1,1.0,1.0,1.0,1.0,100.00
2021-04-08 22:20:31.343,0.61991984,0.55327374,0.8501969,0.7027393,0.21642633,0.14797056,0.26925087,0.39279544,0.37878308,0.23578079,0.32289326,0.4719909,0.36044067,0.2863448,0.28837824,0.4340525,-0.05936846,-0.44134113,-0.16655158,-0.12819469,696.6667,793.7729,847.76556,713.5897,968.6447,-0.209716796875,0.0162353515625,0.9852294921875,4.209442138671875,-5.465545654296875,1.375732421875,1,1.0,1.0,1.0,1.0,100.00
2021-04-08 22:20:31.520,,,,,,,,,,,,,,,,,,,,,,,,,,,,,,,,,,,,,,/muse/elements/blink
2021-04-08 22:20:31.862,0.664759,0.48822093,0.9531846,0.8181199,0.20485222,0.15383506,0.3869181,0.28664556,0.3567836,0.24592131,0.3137988,0.22312231,0.31825376,0.2085201,0.16478437,0.43500948,-0.07732945,-0.39812934,-0.21410911,-0.12112428,825.6044,789.34064,810.293,832.0513,776.04395,-0.211181640625,0.01025390625,0.97601318359375,4.246826171875,-4.074859619140625,0.605621337890625,1,1.0,1.0,1.0,1.0,100.00
2021-04-08 22:20:32.377,0.7545825,0.68000096,1.0011662,0.945021,0.25290433,0.191838,0.42996952,0.23392943,0.12682657,0.32950282,0.5081417,0.11271726,0.3079411,0.16944517,0.17999506,0.38003972,-0.06305757,-0.39908278,-0.27846807,-0.26611584,830.4396,799.41394,813.1135,817.1429,626.55676,-0.2213134765625,0.01226806640625,0.97650146484375,5.4730224609375,-4.074859619140625,0.52337646484375,1,1.0,1.0,1.0,1.0,100.00
2021-04-08 22:20:32.899,0.7545825,0.7348556,0.9470286,0.945021,0.25290433,0.18075502,0.48391935,0.23392943,0.12682657,0.40617487,0.5081417,0.11271726,0.3079411,0.13531813,0.19943114,0.38003972,-0.06305757,-0.3960794,-0.379695,-0.26611584,828.8278,801.8315,808.68134,818.3516,704.7253,-0.22576904296875,0.01239013671875,0.97540283203125,4.4561767578125,-5.196380615234375,1.03179931640625,1,1.0,1.0,1.0,1.0,100.00
2021-04-08 22:20:33.402,0.7545825,0.9677237,1.0697904,0.945021,0.25290433,0.49739945,0.549741,0.23392943,0.12682657,0.70559967,0.5852145,0.11271726,0.3079411,0.10978082,0.27599797,0.38003972,-0.06305757,-0.36927554,-0.4499421,-0.26611584,810.696,766.77655,782.8938,826.8132,901.3553,-0.22589111328125,0.01348876953125,0.97589111328125,4.673004150390625,-4.97955322265625,1.114044189453125,1,1.0,1.0,1.0,1.0,100.00
2021-04-08 22:20:33.411,,,,,,,,,,,,,,,,,,,,,,,,,,,,,,,,,,,,,,/muse/elements/blink
2021-04-08 22:20:33.935,0.7545825,0.96051055,1.0637475,0.945021,0.25290433,0.58032197,0.51573116,0.23392943,0.12682657,0.70559967,0.48138154,0.11271726,0.3079411,0.05330641,0.21661152,0.38003972,-0.06305757,-0.32768473,-0.4669112,-0.26611584,765.56775,741.79486,770.80585,781.28204,840.10986,-0.22125244140625,0.00982666015625,0.97088623046875,4.732818603515625,-4.762725830078125,0.52337646484375,1,1.0,1.0,1.0,1.0,100.00
2021-04-08 22:20:34.466,0.7545825,1.1850032,1.0129019,0.945021,0.25290433,0.8336026,0.40008658,0.23392943,0.12682657,0.63338935,0.48659328,0.11271726,0.3079411,-0.042433076,0.17806791,0.38003972,-0.06305757,-0.22436215,-0.348961,-0.26611584,788.93774,772.4176,791.75824,809.89014,898.1319,-0.2220458984375,0.01116943359375,0.97943115234375,4.8150634765625,-5.69732666015625,1.5252685546875,1,2.0,1.0,1.0,2.0,100.00
2021-04-08 22:20:34.990,0.7545825,1.1850032,0.9245558,0.945021,0.25290433,0.8336026,0.0646148,0.23392943,0.12682657,0.63338935,0.29038903,0.11271726,0.3079411,-0.042433076,0.03606583,0.38003972,-0.06305757,-0.22436215,-0.32726127,-0.26611584,819.5604,790.9524,805.4579,819.9634,696.26373,-0.2098388671875,0.01348876953125,0.97802734375,4.7552490234375,-5.271148681640625,0.9869384765625,1,2.0,1.0,1.0,2.0,100.00
2021-04-08 22:20:35.501,0.7545825,1.0032835,0.9734197,0.945021,0.25290433,0.5828544,0.46073446,0.23392943,0.12682657,-0.28318855,0.54497796,0.11271726,0.3079411,0.19535953,0.06981035,0.38003972,-0.06305757,-0.4238803,-0.30065855,-0.26611584,831.6484,795.78754,821.1722,829.2308,755.09155,-0.20623779296875,0.0185546875,0.98858642578125,4.344024658203125,-4.9346923828125,1.398162841796875,1,2.0,1.0,1.0,2.0,100.00
2021-04-08 22:20:36.010,,,,,,,,,,,,,,,,,,,,,,,,,,,,,,,,,,,,,,/muse/elements/blink
2021-04-08 22:20:36.011,0.7545825,0.94890356,1.0857515,0.945021,0.25290433,0.54207635,0.6194888,0.23392943,0.12682657,-0.11257847,0.5438058,0.11271726,0.3079411,0.17119059,0.17379864,0.38003972,-0.06305757,-0.39621305,-0.34551868,-0.26611584,856.2271,799.011,809.89014,850.989,684.57874,-0.21649169921875,0.0113525390625,0.97967529296875,4.568328857421875,-4.119720458984375,0.299072265625,1,2.0,1.0,1.0,2.0,100.00
2021-04-08 22:20:36.537,0.7545825,0.79780877,1.0281236,0.945021,0.25290433,0.41149014,0.57831043,0.23392943,0.12682657,-0.0117335245,0.5673841,0.11271726,0.3079411,0.11506358,0.17679682,0.38003972,-0.06305757,-0.4207252,-0.2818677,-0.26611584,810.293,788.1319,808.68134,815.9341,759.92676,-0.2314453125,0.01043701171875,0.97503662109375,5.824432373046875,-3.835601806640625,3.54400634765625,1,2.0,1.0,1.0,2.0,100.00
2021-04-08 22:20:37.062,0.7545825,0.5309085,0.9192148,0.945021,0.25290433,0.31842357,0.37775785,0.23392943,0.12682657,0.17167923,0.5024815,0.11271726,0.3079411,0.06289875,0.16144478,0.38003972,-0.06305757,-0.4219813,-0.31261963,-0.26611584,817.5458,788.5348,811.9048,823.1868,985.9707,-0.23004150390625,0.02105712890625,0.95928955078125,1.532745361328125,-5.27862548828125,7.783355712890625,1,2.0,1.0,1.0,2.0,100.00
2021-04-08 22:20:37.571,0.6077718,0.118824795,0.7501977,0.43663615,0.0079713175,0.14985345,0.13048953,0.35035616,0.5416347,0.22808132,0.35019952,0.4603902,0.34182465,0.05427878,0.06274706,0.35367602,0.025009641,-0.42129895,-0.27074614,-0.18063918,800.2198,761.9414,786.9231,781.28204,954.94507,-0.22772216796875,0.046142578125,0.97247314453125,0.16448974609375,-0.82244873046875,15.43212890625,1,2.0,1.0,1.0,2.0,95.00
2021-04-08 22:20:37.837,,,,,,,,,,,,,,,,,,,,,,,,,,,,,,,,,,,,,,/muse/elements/blink
2021-04-08 22:20:38.098,0.6077718,0.1599731,0.684287,0.43663615,0.0079713175,0.23885657,0.09783133,0.35035616,0.5416347,0.226864,0.28991124,0.4603902,0.34182465,0.08913602,0.042957593,0.35367602,0.025009641,-0.3970267,-0.31716052,-0.18063918,836.8865,796.99634,820.3663,839.304,715.6044,-0.2017822265625,0.0372314453125,0.97601318359375,3.955230712890625,-6.871185302734375,-2.82623291015625,1,1.0,1.0,1.0,1.0,95.00
2021-04-08 22:20:38.625,0.6077718,0.16484474,0.7981429,0.43663615,0.0079713175,0.053851,0.11165708,0.35035616,0.5416347,0.17809747,-0.29615635,0.4603902,0.34182465,0.12389843,-9.913486E-4,0.35367602,0.025009641,-0.36838865,-0.25340208,-0.18063918,840.5128,815.5311,834.87177,846.1539,790.14655,-0.2159423828125,-0.01898193359375,0.97119140625,3.701019287109375,-3.297271728515625,-13.38348388671875,1,1.0,1.0,1.0,1.0,95.00
2021-04-08 22:20:39.134,0.6077718,0.20099588,0.84944403,0.43663615,0.0079713175,-0.04182541,0.07642514,0.35035616,0.5416347,0.06942959,-0.40169743,0.4603902,0.34182465,0.11946744,-0.044807523,0.35367602,0.025009641,-0.36273128,-0.26573446,-0.18063918,806.6667,791.75824,816.337,830.4396,911.4286,-0.21929931640625,-0.0145263671875,0.978759765625,5.211334228515625,-4.83001708984375,-0.5084228515625,1,1.0,1.0,1.0,1.0,95.00
2021-04-08 22:20:39.442,,,,,,,,,,,,,,,,,,,,,,,,,,,,,,,,,,,,,,/muse/elements/blink
2021-04-08 22:20:39.636,0.6077718,0.48891896,0.81813854,0.43663615,0.0079713175,-0.22603513,0.098852806,0.35035616,0.5416347,-0.055533327,0.1006778,0.4603902,0.34182465,-0.0584976,-0.048379526,0.35367602,0.025009641,-0.3717085,-0.3619525,-0.18063918,840.10986,810.293,824.3956,848.5714,831.2454,-0.223876953125,-0.00506591796875,0.9793701171875,5.570220947265625,-3.745880126953125,0.560760498046875,1,1.0,1.0,1.0,1.0,95.00
2021-04-08 22:20:40.157,0.6077718,0.26266515,0.6401273,0.43663615,0.0079713175,0.03673171,0.281603,0.35035616,0.5416347,0.36324316,0.2620464,0.4603902,0.34182465,-0.021523857,0.040680192,0.35367602,0.025009641,-0.23477113,-0.11901397,-0.18063918,830.4396,802.6374,825.6044,814.3223,662.01465,-0.2208251953125,-0.0101318359375,0.97894287109375,4.3365478515625,-5.87677001953125,0.949554443359375,1,1.0,1.0,1.0,1.0,95.00
2021-04-08 22:20:40.677,0.6077718,0.1492281,0.54904324,0.43663615,0.0079713175,0.15942515,0.20517443,0.35035616,0.5416347,0.4388245,0.31292248,0.4603902,0.34182465,0.015210271,0.11576836,0.35367602,0.025009641,-0.2105371,-0.13343449,-0.18063918,817.9487,796.1905,818.7546,820.7692,711.5751,-0.21832275390625,-0.00323486328125,0.977783203125,6.168365478515625,-4.0972900390625,1.996307373046875,1,2.0,1.0,1.0,2.0,95.00
2021-04-08 22:20:40.970,,,,,,,,,,,,,,,,,,,,,,,,,,,,,,,,,,,,,,/muse/elements/blink
2021-04-08 22:20:41.183,0.6077718,0.022539254,0.3675535,0.43663615,0.0079713175,0.31084633,0.39334452,0.35035616,0.5416347,0.7017755,0.47328874,0.4603902,0.34182465,0.075547785,0.14634691,0.35367602,0.025009641,-0.2375616,-0.13649403,-0.18063918,821.978,786.9231,795.78754,820.3663,598.3516,-0.228515625,0.00347900390625,0.9739990234375,4.942169189453125,-5.570220947265625,0.79254150390625,1,2.0,1.0,1.0,2.0,95.00
2021-04-08 22:20:41.696,0.6077718,0.2515869,0.5945249,0.43663615,0.0079713175,0.3625057,0.5049356,0.35035616,0.5416347,0.70309216,0.48638585,0.4603902,0.34182465,0.16300395,0.1584272,0.35367602,0.025009641,-0.30490136,-0.2625743,-0.18063918,774.83514,750.65936,755.4945,776.8498,747.8388,-0.2222900390625,-6.7138671875E-4,0.9801025390625,5.001983642578125,-4.583282470703125,0.43365478515625,1,2.0,1.0,1.0,2.0,95.00
2021-04-08 22:20:42.223,0.6077718,0.40570575,0.7316333,0.43663615,0.0079713175,0.37983248,0.67926925,0.35035616,0.5416347,0.6867807,0.48638585,0.4603902,0.34182465,0.2075995,0.0935431,0.35367602,0.025009641,-0.4218019,-0.35004357,-0.18063918,809.0842,799.41394,815.9341,821.5751,943.663,-0.2313232421875,-4.2724609375E-4,0.9732666015625,4.568328857421875,-3.925323486328125,1.502838134765625,1,2.0,1.0,1.0,2.0,95.00
2021-04-08 22:20:42.754,0.6077718,0.52770066,0.8960828,0.43663615,0.0079713175,0.3753784,0.7906225,0.35035616,0.5416347,0.6233217,0.48638585,0.4603902,0.34182465,0.30424803,0.026619596,0.35367602,0.025009641,-0.40082175,-0.31696957,-0.18063918,825.2015,797.3993,813.91943,829.6337,785.31134,-0.22784423828125,0.00177001953125,0.9769287109375,5.06927490234375,-4.553375244140625,1.136474609375,1,2.0,1.0,1.0,2.0,95.00
2021-04-08 22:20:43.276,0.6077718,0.90386146,0.8960828,0.43663615,0.0079713175,0.25379807,0.7906225,0.35035616,0.5416347,-0.1255258,0.48638585,0.4603902,0.34182465,0.07140725,0.026619596,0.35367602,0.025009641,-0.12700047,-0.31696957,-0.18063918,807.47253,795.38464,799.41394,802.23444,716.0073,-0.22882080078125,-0.001220703125,0.97381591796875,5.001983642578125,-6.4898681640625,1.12152099609375,1,2.0,1.0,1.0,2.0,95.00
2021-04-08 22:20:43.805,0.5812075,0.67822707,0.40264127,0.35514295,0.23143075,0.1016602,-0.18441193,0.3297981,0.5266917,-0.10400636,0.25089347,0.25967777,0.3658043,0.07422419,0.105670065,0.2579725,-0.022555575,-0.2836244,-0.24378006,0.0046227966,810.293,786.52014,787.72894,796.5934,792.1612,-0.2203369140625,0.0028076171875,0.97857666015625,4.7552490234375,-5.600128173828125,1.532745361328125,1,1.0,1.0,1.0,1.0,95.00
2021-04-08 22:20:44.307,0.63150334,0.60953027,0.38914058,0.5252042,0.25794366,0.0075424016,-0.20028928,0.43330362,0.54908913,0.018793276,0.44026577,0.5345164,0.3318527,-0.010383579,0.15255198,0.25020674,-0.16176818,-0.38902497,-0.2573077,-0.05126877,805.05493,801.02563,814.3223,807.8755,836.8865,-0.209716796875,0.002685546875,0.98150634765625,5.06927490234375,-4.97955322265625,0.6280517578125,1,1.0,1.0,1.0,1.0,95.00
2021-04-08 22:20:44.811,0.72130483,0.4142351,0.58971304,0.7873709,0.31305146,-0.19387294,-0.08311556,0.4893646,0.5529579,-0.02619196,0.42688775,0.57395774,0.31054375,-0.12582439,0.18190874,0.26935986,-0.26016176,-0.41598514,-0.26669663,-0.070585564,819.5604,796.1905,797.8022,836.8865,814.7253,-0.215576171875,0.00274658203125,0.98004150390625,4.32159423828125,-4.628143310546875,0.725250244140625,1,1.0,1.0,1.0,1.0,95.00
2021-04-08 22:20:45.335,0.8272326,0.51736253,0.67514694,0.88075286,0.38805327,0.022941938,0.0015051324,0.5293168,0.750655,0.39729655,0.5080577,0.6671446,0.2683324,-0.13350059,0.20370159,0.39659652,-0.2517938,-0.29001674,-0.2949789,-0.022329707,824.7985,819.15753,779.67035,815.12823,617.28937,-0.2210693359375,0.0025634765625,0.9752197265625,4.91973876953125,-4.246826171875,1.203765869140625,1,1.0,1.0,1.0,1.0,95.00
2021-04-08 22:20:45.859,0.8331095,0.86629206,0.7396934,0.8621013,0.51335216,0.36846912,0.13338062,0.44653752,0.7408151,0.54582506,0.5668786,0.6510808,0.2859702,0.06935392,0.19211033,0.50480354,-0.19245456,-0.19842993,-0.37616968,0.029550172,878.7912,796.99634,814.7253,877.5824,687.3993,-0.216064453125,0.003662109375,0.9786376953125,4.702911376953125,-4.964599609375,1.114044189453125,1,1.0,1.0,1.0,1.0,95.00
2021-04-08 22:20:45.863,,,,,,,,,,,,,,,,,,,,,,,,,,,,,,,,,,,,,,/muse/elements/blink
2021-04-08 22:20:46.369,0.8078931,0.98874956,0.7839016,0.60832834,0.57436514,0.5805801,0.43622717,0.38686627,0.7408151,0.5809366,0.8253981,0.6038943,0.33546624,0.2497046,0.110880986,0.5847049,-0.152952,-0.22922973,-0.34270996,0.063567206,804.65204,782.8938,794.17584,817.9487,820.7692,-0.2183837890625,0.00323486328125,0.97686767578125,4.71038818359375,-6.661834716796875,0.590667724609375,1,1.0,1.0,1.0,1.0,95.00
2021-04-08 22:20:46.896,0.6926542,0.9681452,0.7769285,0.4828164,0.6746723,0.5399709,0.49525237,0.25344637,0.2954156,0.5394931,0.8260735,0.4713891,0.33042625,0.23462968,0.11015624,0.54306275,-0.31202373,-0.3764695,-0.37524128,0.00933011,823.1868,795.38464,800.6227,830.0366,816.7399,-0.197021484375,0.00653076171875,0.98248291015625,5.510406494140625,-7.5067138671875,1.98883056640625,1,1.0,1.0,1.0,1.0,95.00
2021-04-08 22:20:47.401,0.6926542,0.7010308,0.6401505,0.4828164,0.6746723,0.34250793,0.42769104,0.25344637,0.2954156,0.4063071,0.8207976,0.4713891,0.33042625,0.15565534,0.15043074,0.54306275,-0.31202373,-0.4117593,-0.29657912,0.00933011,845.7509,792.5641,801.8315,853.4066,864.2857,-0.1943359375,0.00518798828125,0.9808349609375,4.8748779296875,-4.583282470703125,1.054229736328125,1,1.0,1.0,1.0,1.0,95.00
2021-04-08 22:20:47.468,,,,,,,,,,,,,,,,,,,,,,,,,,,,,,,,,,,,,,/muse/elements/blink
2021-04-08 22:20:47.914,0.6926542,0.8238821,0.7609079,0.4828164,0.6746723,0.41885364,0.75085187,0.25344637,0.2954156,0.37339365,0.772795,0.4713891,0.33042625,0.135865,0.17749134,0.54306275,-0.31202373,-0.37224162,-0.29678637,0.00933011,816.337,788.93774,808.68134,819.9634,639.45056,-0.19403076171875,0.01055908203125,0.98345947265625,4.732818603515625,-5.151519775390625,0.680389404296875,1,1.0,1.0,1.0,1.0,100.00
2021-04-08 22:20:48.444,0.6926542,0.87722206,0.8288542,0.4828164,0.6746723,0.49033383,0.820185,0.25344637,0.2954156,0.3856527,0.7686538,0.4713891,0.33042625,0.20750514,0.14253807,0.54306275,-0.31202373,-0.28294206,-0.20527545,0.00933011,807.8755,786.52014,809.0842,820.3663,640.2564,-0.1868896484375,0.00396728515625,0.9832763671875,4.732818603515625,-5.54779052734375,1.158905029296875,1,2.0,1.0,1.0,2.0,100.00
2021-04-08 22:20:48.973,-0.019172573,0.8040216,0.82616746,0.1725665,-0.25102237,0.5348104,0.826127,0.10733417,0.35198805,0.4749099,0.7201856,0.25083926,0.13022095,0.19470914,0.009603264,0.124999605,-0.2546879,-0.29905915,-0.2158226,0.008434312,816.7399,790.9524,805.05493,817.5458,649.5238,-0.1820068359375,0.00579833984375,0.9920654296875,4.5458984375,-4.246826171875,0.79254150390625,1,2.0,1.0,1.0,2.0,100.00
2021-04-08 22:20:49.479,-0.1290161,0.5285031,0.3535884,0.22889705,-0.21620812,0.38640204,-0.056789145,0.023651363,0.36569187,0.39316458,-0.0019724413,0.31429642,0.16471924,0.152297,-0.018916957,0.21580598,-0.2448529,-0.26882765,-0.2459892,-0.03918473,859.0476,799.81683,813.5165,854.61536,731.31866,-0.20147705078125,0.00830078125,0.98480224609375,4.41131591796875,-3.66363525390625,1.039276123046875,1,1.0,1.0,1.0,1.0,100.00
2021-04-08 22:20:49.525,,,,,,,,,,,,,,,,,,,,,,,,,,,,,,,,,,,,,,/muse/elements/blink
2021-04-08 22:20:49.993,-0.1290161,0.39777562,0.71305597,0.22889705,-0.21620812,0.3870852,0.31003526,0.023651363,0.36569187,0.45273635,0.3306947,0.31429642,0.16471924,0.10858173,0.033544824,0.21580598,-0.2448529,-0.3620767,-0.26265433,-0.03918473,820.7692,785.7143,807.0696,842.9304,880.80585,-0.197509765625,0.00140380859375,0.97930908203125,6.886138916015625,-5.659942626953125,1.375732421875,1,1.0,1.0,1.0,1.0,100.00
2021-04-08 22:20:50.517,-0.2764053,0.5374047,0.8802865,0.27875298,-0.18397874,0.32374832,0.41285294,-0.0800997,0.16922314,0.42834023,0.32757342,0.15742132,0.19667767,0.15954886,0.06361979,0.29086992,-0.23523569,-0.4402886,-0.2218758,-0.09267547,817.5458,792.5641,804.65204,815.5311,940.0366,-0.17578125,0.0277099609375,0.990478515625,7.514190673828125,-6.572113037109375,-1.39068603515625,1,1.0,1.0,1.0,1.0,100.00
2021-04-08 22:20:51.021,0.67714554,1.0945635,0.9965692,0.42264163,0.5926036,0.69154316,0.5453752,0.28007358,0.707167,0.52312225,0.4558067,0.9480486,0.38924006,0.11898677,0.05124373,0.44413224,-0.26370907,-0.5526815,-0.20369022,-0.26807016,811.0989,784.90845,800.2198,807.47253,682.96704,-0.17755126953125,0.0045166015625,0.9840087890625,4.149627685546875,-3.94775390625,1.173858642578125,1,1.0,1.0,1.0,1.0,100.00
2021-04-08 22:20:51.536,0.54441845,1.1046457,0.7972899,0.37601498,0.373624,0.63189507,0.35441193,0.15843032,0.707167,0.51531625,0.3955581,0.9480486,0.25868398,0.08529468,0.040918753,0.33745953,-0.20115781,-0.48503786,-0.18761419,-0.25811988,816.337,796.1905,802.23444,809.89014,757.50916,-0.1787109375,0.009765625,0.9874267578125,4.74029541015625,-3.9178466796875,2.086029052734375,1,1.0,1.0,1.0,1.0,100.00
2021-04-08 22:20:52.059,0.49206674,1.0773927,0.7013487,0.39553085,0.33545783,0.62221617,0.28578973,0.1626201,0.707167,0.50679874,0.4066421,0.95192736,0.24081479,0.013659397,0.022980161,0.37686205,-0.1990747,-0.42638832,-0.23317473,-0.23575905,814.7253,794.17584,809.89014,837.28937,853.8095,-0.181884765625,0.00537109375,0.9896240234375,4.41131591796875,-4.5758056640625,1.71966552734375,1,1.0,1.0,1.0,1.0,100.00
2021-04-08 22:20:52.564,0.23054047,0.40797287,0.33743984,0.39571854,0.15477201,0.15257934,9.5083914E-4,0.24177046,0.4249764,0.23448427,0.19666216,0.6794345,0.14880694,-0.026881112,0.09378655,0.41861632,-0.18424271,-0.3584627,-0.2777055,-0.2199021,809.0842,798.20514,812.3077,823.5897,924.3223,-0.1964111328125,0.00152587890625,0.9833984375,4.78515625,-4.32159423828125,1.203765869140625,1,1.0,1.0,1.0,1.0,100.00
2021-04-08 22:20:53.070,0.12268527,0.03645437,0.2760189,0.32145524,0.17746173,0.077785306,-0.12736034,0.2957477,0.6961317,0.32344338,0.15081342,0.6913698,0.25239846,-0.03353566,0.056709476,0.47016397,-0.17564929,-0.34097055,-0.27161965,-0.20379098,814.7253,791.75824,804.2491,836.4835,1085.0916,-0.1883544921875,-0.00482177734375,0.98345947265625,4.85992431640625,-4.78515625,1.65985107421875,1,1.0,1.0,1.0,1.0,100.00
2021-04-08 22:20:53.585,0.21171506,0.166689,0.36034122,0.29694703,0.13917391,0.022459459,-0.025567897,0.21694256,0.7592083,0.34366634,0.28723922,0.76767194,0.32780817,0.03308042,0.059451405,0.47915342,-0.13824823,-0.39596936,-0.26402593,-0.2078953,806.6667,785.31134,802.23444,816.337,778.86444,-0.1859130859375,-0.001953125,0.98797607421875,4.837493896484375,-5.51788330078125,0.897216796875,1,1.0,1.0,1.0,1.0,100.00
2021-04-08 22:20:54.093,0.2804102,0.18481201,0.4754004,0.33996236,0.019997137,-0.10952353,-0.0701808,-0.039838985,0.75782853,0.3135757,0.29279146,0.7367308,0.34627473,0.052524406,-0.036035802,0.3906469,-0.10969671,-0.43795118,-0.21533026,-0.055410303,799.41394,780.07324,790.9524,806.26373,927.9487,-0.18353271484375,2.44140625E-4,0.98565673828125,5.15899658203125,-5.14404296875,0.43365478515625,1,1.0,1.0,1.0,1.0,100.00
2021-04-08 22:20:54.602,0.24823177,0.19473729,0.49334666,0.37416115,-0.040970467,-0.19705568,-0.063719004,-0.14545062,0.65484273,0.23713183,0.28845057,0.7190436,0.32825574,0.018149199,0.06429017,0.40930983,-0.07620058,-0.5130454,-0.18691908,-0.033605702,800.2198,780.4762,792.5641,816.337,757.9121,-0.20501708984375,-0.00457763671875,0.97998046875,4.127197265625,-3.93280029296875,-0.560760498046875,1,1.0,1.0,1.0,1.0,100.00
2021-04-08 22:20:55.121,0.28647673,0.36384934,0.36498654,0.3336581,-0.13675359,-0.20192784,-2.725775E-4,-0.011289977,0.48915786,0.53153974,0.22515504,0.7163188,0.31852454,-0.0964639,0.08912181,0.34131104,-0.053591494,-0.46269974,-0.14357479,0.0020976972,803.0403,786.1172,798.20514,805.8608,619.707,-0.20794677734375,-0.00994873046875,0.97637939453125,4.71038818359375,-5.540313720703125,0.777587890625,1,1.0,1.0,1.0,1.0,100.00
2021-04-08 22:20:55.519,,,,,,,,,,,,,,,,,,,,,,,,,,,,,,,,,,,,,,/muse/elements/blink
2021-04-08 22:20:55.646,0.401523,0.843779,0.75128466,0.3058035,-0.14770196,0.43425837,0.45766556,0.22375406,0.4974496,0.75022364,0.35390666,0.72537625,0.36637378,0.023489082,0.1256633,0.39357242,-0.041314404,-0.4457986,-0.16326992,-0.055982195,809.89014,772.4176,778.46155,806.6667,759.92676,-0.19287109375,-0.01275634765625,0.98150634765625,4.478607177734375,-5.241241455078125,1.016845703125,1,1.0,1.0,1.0,1.0,100.00
2021-04-08 22:20:56.169,0.6043392,0.98050797,0.9950484,0.39448532,-0.109070055,0.5984105,0.5616914,0.33682677,0.48579532,0.7554118,0.39073017,0.66511875,0.40776977,0.115811884,0.08570461,0.32912937,-0.05362999,-0.34832263,-0.14278376,-0.012779331,745.0183,722.0513,734.5421,757.9121,917.47253,-0.193603515625,-0.00811767578125,0.98480224609375,4.433746337890625,-4.44122314453125,1.338348388671875,1,1.0,1.0,1.0,1.0,100.00
2021-04-08 22:20:56.675,0.73860323,1.1252797,1.1918678,0.51303583,-0.04180759,0.81439984,0.7002896,0.46174678,0.48579532,0.7554118,0.36788845,0.56368196,0.429687,0.2715537,0.09259608,0.268383,-0.06446529,-0.29841504,-0.13817337,0.024154441,785.7143,761.9414,773.22345,796.5934,859.85345,-0.192626953125,-0.00537109375,0.9857177734375,4.56085205078125,-5.570220947265625,2.1533203125,1,1.0,1.0,1.0,1.0,100.00
2021-04-08 22:20:57.178,0.73860323,0.94619566,1.2317674,0.51303583,-0.04180759,0.80691814,0.42772704,0.46174678,0.48579532,0.6317832,0.3258744,0.56368196,0.429687,0.3344773,0.1018654,0.268383,-0.06446529,-0.25310138,-0.05262864,0.024154441,801.4286,777.6557,802.6374,815.9341,783.2967,-0.18243408203125,-0.01116943359375,0.97967529296875,4.643096923828125,-4.687957763671875,4.673004150390625,1,1.0,1.0,1.0,1.0,100.00
2021-04-08 22:20:57.685,0.73860323,0.94619566,1.2317674,0.51303583,-0.04180759,0.80691814,0.42772704,0.46174678,0.48579532,0.6317832,0.3258744,0.56368196,0.429687,0.3344773,0.1018654,0.268383,-0.06446529,-0.25310138,-0.05262864,0.024154441,816.337,791.3553,800.6227,802.23444,740.989,-0.1429443359375,-0.00323486328125,0.9959716796875,4.32159423828125,-3.90289306640625,6.35528564453125,1,1.0,1.0,1.0,1.0,100.00
2021-04-08 22:20:58.187,0.6075675,0.6021784,0.7670602,0.6977685,0.41314656,0.23435092,0.36170024,0.18865618,0.19102694,0.17441411,0.33096373,0.540884,0.29118633,0.18431368,-0.09216295,0.41746518,-0.39915973,-0.47266108,-0.41748506,-0.38751534,816.337,798.20514,787.72894,815.9341,716.8132,-0.15771484375,-0.00494384765625,0.98919677734375,5.420684814453125,-5.555267333984375,-1.60003662109375,1,1.0,1.0,1.0,1.0,100.00
2021-04-08 22:20:58.704,0.56288,0.88648653,0.9372765,0.7861764,0.4592655,0.54655886,0.42344382,0.56874704,0.36803174,0.7472165,0.3595207,0.72911215,0.30402973,0.31781152,0.024038393,0.35942215,-0.21978521,-0.45486057,-0.42124373,-0.17720158,834.87177,803.44324,811.9048,839.707,736.1539,-0.21209716796875,0.06280517578125,0.975830078125,17.45086669921875,-2.07855224609375,2.6617431640625,1,1.0,1.0,1.0,1.0,100.00
2021-04-08 22:20:59.209,0.6010661,0.89340913,0.9882416,0.78914636,0.40744343,0.5685568,0.33830363,0.5967015,0.37812927,0.75200874,0.35607007,0.72891736,0.28204757,0.33612233,0.116236016,0.35761827,-0.17047401,-0.44466177,-0.33966655,-0.15607806,812.3077,794.9817,799.011,799.41394,657.5824,-0.20111083984375,0.08868408203125,0.9837646484375,-3.656158447265625,-10.00396728515625,1.71966552734375,1,1.0,1.0,1.0,1.0,100.00
2021-04-08 22:20:59.725,0.6506321,0.8934134,0.9433586,0.9519354,0.3987143,0.57243544,0.26766655,0.7498252,0.3538956,0.7554202,0.26259485,0.691987,0.3045303,0.30068308,0.11984964,0.25021943,-0.14724465,-0.4682918,-0.26120785,-0.02058913,832.8571,773.22345,781.28204,836.4835,780.87915,-0.1922607421875,0.00244140625,0.9801025390625,4.523468017578125,-3.06549072265625,-2.03369140625,1,1.0,1.0,1.0,1.0,100.00
2021-04-08 22:20:59.794,,,,,,,,,,,,,,,,,,,,,,,,,,,,,,,,,,,,,,/muse/elements/blink
2021-04-08 22:21:00.249,0.74120003,0.7444936,0.92161685,1.0853703,0.2799657,0.4153966,0.27398723,0.8597143,0.16093889,0.6454033,0.18190378,0.691987,0.29020745,0.18750916,0.09063814,0.2532953,-0.2536667,-0.49853396,-0.07999158,0.021850806,770.0,749.45056,751.8681,790.54944,863.0769,-0.22479248046875,0.00347900390625,0.97467041015625,3.237457275390625,-3.69354248046875,3.730926513671875,1,1.0,1.0,1.0,1.0,100.00
2021-04-08 22:21:00.760,0.7039704,0.88302433,0.80966175,1.0853703,0.18948583,0.35924736,0.3311589,0.8597143,-0.027111078,0.34354907,0.13995177,0.691987,0.2830159,0.047094226,-0.008981582,0.2532953,-0.31461716,-0.471735,-0.013004075,0.021850806,788.5348,777.6557,780.07324,799.41394,750.65936,-0.21502685546875,0.010986328125,0.98114013671875,4.927215576171875,-5.435638427734375,1.816864013671875,1,1.0,1.0,1.0,1.0,100.00
2021-04-08 22:21:01.262,0.7039704,1.0305446,1.0804799,1.0853703,0.18948583,0.43135613,0.5515582,0.8597143,-0.027111078,0.33932284,0.05019508,0.691987,0.2830159,0.10547297,0.051487077,0.2532953,-0.31461716,-0.35792714,0.12198176,0.021850806,807.47253,791.3553,803.0403,812.3077,780.87915,-0.19769287109375,0.0052490234375,0.98223876953125,4.964599609375,-5.540313720703125,0.85235595703125,1,1.0,1.0,1.0,1.0,100.00
2021-04-08 22:21:01.766,0.7039704,0.9906074,1.0804799,1.0853703,0.18948583,0.34630668,0.5515582,0.8597143,-0.027111078,0.21850987,0.05019508,0.691987,0.2830159,0.039148558,0.051487077,0.2532953,-0.31461716,-0.37585878,0.12198176,0.021850806,819.9634,794.17584,820.3663,814.3223,694.65204,-0.18951416015625,0.0028076171875,0.984130859375,4.844970703125,-4.6356201171875,0.216827392578125,1,1.0,1.0,1.0,1.0,100.00
2021-04-08 22:21:02.285,0.37526578,0.4489551,0.19788516,0.09831207,0.056138176,0.14384575,0.20739819,0.121210836,0.48229885,-0.013323628,0.16037165,0.41047153,0.42707047,0.014971578,0.19609901,0.5074533,-0.21735248,-0.544449,0.009493868,-0.16145001,810.293,789.7436,807.47253,824.7985,710.3663,-0.190673828125,0.0010986328125,0.98199462890625,4.673004150390625,-5.4730224609375,0.800018310546875,1,1.0,1.0,1.0,1.0,100.00
2021-04-08 22:21:02.798,0.37019727,0.46047732,0.07535234,0.33852667,0.13529144,0.11316034,0.15843919,0.37753046,0.6086744,0.32101426,0.24274547,0.6425244,0.38970518,0.08606149,0.15526363,0.55024165,-0.18541756,-0.5309079,-0.11045156,-0.18101901,818.7546,809.4872,810.293,835.6777,949.707,-0.183349609375,-0.00152587890625,0.98468017578125,5.12908935546875,-5.061798095703125,-1.495361328125,1,1.0,1.0,1.0,1.0,100.00
2021-04-08 22:21:03.309,0.2492867,0.9648213,0.45204866,0.5971925,0.15687017,0.41245627,0.42839608,0.5933686,0.93434435,0.7248598,0.32212722,0.646147,0.34741193,0.12008911,0.20550232,0.48442346,-0.09428665,-0.3314686,-0.15062557,-0.14012443,801.8315,778.86444,811.0989,826.8132,740.18317,-0.17803955078125,-0.00225830078125,0.98779296875,4.5758056640625,-4.246826171875,0.67291259765625,1,1.0,1.0,1.0,1.0,100.00
2021-04-08 22:21:03.712,,,,,,,,,,,,,,,,,,,,,,,,,,,,,,,,,,,,,,/muse/elements/blink
2021-04-08 22:21:03.837,0.20820627,0.99098873,0.4484309,0.6823761,0.22556576,0.44314173,0.41852584,0.6602826,0.95360315,0.7248598,0.3216027,0.646147,0.31835964,0.102694236,0.19041775,0.44303885,-0.06990932,-0.22277321,-0.20080158,-0.08123991,823.9927,791.75824,817.1429,833.663,733.73627,-0.18719482421875,-0.002197265625,0.983154296875,4.68048095703125,-4.299163818359375,1.3458251953125,1,1.0,1.0,1.0,1.0,100.00
2021-04-08 22:21:04.340,0.05600254,0.9549517,0.5508248,0.8017235,0.21125378,0.4755391,0.39671296,0.70587426,0.9516543,0.7228971,0.3359272,0.2556372,0.30755645,-0.020006305,0.23576112,0.25394025,-0.004779518,-0.18916254,-0.1030857,0.018608358,815.5311,790.14655,809.89014,816.337,737.76556,-0.18682861328125,0.0030517578125,0.98583984375,4.837493896484375,-5.15899658203125,1.15142822265625,1,1.0,1.0,1.0,1.0,100.00
2021-04-08 22:21:04.851,0.09941665,0.46800402,0.2465448,0.81991935,0.20038557,0.25619274,0.08489766,0.574195,0.91018456,0.4642317,0.38147303,0.117611624,0.2837119,-0.04184714,0.1369737,0.15214005,0.032158546,-0.21247892,-0.09560123,0.10911583,786.1172,767.98535,793.7729,798.20514,793.36993,-0.1864013671875,-3.662109375E-4,0.98468017578125,4.6356201171875,-4.26177978515625,0.299072265625,1,1.0,1.0,1.0,1.0,100.00
2021-04-08 22:21:05.364,0.40753978,0.50159633,0.1880431,0.19395526,0.076189175,0.28948486,-0.009542865,-0.028746355,0.3535546,0.47996393,0.38241383,0.37161294,0.27066234,0.008190766,0.09532524,0.13660023,-0.19380578,-0.32599348,-0.19878753,-0.10761375,807.47253,780.07324,795.78754,805.05493,697.8755,-0.189453125,-0.00244140625,0.97833251953125,4.478607177734375,-4.717864990234375,1.24114990234375,1,1.0,1.0,1.0,1.0,100.00
2021-04-08 22:21:05.875,0.5987826,0.90062827,0.39799753,0.5580568,0.1082763,0.3893099,0.17110316,0.34227768,0.3988314,0.58238286,0.5082004,0.44873822,0.19658035,0.055818688,0.04382195,0.2003899,-0.11979094,-0.34270096,-0.2652194,-0.040552612,815.5311,792.1612,796.1905,804.2491,761.13556,-0.18719482421875,-0.00323486328125,0.984375,4.673004150390625,-4.254302978515625,1.07666015625,1,1.0,1.0,1.0,1.0,100.00
2021-04-08 22:21:06.395,0.48098445,0.96192217,0.46725202,0.49302778,0.05059431,0.43494788,0.17738551,0.42355287,0.59757924,0.55305755,0.49463308,0.5577152,0.174709,0.08996107,0.06085969,0.23616333,-0.08216329,-0.21952525,-0.34580314,-0.02048084,811.0989,793.36993,796.99634,803.44324,639.45056,-0.18206787109375,-0.001708984375,0.9830322265625,4.91973876953125,-6.041259765625,1.039276123046875,1,1.0,1.0,1.0,1.0,100.00
2021-04-08 22:21:06.904,0.3694279,0.8940681,0.4388489,0.48634973,-0.057642754,0.26635244,0.21100675,0.42523637,0.5603157,0.5404472,0.5159571,0.56775045,0.22558784,0.15315372,0.03615221,0.35254544,-0.034616947,-0.1533521,-0.2825084,-0.009788854,809.89014,788.93774,807.47253,815.9341,789.34064,-0.18621826171875,-0.00592041015625,0.9874267578125,4.6356201171875,-4.85992431640625,1.368255615234375,1,1.0,1.0,1.0,1.0,100.00
2021-04-08 22:21:07.413,-0.007063466,0.5001176,0.2068403,0.23718263,-0.16092291,0.059766673,-0.05305824,0.2626969,0.5151015,0.18465808,0.15247165,0.5693851,0.18724126,0.055198304,0.0025126056,0.30780095,-0.017398132,-0.2184605,-0.3218001,0.0013822478,808.2784,790.14655,798.60803,815.12823,747.4359,-0.177734375,-0.00860595703125,0.98553466796875,4.8748779296875,-4.306640625,0.79254150390625,1,1.0,1.0,1.0,1.0,100.00
2021-04-08 22:21:07.914,0.109696776,0.36783224,0.30966052,0.31366378,-0.072152756,-0.04592729,0.010510944,0.28462064,0.28950086,0.11419542,0.0554292,0.42173404,0.16994528,-0.0044618645,-0.055003524,0.2363256,-0.11509484,-0.45070395,-0.28635275,-0.042456448,816.7399,792.96704,788.93774,809.4872,597.9487,-0.18756103515625,-0.0101318359375,0.987060546875,4.912261962890625,-4.717864990234375,0.934600830078125,1,1.0,1.0,1.0,1.0,100.00
2021-04-08 22:21:08.421,0.18290313,0.34450585,0.39943278,0.37399465,0.039412316,0.2104728,0.11557293,0.50209373,0.23452143,0.35014865,0.022842368,0.5490165,0.16476087,-0.06659333,0.033052813,0.08293485,-0.20345688,-0.56168884,-0.33032525,-0.07294542,814.3223,802.23444,799.011,813.5165,787.72894,-0.18817138671875,-0.0047607421875,0.985595703125,4.9945068359375,-4.673004150390625,0.725250244140625,1,1.0,1.0,1.0,1.0,85.00
2021-04-08 22:21:08.919,,,,,,,,,,,,,,,,,,,,,,,,,,,,,,,,,,,,,,/muse/elements/blink
2021-04-08 22:21:08.933,0.31063282,0.45929086,0.5204238,0.3986011,0.045339618,0.31044778,0.2518802,0.58367646,0.19038694,0.29289687,0.30839208,0.52988803,0.26906422,-1.0711479E-4,0.10741124,0.21841307,-0.2567609,-0.6151326,-0.3329594,-0.0937072,808.2784,770.80585,785.7143,818.3516,864.2857,-0.18646240234375,-0.00640869140625,0.98260498046875,4.66552734375,-5.39825439453125,1.054229736328125,1,1.0,1.0,1.0,1.0,85.00
2021-04-08 22:21:09.446,0.31596196,0.7172463,0.7463822,0.43635935,-0.030501341,0.47387898,0.34875527,0.6340853,0.04226552,0.29289687,0.3348194,0.49865595,0.3529837,0.07967042,0.22890106,0.3282368,-0.16328846,-0.6202311,-0.427042,-0.06355815,794.9817,773.22345,790.14655,817.9487,786.9231,-0.22528076171875,0.00433349609375,1.0057373046875,-10.2581787109375,3.2598876953125,-11.761016845703125,1,1.0,1.0,1.0,1.0,85.00
2021-04-08 22:21:09.952,0.22549294,0.68115366,0.8828513,0.46205327,-0.17197959,0.18960318,0.34034458,0.54985136,-0.24984378,0.2592349,0.34363124,0.43844357,0.36774,-0.12898141,0.24640498,0.47626257,-0.044498123,-0.29125342,-0.35291553,0.024758773,813.91943,806.26373,824.7985,811.9048,744.61536,-0.2862548828125,-0.13311767578125,0.92681884765625,4.605712890625,3.222503662109375,1.592559814453125,1,1.0,1.0,1.0,1.0,85.00
2021-04-08 22:21:10.457,0.22549294,0.94295025,1.0535918,0.46205327,-0.17197959,0.375398,0.32999462,0.54985136,-0.24984378,0.35178754,0.261218,0.43844357,0.36774,-0.072325096,0.27260852,0.47626257,-0.044498123,-0.28665128,-0.29996094,0.024758773,704.7253,714.3956,710.7692,708.3516,654.35895,-0.408935546875,9.765625E-4,0.9071044921875,6.05621337890625,-3.895416259765625,13.218994140625,1,1.0,1.0,1.0,1.0,85.00
2021-04-08 22:21:10.528,,,,,,,,,,,,,,,,,,,,,,,,,,,,,,,,,,,,,,/muse/elements/blink
2021-04-08 22:21:10.961,,,,,,,,,,,,,,,,,,,,,,,,,,,,,,,,,,,,,,/muse/elements/blink
2021-04-08 22:21:10.963,0.22549294,0.94295025,1.0535918,0.46205327,-0.17197959,0.375398,0.32999462,0.54985136,-0.24984378,0.35178754,0.261218,0.43844357,0.36774,-0.072325096,0.27260852,0.47626257,-0.044498123,-0.28665128,-0.29996094,0.024758773,817.1429,813.5165,818.3516,829.2308,798.60803,-0.27960205078125,0.04046630859375,0.96636962890625,5.540313720703125,-7.79083251953125,-7.716064453125,1,1.0,1.0,1.0,1.0,85.00
2021-04-08 22:21:11.481,0.22549294,1.0362163,1.0535918,0.46205327,-0.17197959,0.46027908,0.32999462,0.54985136,-0.24984378,0.3432713,0.261218,0.43844357,0.36774,-0.061204277,0.27260852,0.47626257,-0.044498123,-0.27051443,-0.29996094,0.024758773,852.1978,834.0659,837.6923,851.39197,737.3626,-0.27001953125,0.0235595703125,0.96697998046875,3.671112060546875,-7.37213134765625,-1.8841552734375,1,2.0,1.0,1.0,2.0,85.00
2021-04-08 22:21:12.011,0.22549294,1.0362163,1.0535918,0.46205327,-0.17197959,0.46027908,0.32999462,0.54985136,-0.24984378,0.3432713,0.261218,0.43844357,0.36774,-0.061204277,0.27260852,0.47626257,-0.044498123,-0.27051443,-0.29996094,0.024758773,823.1868,813.91943,823.1868,836.4835,856.63007,-0.2667236328125,0.022705078125,0.96685791015625,5.27862548828125,-6.11602783203125,-6.108551025390625,1,2.0,1.0,1.0,2.0,85.00
2021-04-08 22:21:12.518,0.22549294,1.2018594,1.0535918,0.46205327,-0.17197959,0.9931492,0.32999462,0.54985136,-0.24984378,0.4551491,0.261218,0.43844357,0.36774,0.49763164,0.27260852,0.47626257,-0.044498123,-0.32157034,-0.29996094,0.024758773,837.28937,829.6337,828.022,841.7216,918.2784,-0.25347900390625,0.01043701171875,0.9691162109375,4.77020263671875,-4.702911376953125,-0.22430419921875,1,2.0,1.0,1.0,2.0,85.00
2021-04-08 22:21:13.025,0.90057373,1.0565472,1.0579464,0.46205327,0.5144118,0.7754569,0.5078107,0.54985136,0.60576165,0.49055514,0.43201813,0.43844357,0.22070476,0.30034733,0.248619,0.47626257,-0.040333375,-0.2977049,-0.40252554,0.024758773,768.3883,808.2784,835.6777,789.7436,866.7033,-0.2576904296875,0.02349853515625,0.9736328125,5.405731201171875,-5.674896240234375,1.278533935546875,1,1.0,1.0,1.0,1.0,85.00
2021-04-08 22:21:13.287,,,,,,,,,,,,,,,,,,,,,,,,,,,,,,,,,,,,,,/muse/elements/blink
2021-04-08 22:21:13.531,0.90057373,0.99081576,0.98452485,0.46205327,0.5144118,0.762389,0.4524585,0.54985136,0.60576165,0.5352705,0.43823025,0.43844357,0.22070476,0.20333444,0.27200854,0.47626257,-0.040333375,-0.38442844,-0.43532988,0.024758773,818.7546,805.8608,809.0842,830.4396,762.74725,-0.2520751953125,0.0238037109375,0.96905517578125,5.5328369140625,-4.777679443359375,1.18133544921875,1,1.0,1.0,1.0,1.0,85.00
2021-04-08 22:21:14.031,0.96593857,1.026859,0.84625864,0.46205327,0.52755094,0.7878328,0.36121857,0.54985136,0.5792673,0.5742917,0.05623694,0.43844357,0.17374088,0.019816685,0.27217576,0.47626257,-0.04764854,-0.4069169,-0.316528,0.024758773,822.381,810.696,815.9341,813.91943,659.19415,-0.24267578125,0.02386474609375,0.9697265625,4.987030029296875,-6.160888671875,1.114044189453125,1,1.0,1.0,1.0,1.0,85.00
2021-04-08 22:21:14.559,0.99985117,0.9903325,0.57125753,0.46205327,0.5172952,0.7494502,0.24184413,0.54985136,0.5717035,0.50590134,0.09566423,0.43844357,0.13454364,0.038315408,0.29095054,0.47626257,-0.008597627,-0.43223146,-0.21078539,0.024758773,818.7546,808.68134,814.3223,836.08057,859.45056,-0.24560546875,0.02227783203125,0.97320556640625,4.553375244140625,-4.6356201171875,1.472930908203125,1,1.0,1.0,1.0,1.0,85.00
2021-04-08 22:21:15.060,0.4611437,1.051945,0.5330231,0.17197973,0.4657069,0.7745045,0.21602362,0.36542967,0.58236724,0.701221,0.13914052,0.3710514,0.26362705,0.07697521,0.25539562,0.42321756,-0.08087698,-0.37385464,-0.18119359,0.03552842,806.26373,792.96704,818.7546,827.2161,819.15753,-0.235107421875,0.02203369140625,0.97698974609375,4.777679443359375,-5.271148681640625,1.069183349609375,1,1.0,1.0,1.0,1.0,85.00
2021-04-08 22:21:15.580,0.35210767,0.82873106,0.3698093,0.19181754,0.3713455,0.5075884,0.13741347,0.27965447,0.69388646,0.683156,0.16467741,0.37835658,0.22464454,-0.0010909406,0.18501595,0.31491226,-0.11341581,-0.3786052,-0.20004539,-0.08272097,807.47253,801.02563,813.1135,818.3516,957.76556,-0.22784423828125,0.01776123046875,0.97113037109375,4.78515625,-5.286102294921875,1.233673095703125,1,1.0,1.0,1.0,1.0,85.00
2021-04-08 22:21:16.081,0.4647361,0.7763095,0.6816914,0.62055016,0.35729864,0.46776444,0.18118632,0.26725346,0.7122495,0.683156,0.19910583,0.4215844,0.27779287,-0.037638552,0.10598449,0.2782856,-0.12357915,-0.38865826,-0.22797754,-0.14139284,817.5458,784.5055,801.4286,805.05493,780.87915,-0.23455810546875,0.01715087890625,0.97039794921875,4.942169189453125,-4.358978271484375,1.323394775390625,1,1.0,1.0,1.0,1.0,85.00
2021-04-08 22:21:16.412,,,,,,,,,,,,,,,,,,,,,,,,,,,,,,,,,,,,,,/muse/elements/blink
2021-04-08 22:21:16.585,0.54192585,0.4926817,0.7229503,0.81051064,0.28284848,0.040091343,0.16154309,0.19150946,0.66944003,0.40167058,0.30778438,0.42326623,0.2879769,-0.054213814,0.049445085,0.20776415,-0.16810732,-0.3585617,-0.27035,-0.24895239,809.0842,782.8938,794.57874,816.7399,839.304,-0.23748779296875,0.0206298828125,0.97418212890625,5.682373046875,-5.121612548828125,2.213134765625,1,1.0,1.0,1.0,1.0,85.00
2021-04-08 22:21:17.090,0.712013,0.5850738,0.87221587,1.0205842,0.32785398,-0.09900898,0.19929253,0.22492279,0.3957944,0.30700615,0.2731216,0.39616725,0.3650711,-0.074176975,0.08135202,0.26057512,-0.17847708,-0.33425495,-0.34249508,-0.21945272,807.47253,795.38464,799.41394,826.0073,948.9011,-0.2296142578125,0.02410888671875,0.9759521484375,5.0543212890625,-6.138458251953125,1.00189208984375,1,1.0,1.0,1.0,1.0,85.00
2021-04-08 22:21:17.592,0.823965,0.7085618,0.7160129,1.1260736,0.34367123,0.21418968,0.19275716,0.17396367,0.32204536,0.43850976,0.26742426,0.36743084,0.4029184,-0.13549502,0.111309044,0.33842802,-0.19126311,-0.3835648,-0.22971343,-0.1835956,803.0403,778.0586,791.75824,804.2491,662.8205,-0.2293701171875,0.02081298828125,0.971435546875,4.658050537109375,-4.732818603515625,0.5682373046875,1,1.0,1.0,1.0,1.0,85.00
2021-04-08 22:21:18.108,0.46239805,0.7376085,0.7421112,0.42513168,-2.3889868E-4,0.31941432,0.16584955,0.29243565,-0.05123909,0.32067817,0.24312511,0.16233338,0.12774535,-0.11656057,0.17002222,0.505024,-0.18442228,-0.43147227,-0.1503053,-0.15081559,813.1135,796.5934,800.2198,809.89014,770.80585,-0.234130859375,0.02081298828125,0.97186279296875,4.6356201171875,-4.553375244140625,0.859832763671875,1,1.0,1.0,1.0,1.0,85.00
2021-04-08 22:21:18.635,0.52023387,0.70249337,0.85577756,0.61102057,0.029981581,0.49599218,0.09475412,0.3103331,0.14370494,0.3510735,0.4624156,0.5160273,0.19720556,0.045086827,0.15899503,0.43365884,-0.17079157,-0.49747375,-0.14725162,-0.1920375,809.0842,796.99634,798.20514,809.89014,811.50183,-0.2315673828125,0.02313232421875,0.97698974609375,4.8748779296875,-5.203857421875,1.30096435546875,1,1.0,1.0,1.0,1.0,100.00
2021-04-08 22:21:19.162,0.5808094,0.76052797,0.89420706,0.5704946,0.032028854,0.43699455,0.046830848,0.2737316,0.18105312,0.337057,0.45072392,0.5232642,0.18179286,0.10855353,0.11888752,0.3432261,-0.1880596,-0.4557134,-0.23730206,-0.27220535,795.78754,780.87915,783.2967,794.9817,806.6667,-0.216064453125,0.025146484375,0.99139404296875,3.93280029296875,-1.54022216796875,3.671112060546875,1,1.0,1.0,1.0,1.0,100.00
2021-04-08 22:21:19.686,0.68236315,0.8072427,0.88147074,0.5317189,0.14011651,0.42077413,0.044570103,0.24955904,0.25462046,0.39582482,0.41872478,0.52321094,0.22645123,0.12044141,0.07904911,0.2784438,-0.2029642,-0.42693022,-0.23771623,-0.36361957,810.696,792.96704,834.0659,821.1722,938.8278,-0.349365234375,-0.12677001953125,0.91082763671875,6.990814208984375,2.70660400390625,9.76470947265625,1,1.0,1.0,1.0,1.0,100.00
2021-04-08 22:21:20.192,0.76731974,0.8860643,0.79238826,0.5318472,0.24532649,0.5464271,0.06726717,0.24655761,0.18396993,0.42501548,0.22343092,0.24077062,0.28911063,0.16979922,0.07780902,0.29381904,-0.042438325,-0.37279823,-0.26337168,-0.38975322,798.20514,794.17584,818.7546,803.0403,695.8608,-0.314208984375,0.0517578125,0.9552001953125,6.751556396484375,-11.8133544921875,7.559051513671875,1,1.0,1.0,1.0,1.0,100.00
2021-04-08 22:21:20.702,0.7894527,0.8410774,0.83039457,0.80980647,0.2710274,0.6577296,0.122927666,0.34959567,0.18396993,0.41925997,-0.051411718,0.3393988,0.32048875,0.1745692,0.13500875,0.3312211,0.0016604711,-0.35876644,-0.23253265,-0.26930895,791.75824,775.64105,799.011,811.0989,859.45056,-0.25701904296875,0.04461669921875,0.9713134765625,5.136566162109375,-5.38330078125,-4.822540283203125,1,1.0,1.0,1.0,1.0,100.00
2021-04-08 22:21:21.218,0.94542676,0.9012756,0.9673029,0.98305476,0.41926864,0.76776236,0.22116747,0.623168,0.49617928,0.165916,0.16573414,0.37888193,0.497711,0.18941116,0.18614309,0.40711534,0.090317026,-0.33753762,-0.19809352,0.017524356,802.6374,787.72894,808.68134,819.15753,862.674,-0.26898193359375,0.09136962890625,0.99639892578125,4.605712890625,-9.114227294921875,14.153594970703125,1,1.0,1.0,1.0,1.0,100.00
2021-04-08 22:21:21.730,0.7929559,0.7447669,1.0424757,0.9004787,0.3335878,0.59254855,0.27197668,0.6456938,0.5059193,0.5462652,0.2965583,0.49790636,0.3972063,0.08947687,0.19937721,0.43357757,-0.0924277,-0.31704235,-0.119323544,0.052437764,807.8755,787.326,797.3993,816.337,816.7399,-0.21826171875,0.01055908203125,0.98046875,4.358978271484375,-5.271148681640625,-2.093505859375,1,1.0,1.0,1.0,1.0,100.00
2021-04-08 22:21:22.253,0.72678715,0.8126579,1.0385656,0.75508296,0.29109383,0.47414663,0.27768576,0.52783555,0.5034913,0.758571,0.30090714,0.52535856,0.33573827,0.038292054,0.14688066,0.4526608,-0.1530421,-0.44255823,-0.19372302,0.018533988,820.3663,799.011,809.0842,822.381,702.3077,-0.21337890625,0.0096435546875,0.9820556640625,6.26556396484375,-0.231781005859375,-0.994415283203125,1,1.0,1.0,1.0,1.0,100.00
2021-04-08 22:21:22.755,0.540684,0.7500677,0.947532,0.59998524,0.16408964,0.39168695,0.18003424,0.33749658,0.3454706,0.758571,0.24154982,0.4879291,0.2231888,0.048936922,0.11600155,0.39686692,-0.22018795,-0.4323496,-0.21587576,-0.033638813,516.55676,447.25275,459.7436,520.18317,645.4945,-0.2291259765625,-0.004638671875,0.97332763671875,4.089813232421875,-3.446807861328125,5.15899658203125,1,1.0,1.0,1.0,1.0,100.00
2021-04-08 22:21:22.809,,,,,,,,,,,,,,,,,,,,,,,,,,,,,,,,,,,,,,/muse/elements/blink
2021-04-08 22:21:23.265,0.54587877,0.80013484,0.82872355,0.5819146,0.12589183,0.4511648,0.091556266,0.010442012,0.34515077,0.758571,-0.026204394,0.41221333,0.20223926,0.0735979,0.07425936,0.3289307,-0.23421484,-0.4954721,-0.34007022,-0.077189416,839.707,835.2747,846.55676,843.73627,697.8755,-0.21405029296875,0.00274658203125,0.971923828125,4.725341796875,-7.29736328125,2.51220703125,1,1.0,1.0,1.0,1.0,100.00
2021-04-08 22:21:23.767,0.50655586,0.51507866,0.6646789,0.62880933,-0.05918029,0.12986825,-0.279749,-0.17604035,0.110844,0.21034722,-0.191746,0.20883806,0.18245849,0.039335392,0.04930594,0.26531988,-0.1867795,-0.4586369,-0.27665395,-0.10244797,838.49817,821.1722,848.97437,854.21246,935.6044,-0.21527099609375,0.00970458984375,0.97650146484375,6.572113037109375,-3.3795166015625,2.444915771484375,1,1.0,1.0,1.0,1.0,100.00
2021-04-08 22:21:24.263,,,,,,,,,,,,,,,,,,,,,,,,,,,,,,,,,,,,,,/muse/elements/blink
2021-04-08 22:21:24.293,0.50655586,0.51507866,0.6646789,0.62880933,-0.05918029,0.12986825,-0.279749,-0.17604035,0.110844,0.21034722,-0.191746,0.20883806,0.18245849,0.039335392,0.04930594,0.26531988,-0.1867795,-0.4586369,-0.27665395,-0.10244797,889.2674,830.4396,818.3516,882.01465,678.1319,-0.22076416015625,0.0184326171875,0.97686767578125,4.66552734375,-5.87677001953125,0.635528564453125,1,1.0,1.0,1.0,1.0,100.00
2021-04-08 22:21:24.819,0.50655586,0.51507866,1.2346381,0.62880933,-0.05918029,0.12986825,0.8765679,-0.17604035,0.110844,0.21034722,0.49384472,0.20883806,0.18245849,0.039335392,0.31380624,0.26531988,-0.1867795,-0.4586369,-0.21503408,-0.10244797,815.12823,799.41394,815.12823,827.619,925.9341,-0.21826171875,0.02459716796875,0.98175048828125,5.81695556640625,-5.689849853515625,2.026214599609375,1,1.0,1.0,1.0,1.0,100.00
2021-04-08 22:21:25.324,0.50655586,1.0161693,1.0480578,0.62880933,-0.05918029,0.7046075,0.77759326,-0.17604035,0.110844,0.39172646,0.5215138,0.20883806,0.18245849,0.2791775,0.29075354,0.26531988,-0.1867795,-0.40858907,-0.24668314,-0.10244797,846.1539,815.12823,809.89014,838.49817,823.1868,-0.2064208984375,0.02490234375,0.9754638671875,3.70849609375,-4.463653564453125,-0.43365478515625,1,2.0,1.0,1.0,2.0,100.00
2021-04-08 22:21:25.841,0.50655586,1.1104776,1.006309,-0.14364341,-0.05918029,0.65333545,0.68057305,-0.005110995,0.110844,0.6138617,0.5215138,0.29851952,0.18245849,0.2252678,0.22457387,0.51674575,-0.1867795,-0.35445487,-0.22013769,0.08616635,623.3333,756.30035,840.9158,653.5531,833.663,-0.21197509765625,0.02081298828125,0.97711181640625,4.8150634765625,-3.850555419921875,0.61309814453125,1,2.0,1.0,1.0,2.0,100.00
2021-04-08 22:21:25.966,,,,,,,,,,,,,,,,,,,,,,,,,,,,,,,,,,,,,,/muse/elements/blink
2021-04-08 22:21:26.342,0.50655586,1.0673124,0.93012947,-0.14364341,-0.05918029,0.42658505,0.67861325,-0.005110995,0.110844,0.5941207,0.60757005,0.29851952,0.18245849,0.14097223,0.19236931,0.51674575,-0.1867795,-0.32855415,-0.26565874,0.08616635,814.7253,789.7436,803.8461,811.9048,558.0586,-0.2130126953125,0.0225830078125,0.97076416015625,4.732818603515625,-4.65057373046875,0.70281982421875,1,1.0,1.0,1.0,1.0,100.00
2021-04-08 22:21:26.851,0.50655586,1.1693106,1.1921134,-0.14364341,-0.05918029,0.6963858,0.8866819,-0.005110995,0.110844,0.5656522,0.60330343,0.29851952,0.18245849,0.12141049,0.18095458,0.51674575,-0.1867795,-0.314214,-0.26783463,0.08616635,828.8278,810.293,815.9341,828.8278,729.707,-0.22283935546875,0.021484375,0.97576904296875,4.80010986328125,-4.254302978515625,1.375732421875,1,1.0,1.0,1.0,1.0,100.00
2021-04-08 22:21:27.361,0.50655586,0.97949463,1.1708609,-0.14364341,-0.05918029,0.88297683,0.87939245,-0.005110995,0.110844,0.43633467,0.7358383,0.29851952,0.18245849,0.25642973,0.13278599,0.51674575,-0.1867795,-0.3557604,-0.33737662,0.08616635,798.20514,783.2967,801.4286,805.4579,813.1135,-0.21624755859375,0.02044677734375,0.98114013671875,4.987030029296875,-5.644989013671875,1.428070068359375,1,1.0,1.0,1.0,1.0,100.00
2021-04-08 22:21:27.870,0.50848067,0.90615475,1.0242417,0.45572838,0.31114227,0.73128814,0.73815465,0.3550365,0.7324465,0.47074422,0.68577737,0.734177,0.2732249,0.23232685,0.04423537,0.1411648,-0.20219608,-0.37652522,-0.32061702,0.018793657,807.47253,788.1319,819.9634,821.1722,859.85345,-0.2095947265625,0.0206298828125,0.98590087890625,4.254302978515625,-5.3533935546875,1.18133544921875,1,1.0,1.0,1.0,1.0,100.00
2021-04-08 22:21:28.388,0.41825774,0.7227451,0.6112418,0.37194282,0.1544876,0.53847176,0.31396753,0.18490879,0.75116956,0.52425957,0.5231143,0.734177,0.23811261,0.21368612,0.105888695,0.19673213,-0.1495619,-0.36550516,-0.4195548,0.0297841,824.3956,805.4579,808.2784,819.5604,720.0366,-0.215087890625,0.02154541015625,0.97943115234375,4.852447509765625,-4.463653564453125,1.06170654296875,1,1.0,1.0,1.0,1.0,100.00
2021-04-08 22:21:28.901,0.27164498,0.43699425,0.41870686,0.31563944,0.11778163,-0.06253754,0.13798496,0.1307277,0.76008123,0.46658438,0.23236099,0.6652381,0.1803296,0.08037948,0.11850756,0.2478402,-0.0958186,-0.41130042,-0.4422222,-0.050440516,808.68134,784.90845,794.17584,801.02563,661.6117,-0.20355224609375,0.0208740234375,0.978515625,4.8748779296875,-4.762725830078125,1.06170654296875,1,1.0,1.0,1.0,1.0,100.00
2021-04-08 22:21:29.403,0.17421566,0.5005722,0.3788612,0.30222014,0.15612715,-0.07671985,-0.13154148,0.11497701,0.58911777,0.44367757,0.23346677,0.3689719,0.21891934,0.0763566,0.036277637,0.38076565,-0.043029837,-0.4741574,-0.4313562,-0.07718254,820.3663,801.02563,810.293,821.978,815.5311,-0.20635986328125,0.0244140625,0.98028564453125,4.897308349609375,-4.8748779296875,1.06170654296875,1,1.0,1.0,1.0,1.0,100.00
2021-04-08 22:21:29.910,0.10826183,0.5340597,0.27540892,0.28233844,0.15371445,-0.049241915,-0.24331504,0.16030058,0.5797079,0.32204112,0.15683475,0.3698996,0.25220427,0.053449918,-0.07164587,0.3593733,-0.0323569,-0.5027604,-0.39309442,-0.07526651,814.7253,837.6923,770.0,788.1319,796.5934,-0.2099609375,0.02093505859375,0.98089599609375,4.7552490234375,-5.031890869140625,0.11962890625,1,1.0,1.0,1.0,1.0,100.00
2021-04-08 22:21:30.424,0.17665958,0.972991,0.6923974,0.53486305,0.030401036,0.4151905,0.25242803,0.414994,0.5921819,0.5536794,0.55153924,0.69671553,0.2634404,0.07856052,-0.14062476,0.32096392,-0.11064239,-0.47856173,-0.3655624,-0.045881722,811.50183,794.17584,803.0403,813.91943,802.6374,-0.202392578125,0.0166015625,0.98748779296875,4.179534912109375,-5.93658447265625,0.500946044921875,1,1.0,1.0,1.0,1.0,100.00
2021-04-08 22:21:30.930,0.2011329,1.0130392,0.8184685,0.5856128,-0.045452915,0.49553138,0.33149284,0.47286716,0.55522364,0.5390622,0.5265193,0.7659371,0.22504357,0.040546246,-0.18677334,0.2257189,-0.1606008,-0.31577033,-0.3810202,-0.03535894,820.3663,803.44324,807.8755,819.5604,788.1319,-0.20001220703125,0.0159912109375,0.98291015625,4.71038818359375,-5.405731201171875,1.218719482421875,1,1.0,1.0,1.0,1.0,100.00
2021-04-08 22:21:31.438,0.24592026,1.0112584,0.8153877,0.57918674,-0.016917884,0.5037893,0.34178755,0.49182022,0.5531456,0.5390622,0.54300576,0.79582435,0.19618034,0.12272835,-0.24311897,0.20843297,-0.20949918,-0.33235878,-0.35101554,-0.068820685,862.674,799.81683,795.78754,875.9707,856.2271,-0.19146728515625,0.0142822265625,0.982666015625,4.852447509765625,-5.18890380859375,1.413116455078125,1,1.0,1.0,1.0,1.0,100.00
2021-04-08 22:21:31.563,,,,,,,,,,,,,,,,,,,,,,,,,,,,,,,,,,,,,,/muse/elements/blink
2021-04-08 22:21:31.943,0.23957829,0.7392753,0.876178,0.34866312,0.11239613,0.68548894,0.51792157,0.31722155,0.5089976,0.6717277,0.5386004,0.7651161,0.20557106,0.16105828,-0.103041686,0.2138018,-0.17867462,-0.33493763,-0.36664888,-0.028299464,812.71063,789.34064,794.9817,819.9634,726.08057,-0.199462890625,0.015869140625,0.98822021484375,5.5029296875,-4.366455078125,1.71966552734375,1,1.0,1.0,1.0,1.0,100.00
2021-04-08 22:21:32.463,0.18320617,0.4757085,0.8148879,-0.33465773,-0.064453036,0.6583617,0.52776843,0.06134149,0.40263832,0.65276194,0.48101526,0.6276954,0.21867439,0.18884537,-0.01973199,0.17739442,-0.22136135,-0.5062489,-0.27249214,-0.057411697,823.5897,795.38464,804.2491,819.15753,716.4103,-0.2003173828125,0.0174560546875,0.98187255859375,4.792633056640625,-4.9346923828125,2.400054931640625,1,1.0,1.0,1.0,1.0,100.00
2021-04-08 22:21:32.990,0.40452552,0.4248787,0.84956646,0.45654896,0.14666921,0.64148873,0.5238658,0.44807237,0.02457054,0.65662,0.47243696,0.3967582,0.18880185,0.12553807,0.026631126,0.4321806,-0.024858866,-0.5742092,-0.19547549,-0.0037847282,820.7692,800.2198,801.4286,815.5311,668.0586,-0.1966552734375,0.01654052734375,0.98138427734375,4.53094482421875,-5.323486328125,0.411224365234375,1,1.0,1.0,1.0,1.0,100.00
2021-04-08 22:21:33.501,0.30716828,0.4190541,0.584122,0.25831485,0.03138672,0.30264345,0.24710844,0.3323221,0.08389036,0.555516,0.3324096,0.40231165,0.23525798,0.07353602,0.028488936,0.38369617,-0.1436324,-0.59834284,-0.19622272,-0.040575027,809.89014,797.8022,798.20514,807.0696,669.67035,-0.1983642578125,0.01568603515625,0.98065185546875,4.5159912109375,-4.613189697265625,0.79254150390625,1,1.0,1.0,1.0,1.0,100.00
2021-04-08 22:21:34.008,0.119011655,0.4580684,0.27610585,0.1374817,-0.13825284,0.17022862,-0.19573787,0.13244867,0.29276654,0.36609235,-0.0037421526,0.40231165,0.20953175,0.04598219,0.0036697646,0.36829254,-0.16914229,-0.5079035,-0.28111243,-0.013069028,813.5165,801.8315,808.2784,823.9927,871.53845,-0.19952392578125,0.01348876953125,0.983154296875,5.21881103515625,-4.68048095703125,1.30096435546875,1,1.0,1.0,1.0,1.0,100.00
2021-04-08 22:21:34.528,-0.036467332,0.42949587,0.27909106,0.0404565,-0.1609319,0.23143981,-0.33948883,-0.14358175,0.41287172,0.3829593,0.07547172,0.4778754,0.27794546,0.122644104,0.010889358,0.3822772,-0.11020754,-0.30830887,-0.33413118,0.038546477,807.8755,804.2491,801.4286,813.5165,696.26373,-0.1912841796875,0.01885986328125,0.98150634765625,4.314117431640625,-5.7122802734375,0.665435791015625,1,1.0,1.0,1.0,1.0,100.00
2021-04-08 22:21:35.044,0.04613875,0.85479254,0.70323014,0.24228887,-0.0028889247,0.52535814,0.26944998,0.16039912,0.44023776,0.61831486,0.22978997,0.5622558,0.26499748,0.16147162,0.13333826,0.36385113,-0.024623286,-0.26274312,-0.21965024,0.10869274,848.97437,789.7436,814.3223,843.73627,727.6923,-0.19000244140625,0.01251220703125,0.98333740234375,4.882354736328125,-5.016937255859375,-0.059814453125,1,1.0,1.0,1.0,1.0,100.00
2021-04-08 22:21:35.119,,,,,,,,,,,,,,,,,,,,,,,,,,,,,,,,,,,,,,/muse/elements/blink
2021-04-08 22:21:35.574,0.21832117,0.96413505,0.79003257,0.37346533,0.17053665,0.61068153,0.34816232,0.34105358,0.42858702,0.6018047,0.30413234,0.5609564,0.31448925,0.13508339,0.17213257,0.3835511,0.04626417,-0.29316136,-0.12419781,0.14149404,805.8608,785.31134,813.91943,821.978,761.9414,-0.1724853515625,0.0133056640625,0.986328125,4.104766845703125,-4.867401123046875,-0.31402587890625,1,1.0,1.0,1.0,1.0,100.00
2021-04-08 22:21:36.099,0.36272985,0.98536694,0.7240764,0.46709922,0.2951853,0.6256729,0.43709642,0.59584194,0.01925897,0.55703557,0.3391806,0.5423956,0.17744385,0.13244146,0.14475062,0.23058473,0.0049664937,-0.35896206,-0.11914705,0.1715475,815.12823,784.90845,810.293,819.9634,906.1905,-0.18560791015625,0.01373291015625,0.9818115234375,4.957122802734375,-4.8748779296875,1.86920166015625,1,1.0,1.0,1.0,1.0,100.00
2021-04-08 22:21:36.627,-0.09646363,0.6071252,0.43244907,0.5728953,0.25781474,0.39810047,0.1277301,0.35162392,0.42936364,0.27581298,0.24461804,0.30209604,0.319992,0.1260913,0.094392076,0.2935508,-0.0049663438,-0.29384896,-0.11445603,-0.098983854,804.65204,782.0879,809.4872,812.3077,816.7399,-0.1845703125,0.02020263671875,0.9847412109375,5.1141357421875,-4.725341796875,1.143951416015625,1,1.0,1.0,1.0,1.0,100.00
2021-04-08 22:21:37.140,-0.062453046,0.24278222,0.3382965,0.39489794,0.19528313,0.1884154,-0.010644956,0.15567699,0.42936364,0.17335348,0.118322596,0.39823395,0.28199202,0.121579856,0.13106456,0.37384176,-0.12650047,-0.27742147,-0.1941295,-0.2602904,778.86444,787.326,812.3077,790.9524,865.89746,-0.1922607421875,0.015380859375,0.98516845703125,4.329071044921875,-3.45428466796875,4.239349365234375,1,1.0,1.0,1.0,1.0,100.00
2021-04-08 22:21:37.436,,,,,,,,,,,,,,,,,,,,,,,,,,,,,,,,,,,,,,/muse/elements/blink
2021-04-08 22:21:37.661,-0.062453046,0.33750784,0.6410265,0.39489794,0.19528313,0.21147521,0.002610191,0.15567699,0.42936364,0.16458206,0.059416503,0.39823395,0.28199202,0.044323478,0.15196384,0.37384176,-0.12650047,-0.29654703,-0.21463455,-0.2602904,808.68134,790.14655,809.4872,807.0696,668.46155,-0.1849365234375,0.02313232421875,0.981689453125,4.50103759765625,-5.944061279296875,2.4224853515625,1,1.0,1.0,1.0,1.0,100.00
2021-04-08 22:21:38.168,-0.06762709,0.8207132,0.74085164,0.18305103,0.093977116,0.47283027,0.110319585,-0.19896913,0.16138893,0.36859462,-0.17154275,0.24212188,0.2820816,-0.047392294,0.116276294,0.41139492,-0.2349722,-0.46912453,-0.31485513,-0.42325735,802.6374,788.93774,784.5055,792.5641,797.8022,-0.18231201171875,0.02117919921875,0.98406982421875,4.5458984375,-4.673004150390625,0.418701171875,1,1.0,1.0,1.0,1.0,100.00
2021-04-08 22:21:38.682,-0.09467364,1.0597682,1.0461761,0.12892735,0.05927054,0.66585785,0.51395655,-0.31528646,0.0916434,0.542509,0.244601,0.13537098,0.31001943,0.065052375,0.14191326,0.3928618,-0.23005669,-0.4552919,-0.40640923,-0.4339416,796.5934,791.3553,790.54944,803.0403,900.14655,-0.18408203125,0.0172119140625,0.98419189453125,4.553375244140625,-3.910369873046875,0.059814453125,1,1.0,1.0,1.0,1.0,100.00
2021-04-08 22:21:39.187,0.5366738,1.0410918,0.9464711,0.12892735,-0.1629189,0.67762256,0.38421288,-0.31528646,0.56712115,0.5484438,0.30066645,0.13537098,0.24066761,0.1813054,0.314522,0.3928618,-0.31083947,-0.45078236,-0.43327966,-0.4339416,807.0696,799.41394,801.4286,822.7839,879.19415,-0.1888427734375,0.0155029296875,0.983154296875,4.6954345703125,-5.465545654296875,1.24114990234375,1,1.0,1.0,1.0,1.0,100.00
2021-04-08 22:21:39.692,0.38855532,0.8888502,0.90876436,0.24775238,-0.01778512,0.5565888,0.2783409,0.4487422,0.5698842,0.52719265,0.39611083,0.48229045,0.26856118,0.2769853,0.34337932,0.18840232,-0.2728516,-0.34828302,-0.3801468,-0.0836873,810.696,790.14655,801.8315,802.23444,736.9597,-0.178955078125,0.015869140625,0.9847412109375,4.65057373046875,-4.777679443359375,1.0467529296875,1,1.0,1.0,1.0,1.0,100.00
2021-04-08 22:21:40.201,0.28996658,0.45424846,0.76870054,0.18960209,0.055053286,0.26430517,0.25742653,0.46340975,0.61521435,0.45440924,0.50835055,0.61260927,0.257707,0.16344386,0.31737554,0.20821951,-0.2574231,-0.34463853,-0.35031042,-0.07524616,799.011,789.7436,802.23444,806.26373,720.84247,-0.1806640625,0.018798828125,0.98321533203125,4.68048095703125,-5.420684814453125,1.12152099609375,1,1.0,1.0,1.0,1.0,100.00
2021-04-08 22:21:40.722,0.047169168,0.3417877,0.645409,0.09419373,0.116046,0.013235938,0.29644978,0.34178212,0.4856282,0.41272855,0.4971919,0.6152334,0.23058823,0.0489801,0.2785181,0.23369311,-0.26952222,-0.35591313,-0.319613,-0.11872803,800.2198,777.25275,791.75824,786.9231,652.3443,-0.1865234375,0.01666259765625,0.984375,4.837493896484375,-4.50103759765625,0.79254150390625,1,1.0,1.0,1.0,1.0,100.00
2021-04-08 22:21:41.223,-0.056309883,0.5782207,0.46332908,0.0073483936,0.050749008,-0.11783288,0.26100084,0.1632753,0.5023802,0.22926351,0.44240093,0.7383281,0.07377112,-0.08151343,0.12946846,0.32519418,-0.30149883,-0.4420115,-0.26719666,-0.15594535,803.44324,780.4762,801.02563,799.011,695.8608,-0.18408203125,0.01226806640625,0.986572265625,5.001983642578125,-4.927215576171875,0.934600830078125,1,1.0,1.0,1.0,1.0,100.00
2021-04-08 22:21:41.733,0.05768618,0.670842,0.5095982,0.35425282,0.034271304,-0.18346916,0.011119879,-0.054826163,0.48911262,0.17008667,0.31483117,0.57600796,0.13436653,0.04334763,0.12857844,0.39211443,-0.28791392,-0.4260982,-0.1927856,-0.1730584,816.337,815.12823,789.34064,797.8022,625.34796,-0.1815185546875,0.02044677734375,0.9815673828125,4.38140869140625,-5.600128173828125,0.82244873046875,1,1.0,1.0,1.0,1.0,100.00
2021-04-08 22:21:42.246,0.23964567,0.7580517,0.65706813,0.5804488,-0.06243259,-0.17915162,0.060125656,0.27913436,0.48911262,0.16830666,0.30378065,0.6411925,0.29896662,0.12735324,0.14251055,0.4368818,-0.23242772,-0.3827658,-0.13951923,-0.06419931,670.4762,813.91943,804.2491,666.8498,775.64105,-0.18157958984375,0.017822265625,0.9859619140625,4.643096923828125,-5.443115234375,0.680389404296875,1,1.0,1.0,1.0,1.0,100.00
2021-04-08 22:21:42.423,,,,,,,,,,,,,,,,,,,,,,,,,,,,,,,,,,,,,,/muse/elements/blink
2021-04-08 22:21:42.765,0.34373662,0.7048234,0.8796024,0.70500696,-0.031448442,-0.2572697,0.1425816,0.38083905,0.113399394,0.021664007,0.43450624,0.46713504,0.4126649,0.19722383,0.20216413,0.4450763,-0.18814392,-0.3243104,-0.08726481,-0.018509679,799.011,782.49084,781.28204,814.3223,930.7692,-0.175048828125,0.01837158203125,0.990234375,5.181427001953125,-6.093597412109375,1.039276123046875,1,1.0,1.0,1.0,1.0,100.00
2021-04-08 22:21:43.271,0.38738263,0.7314638,1.008639,0.70613885,-0.30159667,-0.22833453,0.20833576,0.5476011,-0.06967548,-0.029036641,0.4355414,0.42463937,0.48105443,0.21568185,0.2201974,0.45166922,-0.1702883,-0.29579794,-0.050221886,0.057053722,803.8461,790.54944,799.41394,813.5165,817.5458,-0.17767333984375,0.0091552734375,0.990234375,4.807586669921875,-4.3963623046875,0.500946044921875,1,1.0,1.0,1.0,1.0,100.00
2021-04-08 22:21:43.772,0.41309932,0.5381938,0.95712554,0.760641,-0.39845404,-0.0583682,-0.033722036,0.6021546,-0.07424791,0.118143715,0.44364077,0.42463937,0.48942977,0.10754561,0.20641436,0.47182474,-0.19293503,-0.4043166,-0.13322362,0.053988982,804.65204,795.78754,807.47253,815.5311,720.4396,-0.17559814453125,0.01129150390625,0.9888916015625,4.11224365234375,-4.47113037109375,0.785064697265625,1,1.0,1.0,1.0,1.0,100.00
2021-04-08 22:21:44.280,0.7117466,0.6004318,0.7224152,0.6063563,0.19748968,-0.034281198,-0.11096741,0.015541313,0.42087772,0.38378355,0.3572832,0.3778405,0.3776577,0.13434514,0.122358546,0.11468543,-0.2976481,-0.46030226,-0.2939193,-0.1031673,803.8461,804.2491,809.4872,818.3516,931.978,-0.17822265625,0.0142822265625,0.99102783203125,4.5159912109375,-4.90478515625,0.82244873046875,1,1.0,1.0,1.0,1.0,100.00
2021-04-08 22:21:44.795,0.59992814,0.5638416,0.5672259,0.55598396,0.14185816,-0.12488454,-0.06931333,-0.0496676,0.5145875,0.43272835,0.11739017,0.5886225,0.37167415,0.1309117,0.06428814,0.19363014,-0.28601974,-0.4648026,-0.3792474,-0.015180973,815.5311,801.8315,810.293,810.696,647.1062,-0.17474365234375,0.0150146484375,0.98907470703125,4.486083984375,-4.83001708984375,0.725250244140625,1,1.0,1.0,1.0,1.0,100.00
2021-04-08 22:21:45.306,0.41616163,0.5230626,0.56258625,0.46820772,0.26822388,-0.15752083,0.07046602,-0.026190598,0.6128139,0.43642575,-0.014967216,0.5932492,0.26769,0.0919548,-0.012076228,0.22406252,-0.28996092,-0.40080523,-0.36284542,0.024892174,816.337,786.1172,811.9048,809.0842,634.61536,-0.17926025390625,0.0179443359375,0.98541259765625,5.15899658203125,-4.42626953125,1.084136962890625,1,1.0,1.0,1.0,1.0,100.00
2021-04-08 22:21:45.823,0.29804412,0.46171668,0.45396644,0.39867905,0.25942108,-0.116583206,0.13961604,0.010118508,0.6077097,0.43292895,0.3772196,0.5577645,0.15091869,0.00850781,0.03948265,0.24611335,-0.27211636,-0.39081815,-0.35183245,0.01739101,820.3663,801.8315,809.4872,812.71063,659.19415,-0.17401123046875,0.01788330078125,0.99102783203125,4.478607177734375,-5.241241455078125,0.897216796875,1,1.0,1.0,1.0,1.0,100.00
