TimeStamp,Delta_TP9,Delta_AF7,Delta_AF8,Delta_TP10,Theta_TP9,Theta_AF7,Theta_AF8,Theta_TP10,Alpha_TP9,Alpha_AF7,Alpha_AF8,Alpha_TP10,Beta_TP9,Beta_AF7,Beta_AF8,Beta_TP10,Gamma_TP9,Gamma_AF7,Gamma_AF8,Gamma_TP10,RAW_TP9,RAW_AF7,RAW_AF8,RAW_TP10,AUX_RIGHT,Accelerometer_X,Accelerometer_Y,Accelerometer_Z,Gyro_X,Gyro_Y,Gyro_Z,HeadBandOn,HSI_TP9,HSI_AF7,HSI_AF8,HSI_TP10,Battery,Elements
2021-04-15 22:09:01.059,0.39334568,0.67497617,0.044610858,0.0,0.2680996,0.31005195,0.05724021,0.0,0.89945793,0.8011423,0.9168884,0.0,1.512708,0.5161553,1.1733029,0.0,1.2134806,-0.014065611,0.6286283,0.0,826.0073,832.8571,814.3223,745.82416,735.7509,-0.169677734375,0.0609130859375,0.98193359375,4.0972900390625,-10.2880859375,1.95892333984375,1,2.0,1.0,1.0,2.0,90.00
2021-04-15 22:09:01.567,0.83593595,0.64435726,0.006410655,0.0,0.9733513,0.3293951,0.056014903,0.0,1.245394,0.708962,0.8740109,0.0,1.4296683,0.5381253,1.1561214,0.0,1.0238314,-0.017755928,0.66783696,0.0,997.6557,831.6484,842.52747,806.26373,750.2564,-0.09344482421875,0.05010986328125,0.9852294921875,2.639312744140625,-10.744171142578125,19.72381591796875,1,1.0,1.0,1.0,1.0,90.00
2021-04-15 22:09:01.665,,,,,,,,,,,,,,,,,,,,,,,,,,,,,,,,,,,,,,/muse/elements/blink
2021-04-15 22:09:02.076,0.9008178,0.7982562,0.003401694,0.0,0.9567436,0.44996274,0.09576763,0.0,1.284322,0.7668912,0.5634573,0.0,1.4644904,0.50921583,1.1605879,0.0,0.97517395,0.030985026,0.5422795,0.0,780.87915,826.4103,813.91943,840.10986,862.674,-0.06109619140625,0.03411865234375,0.98712158203125,7.37213134765625,-4.38140869140625,36.4569091796875,1,1.0,1.0,1.0,1.0,90.00
2021-04-15 22:09:02.599,0.9014643,0.7756468,0.023762047,0.0,0.76057535,0.4929268,-0.00902203,0.0,1.0506971,0.76927817,0.46155322,0.0,1.5118998,0.5144376,1.1450936,0.0,0.95704085,0.052805666,0.51874995,0.0,811.50183,826.0073,810.696,779.67035,784.5055,-0.05255126953125,0.07373046875,0.97796630859375,7.364654541015625,-8.41888427734375,25.039825439453125,1,1.0,1.0,1.0,1.0,90.00
2021-04-15 22:09:03.027,,,,,,,,,,,,,,,,,,,,,,,,,,,,,,,,,,,,,,/muse/elements/blink
2021-04-15 22:09:03.101,0.9014643,0.8958958,0.03775871,0.0,0.76057535,0.47467443,-0.02281359,0.0,1.0506971,0.78840274,0.66555214,0.0,1.5118998,0.51656085,1.1302427,0.0,0.95704085,0.115604915,0.4594746,0.0,709.15753,868.71796,803.0403,660.0,723.2601,0.047119140625,0.07550048828125,0.99755859375,0.485992431640625,-12.63580322265625,0.13458251953125,1,1.0,1.0,1.0,1.0,90.00
2021-04-15 22:09:03.619,0.9014643,0.78832644,0.18600965,0.0,0.76057535,0.44533318,-0.116456345,0.0,1.0506971,0.6801155,0.68409157,0.0,1.5118998,0.543875,1.1205194,0.0,0.95704085,0.058467753,0.42872393,0.0,971.06226,815.12823,796.99634,1017.3993,1071.7949,0.176513671875,0.00299072265625,0.981201171875,1.31591796875,-11.925506591796875,-11.31988525390625,1,1.0,1.0,1.0,1.0,90.00
2021-04-15 22:09:04.148,0.9014643,0.8973321,0.29500836,0.0,0.76057535,0.39411566,0.009827586,0.0,1.0506971,0.659933,0.6891195,0.0,1.5118998,0.5655302,1.1377975,0.0,0.95704085,0.0029598295,0.4713553,0.0,867.1062,842.9304,842.9304,938.8278,786.9231,0.22039794921875,0.08624267578125,0.976318359375,8.725433349609375,-9.1217041015625,-5.884246826171875,1,2.0,1.0,1.0,2.0,90.00
2021-04-15 22:09:04.412,,,,,,,,,,,,,,,,,,,,,,,,,,,,,,,,,,,,,,/muse/elements/blink
2021-04-15 22:09:04.655,0.9014643,0.8973321,0.42692158,0.0,0.76057535,0.39411566,0.09680393,0.0,1.0506971,0.659933,0.54718906,0.0,1.5118998,0.5655302,1.1459706,0.0,0.95704085,0.0029598295,0.67373693,0.0,677.326,807.8755,773.6264,644.2857,813.5165,0.24212646484375,0.07855224609375,0.9752197265625,5.81695556640625,-4.119720458984375,4.897308349609375,1,2.0,1.0,1.0,2.0,90.00
2021-04-15 22:09:05.159,0.9014643,0.8973321,0.4251982,0.0,0.76057535,0.39411566,0.030133588,0.0,1.0506971,0.659933,0.443173,0.0,1.5118998,0.5655302,1.1253585,0.0,0.95704085,0.0029598295,0.6822765,0.0,593.91943,823.5897,771.6117,523.4066,749.45056,0.2303466796875,0.10394287109375,0.98333740234375,8.830108642578125,-5.405731201171875,-0.934600830078125,1,2.0,1.0,1.0,2.0,90.00
2021-04-15 22:09:05.667,0.9014643,0.8973321,0.5505172,0.0,0.76057535,0.39411566,0.09716254,0.0,1.0506971,0.659933,0.322753,0.0,1.5118998,0.5655302,1.1118783,0.0,0.95704085,0.0029598295,0.5763998,0.0,821.978,845.7509,845.34796,817.9487,810.696,0.2109375,0.1312255859375,0.9744873046875,4.792633056640625,-3.461761474609375,2.429962158203125,1,2.0,1.0,1.0,2.0,90.00
2021-04-15 22:09:05.718,,,,,,,,,,,,,,,,,,,,,,,,,,,,,,,,,,,,,,/muse/elements/blink
2021-04-15 22:09:06.175,0.52318865,0.4660984,0.47341192,0.0,0.33013943,0.24798995,0.04587815,0.0,0.5249424,0.092222504,0.50296605,0.0,1.4688655,0.54132295,1.1216059,0.0,0.93768334,-0.16338892,0.43045178,0.0,696.26373,833.2601,792.5641,653.5531,647.9121,0.23333740234375,0.08990478515625,0.96539306640625,1.084136962890625,-4.867401123046875,-3.117828369140625,1,1.0,1.0,1.0,1.0,90.00
2021-04-15 22:09:06.677,0.45349187,0.7751985,0.61931694,0.94594437,0.43717387,0.43316168,0.17465886,0.7151782,0.40002346,0.19277829,0.583107,0.92524457,1.4992845,0.5195206,1.1243569,1.5910132,0.9731471,-0.11760556,0.36748862,0.9918066,641.8681,818.7546,790.14655,587.0696,741.79486,0.2073974609375,0.12103271484375,0.99029541015625,7.8955078125,-5.166473388671875,-3.611297607421875,1,1.0,1.0,1.0,1.0,90.00
2021-04-15 22:09:07.041,,,,,,,,,,,,,,,,,,,,,,,,,,,,,,,,,,,,,,/muse/elements/blink
2021-04-15 22:09:07.185,0.45349187,0.894171,0.5806671,1.109591,0.43717387,0.54677665,0.13855049,0.8580163,0.40002346,0.3273215,0.580891,0.982298,1.4992845,0.4855777,1.1254421,1.5746047,0.9731471,-0.07119647,0.34326565,1.0581437,921.50183,845.7509,848.97437,918.68134,815.5311,0.214111328125,0.08856201171875,0.96612548828125,2.699127197265625,-6.44500732421875,4.56085205078125,1,1.0,1.0,1.0,1.0,90.00
2021-04-15 22:09:07.698,0.034841754,0.97907436,0.60160345,1.1766913,0.4501392,0.58099616,0.05093675,0.90545046,0.78383434,0.34188065,0.50214845,0.982298,1.4473826,0.4318897,1.138304,1.56324,0.81776184,-0.022249414,0.36787495,1.0957513,894.5055,823.5897,838.9011,952.52747,882.4176,0.22509765625,0.03570556640625,0.9891357421875,-4.015045166015625,0.2691650390625,8.71795654296875,1,1.0,1.0,1.0,1.0,90.00
2021-04-15 22:09:08.208,0.14755188,0.9273067,0.35853046,1.1766913,0.33941996,0.5405757,-0.067866445,0.90545046,0.91551346,0.34188065,0.48931172,0.982298,1.4223174,0.38501054,1.142038,1.56324,0.8456936,0.0018957165,0.57955277,1.0957513,740.989,820.3663,815.12823,746.63007,810.696,0.101318359375,-0.01556396484375,0.99267578125,4.209442138671875,1.727142333984375,9.7796630859375,1,1.0,1.0,1.0,1.0,90.00
2021-04-15 22:09:08.474,,,,,,,,,,,,,,,,,,,,,,,,,,,,,,,,,,,,,,/muse/elements/blink
2021-04-15 22:09:08.734,0.14755188,0.66880506,0.35853046,1.1766913,0.33941996,0.26734895,-0.067866445,0.90545046,0.91551346,0.26159844,0.48931172,0.982298,1.4223174,0.36286685,1.142038,1.56324,0.8456936,0.02656861,0.57955277,1.0957513,623.3333,838.0952,807.0696,593.5165,701.0989,0.013671875,-0.00372314453125,0.99285888671875,9.5404052734375,0.88226318359375,3.940277099609375,1,1.0,1.0,1.0,1.0,90.00
2021-04-15 22:09:09.239,0.14755188,0.82340235,0.19965425,1.1766913,0.33941996,0.6197831,-0.058319766,0.90545046,0.91551346,0.21962607,0.48313797,0.982298,1.4223174,0.42464164,1.0971605,1.56324,0.8456936,0.15091132,0.72701776,1.0957513,863.0769,810.696,784.5055,845.7509,1011.3553,-0.00384521484375,0.027099609375,0.99530029296875,5.12908935546875,-1.60003662109375,2.85614013671875,1,1.0,1.0,1.0,1.0,90.00
2021-04-15 22:09:09.746,0.14755188,0.65994084,0.2118003,1.1766913,0.33941996,0.4668596,-0.18325469,0.90545046,0.91551346,0.24903898,0.19037208,0.982298,1.4223174,0.37579829,1.0881534,1.56324,0.8456936,0.0902511,0.63959706,1.0957513,949.707,840.5128,862.27106,934.7985,867.9121,-0.01531982421875,0.05145263671875,0.9981689453125,5.345916748046875,-6.108551025390625,0.73272705078125,1,1.0,1.0,1.0,1.0,90.00
2021-04-15 22:09:09.798,,,,,,,,,,,,,,,,,,,,,,,,,,,,,,,,,,,,,,/muse/elements/blink
2021-04-15 22:09:10.263,0.14755188,0.5334664,0.13921325,1.1766913,0.33941996,0.30593196,-0.08608875,0.90545046,0.91551346,0.21318714,0.24706718,0.982298,1.4223174,0.3380947,1.0718006,1.56324,0.8456936,0.02867168,0.60920197,1.0957513,602.7839,832.8571,806.6667,568.1319,637.03296,0.005126953125,0.04376220703125,1.0003662109375,4.83001708984375,-5.8319091796875,1.039276123046875,1,1.0,1.0,1.0,1.0,90.00
2021-04-15 22:09:10.773,0.27908626,0.19240434,0.08839502,1.1766913,0.26072812,-0.0073105386,-0.08723215,0.90545046,0.85206187,0.28170264,0.19181201,0.982298,1.3762314,0.3528154,1.0565795,1.56324,1.2490039,0.004912691,0.6636862,1.0957513,829.6337,830.0366,820.3663,810.293,836.08057,0.0400390625,0.039794921875,0.99951171875,2.930908203125,-10.564727783203125,3.072967529296875,1,1.0,1.0,1.0,1.0,90.00
2021-04-15 22:09:11.079,,,,,,,,,,,,,,,,,,,,,,,,,,,,,,,,,,,,,,/muse/elements/blink
2021-04-15 22:09:11.281,0.17311636,0.39951196,0.0013089424,1.1766913,0.2886531,0.021036608,-0.090378396,0.90545046,0.8920367,0.5299254,0.08135498,0.982298,1.3633448,0.36843485,1.0467354,1.56324,1.1596855,-0.005352182,0.63310397,1.0957513,674.90845,819.15753,801.02563,633.4066,743.8095,0.10626220703125,0.02154541015625,0.994873046875,0.777587890625,-25.10711669921875,-2.100982666015625,1,1.0,1.0,1.0,1.0,90.00
2021-04-15 22:09:11.788,0.18108393,0.57711726,0.119259045,1.1766913,0.26260293,0.37643495,-0.11152125,0.90545046,0.85521,1.111667,0.08601764,0.982298,1.3669105,0.45676053,1.0689828,1.56324,1.1697319,0.07174312,0.61295974,1.0957513,754.68866,850.18317,809.89014,775.64105,801.02563,0.35980224609375,0.025634765625,0.95648193359375,1.667327880859375,-20.837860107421875,5.78704833984375,1,1.0,1.0,1.0,1.0,90.00
2021-04-15 22:09:12.305,-0.08037441,0.67035174,0.31234393,1.1766913,0.3299043,0.6512284,0.021385629,0.90545046,0.6674252,1.1595583,0.20242003,0.982298,1.341896,0.4543033,1.0788181,1.56324,0.96222454,0.035575926,0.4257622,1.0957513,664.83514,812.3077,788.93774,620.10986,701.9048,0.3763427734375,-0.0059814453125,0.9317626953125,5.263671875,-11.850738525390625,3.6187744140625,1,1.0,1.0,1.0,1.0,90.00
2021-04-15 22:09:12.398,,,,,,,,,,,,,,,,,,,,,,,,,,,,,,,,,,,,,,/muse/elements/blink
2021-04-15 22:09:12.808,-0.074028134,0.7345182,0.3696541,1.1766913,0.37808934,0.8007936,0.061682906,0.90545046,0.66242975,1.1565043,0.1836469,0.982298,1.3492699,0.5152493,1.1015368,1.56324,0.8964338,0.09774093,0.37332302,1.0957513,738.1685,810.696,814.3223,695.4579,675.31134,0.41876220703125,-0.00946044921875,0.93109130859375,6.661834716796875,-5.749664306640625,-1.263580322265625,1,1.0,1.0,1.0,1.0,90.00
2021-04-15 22:09:13.337,-0.074028134,0.62816477,0.3990201,1.1766913,0.37808934,0.9520708,0.09292191,0.90545046,0.66242975,1.1420813,0.20211503,0.982298,1.3492699,0.4997706,1.0999875,1.56324,0.8964338,0.024563465,0.35449436,1.0957513,938.8278,830.0366,857.4359,949.707,902.96704,0.39093017578125,-0.00146484375,0.9254150390625,4.822540283203125,-0.321502685546875,-0.0897216796875,1,1.0,1.0,1.0,1.0,90.00
2021-04-15 22:09:13.671,,,,,,,,,,,,,,,,,,,,,,,,,,,,,,,,,,,,,,/muse/elements/blink
2021-04-15 22:09:13.842,0.7837634,0.62816477,-0.034238137,0.33447227,-0.07535834,0.9520708,-0.30157351,0.39628258,0.4177275,1.1420813,0.002051978,0.5437109,1.4826415,0.4997706,1.1700252,1.6404094,0.63877845,0.024563465,0.4099159,0.61075366,825.2015,835.6777,844.94507,866.7033,792.1612,0.3289794921875,-0.004150390625,0.9390869140625,1.308441162109375,0.73272705078125,-14.108734130859375,1,1.0,1.0,1.0,1.0,90.00
2021-04-15 22:09:14.351,0.7733473,0.99456364,0.22896032,0.40810496,0.20844257,0.56528974,-0.1478115,0.4937683,0.4311055,0.51708335,0.5596083,0.59041697,1.4703164,0.23110847,1.1005769,1.6158803,0.7974126,0.012308056,0.47479498,0.8360545,680.54944,830.84247,800.2198,623.3333,623.3333,0.2939453125,0.00494384765625,0.973388671875,0.471038818359375,-1.742095947265625,-20.792999267578125,1,1.0,1.0,1.0,1.0,90.00
2021-04-15 22:09:14.859,0.9913457,1.0886118,0.5149029,0.7561195,0.62401485,0.6743261,0.0576979,0.8021727,0.52387214,0.5281874,0.62160206,0.5972042,1.4511411,0.2783104,1.0652808,1.5632925,0.82509553,-0.020218592,0.46158266,1.0016723,686.5934,807.8755,796.99634,633.00366,697.47253,0.30511474609375,0.0218505859375,0.9971923828125,-4.85992431640625,-3.8580322265625,15.948028564453125,1,1.0,1.0,1.0,1.0,90.00
2021-04-15 22:09:15.075,,,,,,,,,,,,,,,,,,,,,,,,,,,,,,,,,,,,,,/muse/elements/blink
2021-04-15 22:09:15.378,0.9913457,1.0533056,0.8964978,0.80914754,0.62401485,0.7048224,0.49135482,0.8742959,0.52387214,0.3525186,0.694186,0.5964476,1.4511411,0.24132966,1.0716066,1.5457237,0.82509553,-0.033763178,0.45952377,1.060314,862.674,818.7546,829.6337,848.1685,847.76556,0.188720703125,-0.109130859375,0.9560546875,5.8319091796875,0.441131591796875,15.768585205078125,1,1.0,1.0,1.0,1.0,90.00
2021-04-15 22:09:15.903,0.9913457,1.2175028,1.0352429,0.80914754,0.62401485,0.88082004,0.59197533,0.8742959,0.52387214,0.10986349,0.694186,0.5964476,1.4511411,0.338214,1.1198242,1.5457237,0.82509553,-0.07594106,0.40861225,1.060314,691.4286,818.3516,801.02563,650.32965,664.0293,0.17578125,-0.1097412109375,0.98681640625,21.7425537109375,-8.501129150390625,19.566802978515625,1,1.0,1.0,1.0,1.0,90.00
2021-04-15 22:09:16.381,,,,,,,,,,,,,,,,,,,,,,,,,,,,,,,,,,,,,,/muse/elements/blink
2021-04-15 22:09:16.413,0.9913457,1.2175028,1.0615195,0.80914754,0.62401485,0.88082004,0.6401486,0.8742959,0.52387214,0.10986349,0.37191546,0.5964476,1.4511411,0.338214,1.1638528,1.5457237,0.82509553,-0.07594106,0.41041765,1.060314,625.7509,831.2454,821.978,702.71063,765.9707,0.09600830078125,0.09765625,1.010009765625,11.544189453125,-4.91973876953125,18.908843994140625,1,1.0,1.0,1.0,1.0,90.00
2021-04-15 22:09:16.916,0.9913457,1.2175028,1.164926,0.80914754,0.62401485,0.88082004,0.6660441,0.8742959,0.52387214,0.10986349,0.35402957,0.5964476,1.4511411,0.338214,1.1617709,1.5457237,0.82509553,-0.07594106,0.43323985,1.060314,822.381,837.28937,823.1868,888.86444,938.4249,0.052001953125,0.14361572265625,0.9827880859375,5.682373046875,16.91253662109375,65.81085205078125,1,1.0,1.0,1.0,1.0,90.00
2021-04-15 22:09:17.438,0.9913457,1.2175028,0.49757656,0.80914754,0.62401485,0.88082004,0.1688452,0.8742959,0.52387214,0.10986349,0.21299863,0.5964476,1.4511411,0.338214,1.0074677,1.5457237,0.82509553,-0.07594106,0.2560382,1.060314,776.4469,906.99634,809.4872,890.07324,860.2564,-0.14447021484375,0.21112060546875,0.9892578125,5.09918212890625,6.557159423828125,28.890380859375,1,2.0,1.0,1.0,2.0,90.00
2021-04-15 22:09:17.942,0.9913457,1.2175028,0.47396588,0.80914754,0.62401485,0.88082004,0.2469324,0.8742959,0.52387214,0.10986349,0.3569081,0.5964476,1.4511411,0.338214,0.96582544,1.5457237,0.82509553,-0.07594106,0.39266014,1.060314,844.5421,819.5604,815.5311,578.60803,674.5055,-0.20660400390625,0.23907470703125,0.8450927734375,20.688323974609375,7.5067138671875,15.05828857421875,1,2.0,1.0,1.0,2.0,90.00
2021-04-15 22:09:18.444,0.9913457,1.2175028,0.48730052,0.80914754,0.62401485,0.88082004,0.1787791,0.8742959,0.52387214,0.10986349,0.36040616,0.5964476,1.4511411,0.338214,0.9573673,1.5457237,0.82509553,-0.07594106,0.4480787,1.060314,815.5311,822.7839,816.337,525.82416,638.6447,-0.2816162109375,0.2548828125,0.91156005859375,-11.37969970703125,-14.482574462890625,1.816864013671875,1,2.0,1.0,1.0,2.0,90.00
2021-04-15 22:09:18.950,0.9913457,1.2175028,0.5345832,0.80914754,0.62401485,0.88082004,0.25718027,0.8742959,0.52387214,0.10986349,0.32610223,0.5964476,1.4511411,0.338214,0.8871308,1.5457237,0.82509553,-0.07594106,0.55171394,1.060314,761.9414,817.5458,822.381,973.0769,963.8095,-0.260009765625,0.2000732421875,0.9344482421875,1.0467529296875,3.69354248046875,2.639312744140625,1,2.0,1.0,1.0,2.0,90.00
2021-04-15 22:09:19.466,0.9913457,1.2175028,0.66187453,0.80914754,0.62401485,0.88082004,0.10021844,0.8742959,0.52387214,0.10986349,0.29187122,0.5964476,1.4511411,0.338214,0.8219399,1.5457237,0.82509553,-0.07594106,0.58992743,1.060314,584.2491,896.1172,842.9304,809.4872,688.20514,-0.28759765625,0.208984375,0.95068359375,6.871185302734375,-11.671295166015625,-9.607696533203125,1,2.0,1.0,1.0,2.0,90.00
2021-04-15 22:09:19.973,0.9913457,1.2175028,0.26543048,0.80914754,0.62401485,0.88082004,0.17752397,0.8742959,0.52387214,0.10986349,0.341163,0.5964476,1.4511411,0.338214,0.973592,1.5457237,0.82509553,-0.07594106,0.5283215,1.060314,684.9817,788.93774,846.9597,564.90845,626.55676,-0.34747314453125,0.0999755859375,0.99444580078125,-5.39825439453125,-10.4974365234375,13.704986572265625,1,2.0,1.0,1.0,2.0,90.00
2021-04-15 22:09:20.236,,,,,,,,,,,,,,,,,,,,,,,,,,,,,,,,,,,,,,/muse/elements/blink
2021-04-15 22:09:20.493,0.9913457,1.2175028,0.45180547,0.80914754,0.62401485,0.88082004,0.15612878,0.8742959,0.52387214,0.10986349,0.36742643,0.5964476,1.4511411,0.338214,1.0040076,1.5457237,0.82509553,-0.07594106,0.5013523,1.060314,878.3883,807.8755,790.9524,489.1575,689.41394,-0.25006103515625,0.14337158203125,0.9522705078125,4.41131591796875,-5.87677001953125,-0.897216796875,1,2.0,1.0,1.0,2.0,90.00
2021-04-15 22:09:20.995,0.9913457,1.2175028,0.45180547,0.80914754,0.62401485,0.88082004,0.15612878,0.8742959,0.52387214,0.10986349,0.36742643,0.5964476,1.4511411,0.338214,1.0040076,1.5457237,0.82509553,-0.07594106,0.5013523,1.060314,717.619,818.7546,834.87177,1040.3663,905.38464,-0.28363037109375,0.154296875,0.958984375,7.245025634765625,0.58319091796875,-11.925506591796875,1,2.0,1.0,1.0,2.0,90.00
2021-04-15 22:09:21.519,0.9913457,0.7349085,0.46456242,0.80914754,0.62401485,0.4619475,0.19793667,0.8742959,0.52387214,0.23124799,0.27023074,0.5964476,1.4511411,0.30764636,0.9832843,1.5457237,0.82509553,-0.035425484,0.33732644,1.060314,716.0073,821.978,835.2747,1077.033,965.82416,-0.26385498046875,0.136474609375,0.959716796875,4.044952392578125,-3.93280029296875,2.58697509765625,1,2.0,1.0,1.0,2.0,90.00
2021-04-15 22:09:22.033,0.9913457,0.59959036,0.40192708,0.80914754,0.62401485,0.2435083,0.09140839,0.8742959,0.52387214,0.31504408,0.25762084,0.5964476,1.4511411,0.34353408,0.9394419,1.5457237,0.82509553,-0.0053277137,0.39853597,1.060314,754.2857,818.3516,828.4249,877.1795,842.1245,-0.26263427734375,0.12994384765625,0.95611572265625,4.104766845703125,-4.6356201171875,5.001983642578125,1,2.0,1.0,1.0,2.0,90.00
2021-04-15 22:09:22.416,,,,,,,,,,,,,,,,,,,,,,,,,,,,,,,,,,,,,,/muse/elements/blink
2021-04-15 22:09:22.539,0.9913457,0.5232664,0.33868185,0.80914754,0.62401485,0.25043386,0.046924863,0.8742959,0.52387214,0.39504224,0.38669255,0.5964476,1.4511411,0.31348988,0.9543845,1.5457237,0.82509553,0.029255178,0.5105334,1.060314,859.45056,826.0073,810.293,529.0476,604.3956,-0.2548828125,0.1431884765625,0.95428466796875,4.4561767578125,-6.945953369140625,5.450592041015625,1,2.0,1.0,1.0,2.0,90.00
2021-04-15 22:09:23.055,0.9913457,0.40143234,0.2814834,0.80914754,0.62401485,0.15488388,0.026786124,0.8742959,0.52387214,0.47653586,0.2955937,0.5964476,1.4511411,0.28805786,0.9308952,1.5457237,0.82509553,0.029819269,0.6195956,1.060314,830.84247,813.91943,801.4286,556.04395,668.0586,-0.30377197265625,0.11590576171875,0.94964599609375,3.431854248046875,-5.84686279296875,4.269256591796875,1,2.0,1.0,1.0,2.0,90.00
2021-04-15 22:09:23.567,0.9913457,0.2711083,0.07663959,0.80914754,0.62401485,0.13331053,0.024201117,0.8742959,0.52387214,0.5127366,0.32339945,0.5964476,1.4511411,0.23631372,0.8860975,1.5457237,0.82509553,-0.0037206195,0.63526607,1.060314,778.86444,818.7546,823.1868,815.5311,780.07324,-0.26812744140625,0.10101318359375,0.96075439453125,-1.936492919921875,-3.416900634765625,5.091705322265625,1,2.0,1.0,1.0,2.0,90.00
2021-04-15 22:09:24.075,0.9913457,0.107986696,0.21097475,0.80914754,0.62401485,0.07133538,0.023622246,0.8742959,0.52387214,0.5711405,0.24244484,0.5964476,1.4511411,0.2098693,0.86327636,1.5457237,0.82509553,-0.064051285,0.5189082,1.060314,863.0769,819.15753,810.696,521.79486,671.685,-0.252685546875,0.06298828125,0.96319580078125,5.121612548828125,-5.682373046875,-1.89910888671875,1,2.0,1.0,1.0,2.0,90.00
2021-04-15 22:09:24.410,,,,,,,,,,,,,,,,,,,,,,,,,,,,,,,,,,,,,,/muse/elements/blink
2021-04-15 22:09:24.577,0.9913457,0.14739941,0.3831245,0.80914754,0.62401485,0.036773916,-0.085768454,0.8742959,0.52387214,0.5820071,0.1974697,0.5964476,1.4511411,0.29699033,0.8914571,1.5457237,0.82509553,-0.061458338,0.39925426,1.060314,832.8571,817.1429,801.4286,658.3883,701.9048,-0.2677001953125,0.07330322265625,0.96185302734375,5.1141357421875,-7.125396728515625,-0.889739990234375,1,2.0,1.0,1.0,2.0,90.00
2021-04-15 22:09:25.081,0.9913457,0.6669823,0.53233725,0.80914754,0.62401485,0.08481704,-0.062114954,0.8742959,0.52387214,0.74542326,0.21537088,0.5964476,1.4511411,0.36812472,0.9359243,1.5457237,0.82509553,0.04796036,0.34794435,1.060314,713.5897,817.1429,826.0073,1037.5458,964.21246,-0.26885986328125,0.06781005859375,0.9610595703125,5.90667724609375,-4.687957763671875,-4.77020263671875,1,2.0,1.0,1.0,2.0,90.00
2021-04-15 22:09:25.585,0.9913457,0.9110394,0.6882074,0.80914754,0.62401485,0.3678516,0.26765954,0.8742959,0.52387214,0.71004325,0.5514409,0.5964476,1.4511411,0.38018718,0.9296391,1.5457237,0.82509553,-0.016684363,0.39389616,1.060314,852.6007,818.7546,794.57874,491.5751,686.1905,-0.27618408203125,0.050048828125,0.96002197265625,3.78326416015625,-4.673004150390625,-3.70849609375,1,2.0,1.0,1.0,2.0,90.00
2021-04-15 22:09:26.116,0.58088887,0.9661109,0.57225704,-0.12957619,0.36897576,0.41575697,0.2549305,0.47998384,0.4424639,0.70768166,0.55000055,0.5317912,1.159206,0.295732,0.87808895,1.295995,1.0618155,-0.07769274,0.53716576,1.203223,844.94507,811.0989,800.6227,597.5458,669.67035,-0.27679443359375,0.05596923828125,0.9605712890625,4.299163818359375,-5.570220947265625,1.1962890625,1,2.0,1.0,1.0,2.0,90.00
2021-04-15 22:09:26.643,0.31110543,0.8369091,0.33308494,-0.24952054,0.11159022,0.4283086,0.12117573,0.33652803,0.48394334,0.6954634,0.53023124,0.6235784,1.1447555,0.22063662,0.84445,1.3396648,0.9163786,-0.2808808,0.47774923,1.0755826,825.2015,806.6667,788.1319,526.2271,799.011,-0.27239990234375,0.05889892578125,0.9595947265625,4.448699951171875,-4.194488525390625,6.258087158203125,1,1.0,1.0,1.0,1.0,90.00
2021-04-15 22:09:26.937,,,,,,,,,,,,,,,,,,,,,,,,,,,,,,,,,,,,,,/muse/elements/blink
2021-04-15 22:09:27.145,0.28601798,0.49616084,0.1469194,-0.27137646,0.09947259,0.23850599,-0.16525207,0.31114328,0.49327487,0.28190792,0.30756167,0.6267737,1.1737174,0.24677682,0.8951078,1.3679941,0.88852644,-0.2803991,0.43446562,1.0461513,683.36993,803.8461,820.7692,863.0769,870.7326,-0.31671142578125,0.11419677734375,0.9754638671875,7.835693359375,-0.411224365234375,6.736602783203125,1,1.0,1.0,1.0,1.0,90.00
2021-04-15 22:09:27.653,-0.22593744,0.48330364,0.085497975,-0.43995517,-0.28716233,0.29628778,-0.03359493,0.11021755,0.13527836,0.24647346,0.36783016,0.5268459,1.2199668,0.2801295,0.96980345,1.4434881,0.6671803,-0.28899953,0.28869477,0.85549664,769.19415,796.5934,800.6227,1129.011,1173.7362,-0.2325439453125,0.124755859375,0.98138427734375,7.379608154296875,-3.99261474609375,2.67669677734375,1,1.0,1.0,1.0,1.0,90.00
2021-04-15 22:09:28.179,-0.20221312,0.43298048,7.405056E-4,-0.5148741,-0.24969897,0.2597511,0.017755685,0.09313567,0.11102348,0.18862239,0.3819293,0.48723117,1.2662439,0.24702877,0.96797925,1.4828686,0.6055143,-0.23036821,0.42889774,0.79963183,772.4176,812.3077,826.0073,659.59705,589.89014,-0.2904052734375,0.09100341796875,0.95025634765625,3.409423828125,-2.94586181640625,1.024322509765625,1,1.0,1.0,1.0,1.0,90.00
2021-04-15 22:09:28.699,-0.20221312,0.53186166,-0.27838463,-0.5148741,-0.24969897,0.3607982,-0.0614136,0.09313567,0.11102348,0.23833528,0.3464676,0.48723117,1.2662439,0.25435948,0.9614001,1.4828686,0.6055143,-0.18001013,0.4976403,0.79963183,681.75824,823.1868,833.663,915.8608,855.42126,-0.2637939453125,0.0887451171875,0.956787109375,4.7552490234375,-9.024505615234375,-0.31402587890625,1,1.0,1.0,1.0,1.0,90.00
2021-04-15 22:09:29.220,-0.20221312,0.6305675,-0.020813378,-0.5148741,-0.24969897,0.4598732,-0.2855637,0.09313567,0.11102348,0.36027205,0.3371562,0.48723117,1.2662439,0.23209336,0.90640926,1.4828686,0.6055143,-0.1428931,0.56138074,0.79963183,754.2857,822.381,805.4579,747.8388,805.05493,-0.2681884765625,0.0948486328125,0.96649169921875,0.2093505859375,-4.777679443359375,-8.7030029296875,1,1.0,1.0,1.0,1.0,90.00
2021-04-15 22:09:29.753,-0.20221312,0.7361563,0.6157667,-0.5148741,-0.24969897,0.5611359,0.32874063,0.09313567,0.11102348,0.36181757,0.5907289,0.48723117,1.2662439,0.27804983,0.8814887,1.4828686,0.6055143,-0.15050422,0.4567884,0.79963183,692.23444,826.4103,844.94507,1103.2234,906.99634,-0.27423095703125,0.09405517578125,0.92889404296875,5.600128173828125,-10.18341064453125,-3.6187744140625,1,2.0,1.0,1.0,2.0,90.00
2021-04-15 22:09:30.278,-0.20221312,0.74645203,0.7447631,-0.5148741,-0.24969897,0.3812689,0.45318344,0.09313567,0.11102348,0.33220384,0.5907289,0.48723117,1.2662439,0.21968411,0.8865002,1.4828686,0.6055143,-0.12865886,0.3322745,0.79963183,786.52014,813.5165,818.7546,862.674,781.685,-0.3006591796875,0.04608154296875,0.954833984375,2.07855224609375,-3.641204833984375,-1.48040771484375,1,2.0,1.0,1.0,2.0,90.00
2021-04-15 22:09:30.804,-0.20221312,0.3927003,0.6368252,-0.5148741,-0.24969897,0.03529126,0.45705882,0.09313567,0.11102348,0.004740348,0.5894736,0.48723117,1.2662439,0.09283041,0.85756195,1.4828686,0.6055143,-0.1967689,0.4454608,0.79963183,871.13556,807.47253,784.10254,557.6557,745.82416,-0.300048828125,0.046630859375,0.9569091796875,6.4300537109375,-4.269256591796875,3.0804443359375,1,2.0,1.0,1.0,2.0,90.00
2021-04-15 22:09:31.309,,,,,,,,,,,,,,,,,,,,,,,,,,,,,,,,,,,,,,/muse/elements/blink
2021-04-15 22:09:31.310,0.6286638,0.39104354,0.2160984,-0.5148741,0.31791744,0.13944173,0.17952725,0.09313567,0.5651179,0.3613102,0.31555396,0.48723117,1.2904891,0.16130212,0.9043941,1.4828686,0.67085046,-0.1758429,0.42535296,0.79963183,806.26373,809.89014,814.7253,678.5348,696.6667,-0.29156494140625,0.04132080078125,0.95928955078125,4.8150634765625,-7.230072021484375,2.19818115234375,1,1.0,1.0,1.0,1.0,90.00
2021-04-15 22:09:31.822,0.6286638,0.5396202,0.011873204,-0.5148741,0.31791744,0.2756094,0.08473534,0.09313567,0.5651179,0.42836326,0.23399141,0.48723117,1.2904891,0.3182228,0.89461714,1.4828686,0.67085046,-0.19836172,0.39598414,0.79963183,933.5897,796.1905,763.5531,622.1245,857.03296,-0.31591796875,0.064208984375,0.94537353515625,4.927215576171875,-4.762725830078125,2.714080810546875,1,1.0,1.0,1.0,1.0,90.00
2021-04-15 22:09:32.331,0.6286638,0.5783125,0.19390333,-0.5148741,0.31791744,0.31162184,0.08558856,0.09313567,0.5651179,0.4740002,0.2655561,0.48723117,1.2904891,0.3309841,0.88905066,1.4828686,0.67085046,-0.15616272,0.30914858,0.79963183,707.1429,807.47253,829.2308,954.94507,792.1612,-0.29425048828125,0.053955078125,0.9515380859375,4.777679443359375,-4.717864990234375,2.3626708984375,1,1.0,1.0,1.0,1.0,90.00
2021-04-15 22:09:32.846,0.40745923,0.48701262,0.2034175,-0.5148741,0.46399942,0.24413669,-0.05336152,0.09313567,0.8164278,0.48989475,0.2532476,0.48723117,1.0065798,0.3192732,0.85200393,1.4828686,0.7540398,-0.20178887,0.3288506,0.79963183,710.3663,811.0989,823.9927,1065.348,944.87177,-0.2872314453125,0.07904052734375,0.95953369140625,5.6524658203125,-4.613189697265625,3.349609375,1,1.0,1.0,1.0,1.0,90.00
2021-04-15 22:09:33.353,0.3653755,0.17946249,0.27645913,0.19261645,0.4654817,0.10582549,0.09837415,0.45227805,0.85976124,0.4891177,0.22891852,0.73183125,1.0241086,0.20965171,0.8010002,1.1818734,0.8670605,-0.14134082,0.41498503,1.0628015,879.19415,808.2784,784.10254,566.9231,767.98535,-0.316650390625,0.06689453125,0.9478759765625,5.14404296875,-4.164581298828125,1.79443359375,1,1.0,1.0,1.0,1.0,90.00
2021-04-15 22:09:33.878,0.32546604,0.3169299,0.13928294,0.14357005,0.4618507,-0.052010078,0.06305029,0.2971678,0.85976124,0.4789976,0.1514949,0.7419642,1.0515472,0.20177814,0.8104964,1.2781154,0.9106954,-0.1612233,0.49627373,1.1325427,687.3993,820.7692,828.4249,797.3993,859.85345,-0.2933349609375,0.06439208984375,0.95074462890625,4.373931884765625,-5.54779052734375,1.652374267578125,1,1.0,1.0,1.0,1.0,90.00
2021-04-15 22:09:34.382,0.24087054,0.515013,0.15316327,0.1104351,0.42478526,-0.02749739,0.15518229,0.1797544,0.75433594,0.47190183,0.09597913,0.65646875,1.106004,0.13447416,0.8514021,1.3122084,0.9680693,-0.18273787,0.4721942,1.188139,718.8278,805.8608,827.619,1063.7362,815.12823,-0.320556640625,0.08721923828125,0.94512939453125,5.0543212890625,-2.489776611328125,3.386993408203125,1,1.0,1.0,1.0,1.0,90.00
2021-04-15 22:09:34.891,0.144204,0.5005268,0.009964522,0.045195635,0.34096837,-0.092920594,-0.010649042,-0.012723378,0.6140246,0.47190183,0.16445619,0.42977932,1.1938889,0.1384992,0.94671816,1.3761852,0.8806811,-0.3082581,0.38323176,1.2170211,803.8461,821.5751,809.4872,761.13556,780.87915,-0.336669921875,0.0572509765625,0.94256591796875,4.44122314453125,-5.809478759765625,-2.250518798828125,1,1.0,1.0,1.0,1.0,90.00
2021-04-15 22:09:35.410,0.16103983,0.5927377,0.18823758,0.018339211,0.32812923,-4.974769E-4,-0.058537982,0.0018203879,0.6046873,0.51148367,0.13211523,0.40803948,1.2068573,0.16178092,0.96358275,1.3843827,0.8028978,-0.33864534,0.26284733,1.230178,709.5604,824.3956,826.0073,867.1062,825.2015,-0.33740234375,0.05926513671875,0.942138671875,5.00946044921875,-6.56463623046875,-0.37384033203125,1,1.0,1.0,1.0,1.0,90.00
2021-04-15 22:09:35.932,0.5760363,0.7200796,0.21971959,0.018339211,0.38264653,0.119444,-0.09680871,0.0018203879,0.8435273,0.4365119,0.2186831,0.40803948,1.1832843,0.17260545,0.91348815,1.3843827,0.70428175,-0.20425473,0.31758887,1.230178,760.7326,802.23444,794.57874,660.40295,813.91943,-0.27239990234375,0.11932373046875,0.959716796875,7.349700927734375,-9.592742919921875,-3.72344970703125,1,1.0,1.0,1.0,1.0,90.00
2021-04-15 22:09:36.448,0.5760363,0.7614874,0.20088924,0.018339211,0.38264653,0.21468985,0.07331948,0.0018203879,0.8435273,0.453918,0.20524514,0.40803948,1.1832843,0.16263667,0.82081324,1.3843827,0.70428175,-0.14945097,0.39427695,1.230178,697.47253,820.3663,833.663,1016.5934,961.39197,-0.27716064453125,0.0927734375,0.95672607421875,1.31591796875,-6.02630615234375,-0.052337646484375,1,1.0,1.0,1.0,1.0,90.00
2021-04-15 22:09:36.964,0.5760363,0.58903944,-0.11907149,0.018339211,0.38264653,0.19570954,0.089921616,0.0018203879,0.8435273,0.40503427,0.22190684,0.40803948,1.1832843,0.15881374,0.7889461,1.3843827,0.70428175,-0.08002774,0.43915007,1.230178,842.9304,820.3663,819.5604,501.24542,517.76556,-0.27734375,0.07122802734375,0.966064453125,4.41131591796875,-3.00567626953125,1.5252685546875,1,1.0,1.0,1.0,1.0,90.00
2021-04-15 22:09:37.476,0.5760363,0.13184446,-0.3345763,0.018339211,0.38264653,0.09485355,-0.032301944,0.0018203879,0.8435273,0.3737403,0.30538857,0.40803948,1.1832843,0.18894656,0.7904649,1.3843827,0.70428175,-0.14607048,0.4158046,1.230178,817.5458,816.337,792.5641,562.49084,740.18317,-0.2877197265625,0.07159423828125,0.95648193359375,4.6356201171875,-5.585174560546875,0.9869384765625,1,2.0,1.0,1.0,2.0,90.00
2021-04-15 22:09:37.623,,,,,,,,,,,,,,,,,,,,,,,,,,,,,,,,,,,,,,/muse/elements/blink
2021-04-15 22:09:37.982,0.5760363,0.0072004967,-0.27313185,0.018339211,0.38264653,0.047132824,-0.266963,0.0018203879,0.8435273,0.38420635,0.27033284,0.40803948,1.1832843,0.23827522,0.82697415,1.3843827,0.70428175,-0.14879298,0.4595353,1.230178,819.5604,801.8315,805.05493,560.07324,668.0586,-0.30084228515625,0.07470703125,0.95404052734375,5.271148681640625,-5.42816162109375,2.1832275390625,1,2.0,1.0,1.0,2.0,90.00
2021-04-15 22:09:38.495,0.5760363,0.21487927,-0.17109272,0.018339211,0.38264653,0.31969365,-0.3691944,0.0018203879,0.8435273,0.47325158,0.26663864,0.40803948,1.1832843,0.27483648,0.80213493,1.3843827,0.70428175,-0.19560422,0.4622754,1.230178,717.619,802.23444,816.7399,905.38464,859.85345,-0.28985595703125,0.079345703125,0.95343017578125,4.14215087890625,-5.226287841796875,1.5252685546875,1,2.0,1.0,1.0,2.0,90.00
2021-04-15 22:09:39.004,0.5760363,0.32284972,-0.018907107,0.018339211,0.38264653,0.47988677,-0.30147296,0.0018203879,0.8435273,0.53545034,0.38737932,0.40803948,1.1832843,0.24249057,0.77688956,1.3843827,0.70428175,-0.059553243,0.53363484,1.230178,708.7546,810.696,834.87177,1006.9231,892.0879,-0.284423828125,0.0694580078125,0.9549560546875,4.90478515625,-4.029998779296875,1.158905029296875,1,2.0,1.0,1.0,2.0,90.00
2021-04-15 22:09:39.307,,,,,,,,,,,,,,,,,,,,,,,,,,,,,,,,,,,,,,/muse/elements/blink
2021-04-15 22:09:39.507,0.5760363,0.41459855,0.07013612,0.018339211,0.38264653,0.505226,-0.18536498,0.0018203879,0.8435273,0.5062994,0.43520615,0.40803948,1.1832843,0.21071476,0.70980495,1.3843827,0.70428175,-0.022495776,0.50763756,1.230178,796.1905,810.696,813.5165,738.97437,616.4835,-0.29595947265625,0.07476806640625,0.9512939453125,4.762725830078125,-5.33843994140625,1.95892333984375,1,2.0,1.0,1.0,2.0,90.00
2021-04-15 22:09:40.014,0.5760363,0.32944137,0.21294034,0.018339211,0.38264653,0.38815916,-0.07941857,0.0018203879,0.8435273,0.49094224,0.44156802,0.40803948,1.1832843,0.29209277,0.7392104,1.3843827,0.70428175,0.028592648,0.59727925,1.230178,716.8132,806.6667,822.381,916.6667,926.337,-0.30267333984375,0.07452392578125,0.95050048828125,4.867401123046875,-4.5458984375,1.218719482421875,1,2.0,1.0,1.0,2.0,90.00
2021-04-15 22:09:40.542,0.5760363,0.25726452,0.17198181,0.018339211,0.38264653,0.19529267,-0.052074563,0.0018203879,0.8435273,0.33934692,0.40746805,0.40803948,1.1832843,0.42749193,0.7778287,1.3843827,0.70428175,-0.061081327,0.5697961,1.230178,722.4542,816.337,822.381,1012.1612,820.3663,-0.29339599609375,0.073486328125,0.95526123046875,4.4561767578125,-5.914154052734375,2.145843505859375,1,2.0,1.0,1.0,2.0,90.00
2021-04-15 22:09:41.043,-0.15521167,0.15459841,0.2269143,0.34373516,0.5425203,0.19490121,-0.08029891,0.61575335,0.7607475,0.46149695,0.43640214,0.62877274,1.0844005,0.43841195,0.81875366,1.2421832,0.82384247,-0.08863325,0.55893093,1.0321949,805.05493,816.337,825.2015,682.5641,658.7912,-0.28790283203125,0.07574462890625,0.9541015625,4.897308349609375,-5.4730224609375,1.158905029296875,1,1.0,1.0,1.0,1.0,90.00
2021-04-15 22:09:41.554,0.12139518,0.3621123,0.3061486,0.41300648,0.45304498,0.20788454,0.02270661,0.48931947,0.8671466,0.5113829,0.45239902,0.83945596,1.0432057,0.32480866,0.81618875,1.2285249,0.82324797,-0.13605365,0.4452504,1.044522,770.0,807.47253,818.3516,900.14655,858.24176,-0.2874755859375,0.07281494140625,0.9515380859375,4.74029541015625,-4.044952392578125,0.874786376953125,1,1.0,1.0,1.0,1.0,90.00
2021-04-15 22:09:42.085,0.22522081,0.7233833,0.41420215,0.47344673,0.43403706,0.46250442,0.0672817,0.5235439,0.8671466,0.62261486,0.38173196,1.1450716,1.0487971,0.25972128,0.80958146,1.2419218,0.83392185,-0.09286015,0.4507888,1.0642245,755.09155,807.0696,818.7546,728.49817,722.0513,-0.2879638671875,0.070556640625,0.9547119140625,4.38140869140625,-5.256195068359375,0.994415283203125,1,1.0,1.0,1.0,1.0,90.00
2021-04-15 22:09:42.611,0.47502962,0.8666911,0.39273217,0.4813449,0.33564457,0.56228894,-0.004915897,0.48960733,0.8710068,0.62261486,0.39773214,1.1490369,1.0109545,0.25301912,0.7182833,1.2413533,0.853225,-0.078528166,0.46719313,1.0577325,732.9304,809.0842,838.0952,1062.9304,875.56775,-0.2901611328125,0.0733642578125,0.953857421875,5.203857421875,-4.964599609375,1.562652587890625,1,1.0,1.0,1.0,1.0,90.00
2021-04-15 22:09:43.139,0.62053347,0.8565521,0.17310037,0.4950583,0.27277872,0.65369004,0.11338643,0.58512074,0.731352,0.60800546,0.19395807,1.1490369,1.0332671,0.35896254,0.7423486,1.2684374,0.9015869,-0.051743258,0.48330504,1.0766681,761.13556,810.696,823.1868,865.4945,782.8938,-0.29437255859375,0.0755615234375,0.960205078125,5.443115234375,-4.56085205078125,1.084136962890625,1,1.0,1.0,1.0,1.0,90.00
2021-04-15 22:09:43.641,0.67223376,0.24086992,0.42884505,0.35357136,0.29428482,0.3022572,0.16614626,0.5608677,0.70852697,0.45396906,0.38457802,0.98641056,1.0188427,0.2891284,0.76583344,1.2281171,0.89526564,-0.10185271,0.5017977,1.0012765,697.47253,811.9048,845.34796,985.9707,822.381,-0.28436279296875,0.0921630859375,0.94580078125,12.747955322265625,-4.643096923828125,3.6785888671875,1,1.0,1.0,1.0,1.0,90.00
2021-04-15 22:09:44.159,0.24983323,0.26583195,0.47952485,0.35357136,0.3557473,0.30232862,0.18626213,0.5608677,0.7378149,0.39378887,0.52865964,0.98641056,1.0072274,0.25787163,0.74242705,1.2281171,0.86873186,-0.14594981,0.47783458,1.0012765,821.978,802.23444,798.60803,581.8315,740.18317,-0.30291748046875,0.1878662109375,0.94683837890625,2.429962158203125,-5.81695556640625,-3.2598876953125,1,1.0,1.0,1.0,1.0,90.00
2021-04-15 22:09:44.666,0.35233578,0.29683864,0.42226887,0.34429997,0.34803537,0.1309121,-0.034918517,0.39411953,0.81518847,0.27732942,0.6152295,1.0947901,1.0140994,0.18616864,0.7621319,1.2164489,0.82541996,-0.18664871,0.45176083,0.956122,836.4835,803.0403,806.26373,546.3736,628.1685,-0.37261962890625,-0.003662109375,0.9141845703125,0.07476806640625,-3.043060302734375,5.914154052734375,1,1.0,1.0,1.0,1.0,90.00
2021-04-15 22:09:44.974,,,,,,,,,,,,,,,,,,,,,,,,,,,,,,,,,,,,,,/muse/elements/jaw_clench
2021-04-15 22:09:45.169,0.35233578,0.63111305,0.15626143,0.43518817,0.34803537,0.28629106,-0.13720267,0.4648219,0.81518847,0.6948765,0.5890341,1.0954797,1.0140994,0.11174129,0.7871574,1.2211771,0.82541996,-0.23986925,0.37988833,0.94263536,696.26373,823.9927,847.76556,958.5714,846.1539,-0.3543701171875,0.07550048828125,0.93524169921875,4.9945068359375,-6.990814208984375,0.31402587890625,1,1.0,1.0,1.0,1.0,90.00
2021-04-15 22:09:45.676,0.36141342,0.7093224,0.095211454,0.55658585,0.332125,0.4323456,-0.11519538,0.5777685,0.79494125,0.69267374,0.5565696,1.0954797,1.01563,0.2413971,0.8479075,1.2574767,0.78678066,-0.30305597,0.27062568,0.9169176,840.5128,798.20514,803.44324,722.8571,755.4945,-0.3280029296875,0.06732177734375,0.939453125,5.256195068359375,-3.581390380859375,1.861724853515625,1,1.0,1.0,1.0,1.0,90.00
2021-04-15 22:09:46.186,0.10038508,0.70822906,0.086850934,0.3597687,0.13009255,0.50681317,-0.05044032,0.56897265,0.54417485,0.6902059,0.44406414,0.82559323,1.1339163,0.307096,0.86501956,1.3217692,0.49867272,-0.30704284,0.28793526,0.81842077,859.45056,811.9048,802.23444,545.9707,747.4359,-0.2987060546875,0.08172607421875,0.94647216796875,4.837493896484375,-4.478607177734375,1.33087158203125,1,1.0,1.0,1.0,1.0,90.00
2021-04-15 22:09:46.248,,,,,,,,,,,,,,,,,,,,,,,,,,,,,,,,,,,,,,/muse/elements/jaw_clench
2021-04-15 22:09:46.708,0.367846,0.525927,0.29629755,0.31199074,0.11789013,0.49223372,0.03589201,0.46177536,0.6955146,0.4348395,0.54660445,0.7868683,1.1381123,0.3614697,0.82189107,1.3508562,0.61446536,-0.3903303,0.24747582,0.8324965,743.00366,842.1245,821.1722,727.6923,769.19415,-0.3277587890625,0.0992431640625,0.94500732421875,6.751556396484375,-5.316009521484375,-3.297271728515625,1,1.0,1.0,1.0,1.0,90.00
2021-04-15 22:09:47.216,0.36706224,0.7884716,0.41492677,0.28723904,0.03403877,0.47986984,0.12642175,0.45544097,0.6995573,0.41182297,0.56497306,0.89582026,1.1451963,0.25124478,0.7560542,1.3825514,0.72932243,-0.23316993,0.32207394,0.8934288,708.7546,807.47253,816.337,1019.81683,842.52747,-0.32330322265625,0.08966064453125,0.946533203125,3.6785888671875,-4.53094482421875,0.186920166015625,1,1.0,1.0,1.0,1.0,90.00
2021-04-15 22:09:47.721,0.5181009,1.027889,0.53011876,0.4004974,-0.005194313,0.5053894,0.32798925,0.58780396,0.688482,0.41421854,0.5350142,0.8582473,1.15717,0.13693559,0.7132377,1.4110644,0.8085477,-0.1864679,0.30523688,0.9296904,753.8828,815.9341,815.9341,846.55676,730.5128,-0.31365966796875,0.0675048828125,0.94683837890625,4.015045166015625,-4.792633056640625,0.785064697265625,1,1.0,1.0,1.0,1.0,90.00
2021-04-15 22:09:48.225,0.5060402,1.2170625,0.61203617,0.388166,-0.12524845,0.69444054,0.5104355,0.6812906,0.31232998,0.6564751,0.44618756,0.80144686,1.1692092,0.104989566,0.73723567,1.4280802,0.87879884,-0.10301319,0.2529562,0.95637965,739.7802,817.9487,820.7692,764.35895,846.1539,-0.3206787109375,0.06634521484375,0.94525146484375,4.0374755859375,-4.538421630859375,2.51220703125,1,1.0,1.0,1.0,1.0,90.00
2021-04-15 22:09:48.742,0.62757707,1.0416411,0.5271378,0.4804198,-0.13645755,0.55724305,0.4661682,0.81752557,0.11262602,0.6991948,0.4133651,0.774686,1.21066,0.22070529,0.74878615,1.4533608,0.8686959,-0.14599214,0.18239644,0.9060728,707.9487,807.0696,823.5897,1027.0696,845.7509,-0.31378173828125,0.06890869140625,0.9466552734375,4.78515625,-5.211334228515625,1.4654541015625,1,1.0,1.0,1.0,1.0,90.00
2021-04-15 22:09:48.878,,,,,,,,,,,,,,,,,,,,,,,,,,,,,,,,,,,,,,/muse/elements/jaw_clench
2021-04-15 22:09:49.272,0.62757707,0.69091034,0.52604795,0.4804198,-0.13645755,0.41030344,0.40210927,0.81752557,0.11262602,0.7640449,0.40067258,0.774686,1.21066,0.26798397,0.73743886,1.4533608,0.8686959,-0.21865177,0.23977336,0.9060728,689.011,803.0403,822.381,911.4286,784.90845,-0.305419921875,0.07135009765625,0.95172119140625,4.47113037109375,-6.220703125,1.143951416015625,1,1.0,1.0,1.0,1.0,85.00
2021-04-15 22:09:49.509,,,,,,,,,,,,,,,,,,,,,,,,,,,,,,,,,,,,,,/muse/elements/jaw_clench
2021-04-15 22:09:49.800,0.06065542,0.3866994,0.31646833,0.3176556,0.15693781,0.30875188,0.16796815,0.21495649,0.68664974,0.66653234,0.5902643,0.90530896,1.0670888,0.3115119,0.7097674,1.1792221,0.7785994,-0.26275387,0.32467043,0.9278261,743.4066,804.65204,823.5897,1000.4762,927.1429,-0.3084716796875,0.07177734375,0.95550537109375,4.523468017578125,-4.50103759765625,1.03179931640625,1,1.0,1.0,1.0,1.0,85.00
2021-04-15 22:09:50.309,0.15710437,0.57626903,0.32922143,0.39030093,0.39005288,0.45844853,0.15121914,0.38826582,0.7913904,0.7158587,0.5814625,0.92368466,1.0659531,0.30741242,0.6775944,1.2391496,0.90442556,-0.18584472,0.5167272,1.039629,798.20514,797.3993,805.4579,680.14655,664.0293,-0.307861328125,0.0697021484375,0.94903564453125,5.121612548828125,-3.985137939453125,1.128997802734375,1,1.0,1.0,1.0,1.0,85.00
2021-04-15 22:09:50.834,0.21949628,0.87542945,0.19042896,0.4494686,0.37108552,0.61673886,0.07228873,0.45016503,0.9103845,0.73421437,0.5814625,0.8944236,1.0785551,0.27077398,0.6324248,1.2696538,0.91008556,-0.08163,0.57348084,1.0592922,846.55676,801.8315,811.0989,545.56775,649.5238,-0.30853271484375,0.07452392578125,0.954833984375,5.12908935546875,-5.443115234375,1.854248046875,1,1.0,1.0,1.0,1.0,85.00
2021-04-15 22:09:51.338,0.2764829,0.8698756,0.24381235,0.47176924,0.44863093,0.5297371,-0.2573502,0.44622272,0.9040127,0.69900185,0.2486094,0.76608723,0.99473536,0.27678773,0.6142511,1.2548978,0.93718326,-0.11794866,0.6077163,0.9636185,592.3077,763.5531,824.7985,606.8132,807.47253,-0.3101806640625,0.07464599609375,0.94989013671875,4.747772216796875,-4.792633056640625,1.263580322265625,1,1.0,1.0,1.0,1.0,85.00
2021-04-15 22:09:51.522,,,,,,,,,,,,,,,,,,,,,,,,,,,,,,,,,,,,,,/muse/elements/blink
2021-04-15 22:09:51.859,0.29709145,0.9498913,0.22489056,0.45186484,0.1801776,0.53393024,-0.07086418,0.32567105,0.81471723,0.62301064,0.05170525,0.57766765,0.9659401,0.30209774,0.74458003,1.238393,0.81506157,-0.22246942,0.27628994,0.71847934,699.4872,807.0696,824.7985,1019.81683,834.87177,-0.30975341796875,0.072998046875,0.94708251953125,4.0673828125,-6.243133544921875,0.59814453125,1,1.0,1.0,1.0,1.0,85.00
2021-04-15 22:09:51.943,,,,,,,,,,,,,,,,,,,,,,,,,,,,,,,,,,,,,,/muse/elements/jaw_clench
2021-04-15 22:09:52.098,,,,,,,,,,,,,,,,,,,,,,,,,,,,,,,,,,,,,,/muse/elements/jaw_clench
2021-04-15 22:09:52.365,0.35137692,0.73919386,0.27225932,0.2582033,0.15589456,0.27189577,0.09420867,0.15698154,0.79493004,0.4327254,0.24200366,0.32116756,0.98358905,0.37502474,0.719391,1.2572528,0.78122205,-0.39182937,0.27512297,0.6310492,772.8205,794.9817,806.26373,882.01465,763.5531,-0.3089599609375,0.0726318359375,0.950927734375,5.106658935546875,-5.360870361328125,0.620574951171875,1,1.0,1.0,1.0,1.0,85.00
2021-04-15 22:09:52.449,,,,,,,,,,,,,,,,,,,,,,,,,,,,,,,,,,,,,,/muse/elements/jaw_clench
2021-04-15 22:09:52.893,0.35137692,0.8268711,0.2511193,0.2582033,0.15589456,0.35767448,0.1511014,0.15698154,0.79493004,0.43745166,0.18884407,0.32116756,0.98358905,0.32916692,0.69380164,1.2572528,0.78122205,-0.38399458,0.21643034,0.6310492,763.1502,795.78754,795.38464,782.0879,873.1502,-0.3057861328125,0.07330322265625,0.94805908203125,5.151519775390625,-5.78704833984375,0.814971923828125,1,1.0,1.0,1.0,1.0,85.00
2021-04-15 22:09:53.417,0.35137692,0.5689601,0.27675855,-0.260646,0.15589456,0.22933768,0.06453148,0.13046087,0.79493004,0.37290132,0.4836609,0.691459,0.98358905,0.18372253,0.6977917,1.2290195,0.78122205,-0.37225667,0.26120818,0.80896896,808.68134,806.26373,820.7692,602.7839,655.56775,-0.299072265625,0.07122802734375,0.950439453125,4.486083984375,-4.91973876953125,0.85235595703125,1,1.0,1.0,1.0,1.0,85.00
2021-04-15 22:09:53.948,-0.10694672,0.44037727,0.24611552,-0.07863985,0.32160756,0.22767249,0.006345272,0.22603455,0.4903522,0.38389623,0.46557218,0.75269455,0.9828242,0.19594552,0.68723047,1.1934009,0.65673584,-0.4200252,0.27540204,0.8935426,712.7839,803.44324,820.3663,906.99634,899.7436,-0.3011474609375,0.0731201171875,0.952392578125,4.882354736328125,-4.598236083984375,0.874786376953125,1,1.0,1.0,1.0,1.0,85.00
2021-04-15 22:09:54.458,0.21235426,-0.018748643,0.30896327,0.17504737,0.2898093,0.25940403,-0.016794221,0.21359128,0.49083117,0.3752784,0.48592392,0.80949837,0.99481225,0.10040446,0.6624868,1.1859244,0.66443825,-0.42379165,0.33493945,0.8640525,749.0476,809.4872,802.23444,713.5897,816.7399,-0.31268310546875,0.072509765625,0.949951171875,4.65057373046875,-3.94775390625,1.308441162109375,1,1.0,1.0,1.0,1.0,85.00
2021-04-15 22:09:54.549,,,,,,,,,,,,,,,,,,,,,,,,,,,,,,,,,,,,,,/muse/elements/jaw_clench
2021-04-15 22:09:54.787,,,,,,,,,,,,,,,,,,,,,,,,,,,,,,,,,,,,,,/muse/elements/jaw_clench
2021-04-15 22:09:54.982,0.23692864,0.1651794,0.21444717,0.24611792,0.16737026,0.21424942,0.023273483,0.16382861,0.41468787,0.36482868,0.4372152,0.7828559,1.0288818,0.091336235,0.64106095,1.167437,0.6720727,-0.3808484,0.30944604,0.8720062,774.83514,817.9487,824.7985,666.04395,620.9158,-0.30908203125,0.07275390625,0.95068359375,5.001983642578125,-5.21881103515625,1.712188720703125,1,1.0,1.0,1.0,1.0,85.00
2021-04-15 22:09:55.084,,,,,,,,,,,,,,,,,,,,,,,,,,,,,,,,,,,,,,/muse/elements/jaw_clench
2021-04-15 22:09:55.380,,,,,,,,,,,,,,,,,,,,,,,,,,,,,,,,,,,,,,/muse/elements/jaw_clench
2021-04-15 22:09:55.483,0.15172157,0.36704388,0.09282097,0.18582945,-0.0036366964,0.29243863,0.057869654,0.094453424,0.427679,0.21112537,0.31151924,0.7108643,1.0780505,-0.020834917,0.59845996,1.1675495,0.7542134,-0.36808234,0.29238987,0.94239545,761.53845,800.2198,817.5458,875.56775,767.98535,-0.3084716796875,0.07733154296875,0.95361328125,4.957122802734375,-5.5029296875,2.52716064453125,1,1.0,1.0,1.0,1.0,85.00
2021-04-15 22:09:55.569,,,,,,,,,,,,,,,,,,,,,,,,,,,,,,,,,,,,,,/muse/elements/jaw_clench
2021-04-15 22:09:55.907,,,,,,,,,,,,,,,,,,,,,,,,,,,,,,,,,,,,,,/muse/elements/jaw_clench
2021-04-15 22:09:55.987,-0.05995693,0.4175342,-0.0108516915,0.112283684,-0.07578995,0.26195905,0.09086112,0.06539871,0.5597039,0.19112252,0.0076227603,0.6117977,1.0678599,0.005443542,0.63253385,1.1714487,0.7877673,-0.37804967,0.22243035,0.96751523,759.5238,809.89014,822.381,722.0513,777.25275,-0.3013916015625,0.0745849609375,0.95574951171875,4.6954345703125,-5.084228515625,1.069183349609375,1,1.0,1.0,1.0,1.0,85.00
2021-04-15 22:09:56.187,,,,,,,,,,,,,,,,,,,,,,,,,,,,,,,,,,,,,,/muse/elements/jaw_clench
2021-04-15 22:09:56.381,,,,,,,,,,,,,,,,,,,,,,,,,,,,,,,,,,,,,,/muse/elements/jaw_clench
2021-04-15 22:09:56.509,-0.013894757,0.34547368,0.05861767,0.0020308779,-0.10269552,0.30498704,0.038262025,0.15609035,0.60142,0.16638902,0.1764557,0.5997503,0.9893595,0.099229716,0.72004855,1.1683279,0.7885566,-0.4345858,0.20605594,1.0300047,795.38464,820.7692,833.663,697.0696,612.0513,-0.298583984375,0.0767822265625,0.9525146484375,4.35150146484375,-5.5029296875,0.79254150390625,1,1.0,1.0,1.0,1.0,85.00
2021-04-15 22:09:56.704,,,,,,,,,,,,,,,,,,,,,,,,,,,,,,,,,,,,,,/muse/elements/jaw_clench
2021-04-15 22:09:57.020,0.05916483,0.98778737,0.2737277,0.4943298,-0.11759507,0.6261852,0.1991604,0.33153075,0.59458095,0.4820324,0.23917519,0.4830237,0.9521318,0.2709134,0.7945968,1.1958143,0.720633,-0.38935214,0.18183605,0.8421031,762.74725,809.4872,823.1868,883.22345,749.0476,-0.2977294921875,0.0706787109375,0.9508056640625,4.673004150390625,-4.314117431640625,0.59814453125,1,1.0,1.0,1.0,1.0,85.00
2021-04-15 22:09:57.547,0.20544188,1.1432389,0.28123984,0.6967633,-0.51870006,0.7514793,0.24629365,0.32985073,0.3671179,0.4820324,0.23423423,0.6806987,0.938666,0.34407553,0.81906754,1.1640427,0.60921323,-0.4286714,0.17795885,0.7677994,808.68134,809.0842,814.3223,574.9817,690.6227,-0.3062744140625,0.07354736328125,0.95489501953125,4.9346923828125,-5.63751220703125,1.443023681640625,1,1.0,1.0,1.0,1.0,85.00
2021-04-15 22:09:57.739,,,,,,,,,,,,,,,,,,,,,,,,,,,,,,,,,,,,,,/muse/elements/jaw_clench
2021-04-15 22:09:58.048,0.20544188,1.119592,0.30717248,0.54893255,-0.51870006,0.6864888,0.25945076,0.1789681,0.3671179,0.4820324,0.16341425,0.7326961,0.938666,0.3288297,0.6668808,1.1116171,0.60921323,-0.37080705,0.025305858,0.72007513,839.707,805.8608,799.011,600.7692,729.707,-0.3031005859375,0.07855224609375,0.950927734375,4.643096923828125,-4.62066650390625,0.94207763671875,1,1.0,1.0,1.0,1.0,85.00
2021-04-15 22:09:58.348,,,,,,,,,,,,,,,,,,,,,,,,,,,,,,,,,,,,,,/muse/elements/jaw_clench
2021-04-15 22:09:58.530,,,,,,,,,,,,,,,,,,,,,,,,,,,,,,,,,,,,,,/muse/elements/jaw_clench
2021-04-15 22:09:58.556,0.1585096,0.08509447,0.18312445,0.47307634,0.1117343,-0.1015344,0.2022532,0.14307395,0.53938615,0.15541658,0.1130584,0.7354517,1.0626373,0.28644684,0.7168809,1.1704311,0.5968728,-0.33559948,0.09790903,0.7031001,724.87177,808.68134,819.9634,866.7033,888.46155,-0.2938232421875,0.0762939453125,0.95001220703125,4.882354736328125,-4.3365478515625,1.016845703125,1,1.0,1.0,1.0,1.0,85.00
2021-04-15 22:09:58.826,,,,,,,,,,,,,,,,,,,,,,,,,,,,,,,,,,,,,,/muse/elements/jaw_clench
2021-04-15 22:09:59.060,0.22603737,0.036840815,0.11199062,0.2810306,0.08770291,-0.012436873,0.17978708,0.14660914,0.5400248,0.21051204,0.08430585,0.7058153,1.0431366,0.20379815,0.64743507,1.1778027,0.66917825,-0.3016692,0.09747025,0.7427476,710.7692,802.23444,828.8278,985.16486,867.9121,-0.3055419921875,0.076171875,0.9522705078125,4.583282470703125,-4.897308349609375,1.323394775390625,1,1.0,1.0,1.0,1.0,85.00
2021-04-15 22:09:59.129,,,,,,,,,,,,,,,,,,,,,,,,,,,,,,,,,,,,,,/muse/elements/jaw_clench
2021-04-15 22:09:59.329,,,,,,,,,,,,,,,,,,,,,,,,,,,,,,,,,,,,,,/muse/elements/jaw_clench
2021-04-15 22:09:59.579,0.27976438,0.14556839,-0.033283055,0.15099044,0.04544529,-0.0012383416,0.17673147,0.30511168,0.589772,0.28271395,0.06606675,0.5098812,1.0365516,0.07550217,0.67447525,1.2542174,0.64956886,-0.2739568,0.1703372,0.7714392,801.8315,807.8755,803.8461,757.1062,828.8278,-0.2994384765625,0.0751953125,0.94915771484375,4.972076416015625,-5.016937255859375,1.039276123046875,1,1.0,1.0,1.0,1.0,90.00
2021-04-15 22:09:59.678,,,,,,,,,,,,,,,,,,,,,,,,,,,,,,,,,,,,,,/muse/elements/jaw_clench
2021-04-15 22:10:00.097,0.43909147,0.34885442,-0.12408939,0.1758309,0.043158963,0.0045675994,0.014720968,0.3557717,0.5450208,0.30448198,0.10342204,0.72785676,1.0504967,-0.055613004,0.636379,1.2432377,0.6067584,-0.23539685,0.06852458,0.75832576,857.4359,805.4579,800.2198,560.07324,691.4286,-0.29803466796875,0.0748291015625,0.95361328125,5.375823974609375,-4.605712890625,1.21124267578125,1,1.0,1.0,1.0,1.0,90.00
2021-04-15 22:10:00.198,,,,,,,,,,,,,,,,,,,,,,,,,,,,,,,,,,,,,,/muse/elements/jaw_clench
2021-04-15 22:10:00.355,,,,,,,,,,,,,,,,,,,,,,,,,,,,,,,,,,,,,,/muse/elements/jaw_clench
2021-04-15 22:10:00.599,0.4354656,0.35924354,0.14354701,0.31628627,0.19904046,0.096349515,-0.09321434,0.40928754,0.5330255,0.31002778,0.14299238,0.7173504,1.0479728,0.021588119,0.66747963,1.2674832,0.53946155,-0.2964581,0.15337825,0.7018606,763.95605,803.44324,823.5897,685.78754,721.6484,-0.299072265625,0.0728759765625,0.952392578125,4.66552734375,-4.91973876953125,1.375732421875,1,1.0,1.0,1.0,1.0,90.00
2021-04-15 22:10:00.807,,,,,,,,,,,,,,,,,,,,,,,,,,,,,,,,,,,,,,/muse/elements/jaw_clench
2021-04-15 22:10:00.965,,,,,,,,,,,,,,,,,,,,,,,,,,,,,,,,,,,,,,/muse/elements/jaw_clench
2021-04-15 22:10:01.111,0.36259702,0.2841045,0.2743597,0.4915791,0.19770682,0.18100832,-0.28807542,0.25802144,0.65495473,0.38118872,0.06563183,0.72670394,1.0236499,0.06056936,0.60837424,1.2023976,0.6000736,-0.3307266,0.2193072,0.78500664,814.7253,794.17584,798.60803,759.92676,792.5641,-0.2989501953125,0.07708740234375,0.95294189453125,5.0543212890625,-4.373931884765625,1.15142822265625,1,1.0,1.0,1.0,1.0,90.00
2021-04-15 22:10:01.270,,,,,,,,,,,,,,,,,,,,,,,,,,,,,,,,,,,,,,/muse/elements/jaw_clench
2021-04-15 22:10:01.500,,,,,,,,,,,,,,,,,,,,,,,,,,,,,,,,,,,,,,/muse/elements/jaw_clench
2021-04-15 22:10:01.617,0.09204217,0.35802856,0.4429435,0.56797475,0.17541406,0.250392,3.9866669E-4,0.35002187,0.7075404,0.5290953,0.3727724,0.63989204,1.0306612,0.17879212,0.53989136,1.1992694,0.59650403,-0.38776445,0.2457839,0.7952252,865.89746,807.47253,798.20514,568.1319,670.07324,-0.30047607421875,0.07342529296875,0.9500732421875,5.166473388671875,-5.09918212890625,1.18133544921875,1,1.0,1.0,1.0,1.0,90.00
2021-04-15 22:10:01.891,,,,,,,,,,,,,,,,,,,,,,,,,,,,,,,,,,,,,,/muse/elements/jaw_clench
2021-04-15 22:10:02.136,0.16821496,0.82045346,0.7117696,0.63838184,-0.010984382,0.43882412,0.24168804,0.5035989,1.0202955,0.6296516,0.49001202,0.6352931,1.0700697,0.2412931,0.5388954,1.1971753,0.58036095,-0.4220333,0.19141869,0.7819038,772.4176,803.0403,809.0842,709.15753,765.9707,-0.30877685546875,0.07452392578125,0.9473876953125,5.271148681640625,-4.605712890625,0.904693603515625,1,1.0,1.0,1.0,1.0,90.00
2021-04-15 22:10:02.664,0.12881243,0.8222955,0.7177583,0.62567407,0.12262476,0.4324868,0.24385475,0.602079,1.0380249,0.60825527,0.49001202,0.77325857,1.101496,0.30831832,0.644071,1.2305866,0.6019856,-0.44078496,0.22237387,0.74286014,714.3956,801.02563,830.0366,1008.93774,868.71796,-0.2728271484375,0.158935546875,0.94720458984375,22.8790283203125,-11.67877197265625,3.730926513671875,1,1.0,1.0,1.0,1.0,90.00
2021-04-15 22:10:03.168,0.1971782,0.7520114,0.6357317,0.47643194,0.2582408,0.37725717,0.06167041,0.46611494,1.0155005,0.5928969,0.48344746,0.77436787,1.0524913,0.23779514,0.7015119,1.187049,0.66321856,-0.44000414,0.25481388,0.8987305,728.0952,852.6007,829.6337,846.55676,827.619,-0.233642578125,0.217529296875,0.95306396484375,4.059906005859375,-5.09918212890625,0.157012939453125,1,1.0,1.0,1.0,1.0,90.00
2021-04-15 22:10:03.703,0.16603114,0.33129728,0.13999872,0.2621546,0.33929694,0.033520687,-0.3218993,0.25930792,0.9452073,0.17734684,0.23280418,0.7379763,1.0246149,0.1719771,0.74485683,1.2425268,0.6432611,-0.3694074,0.2315009,0.81092644,835.2747,806.26373,802.6374,598.7546,600.3663,-0.3460693359375,0.1455078125,0.934814453125,3.581390380859375,-0.5682373046875,5.86181640625,1,1.0,1.0,1.0,1.0,90.00
2021-04-15 22:10:03.935,,,,,,,,,,,,,,,,,,,,,,,,,,,,,,,,,,,,,,/muse/elements/jaw_clench
2021-04-15 22:10:04.227,0.55291975,0.47436088,-0.055311896,0.331901,0.34180695,-0.091316156,-0.4092049,0.3100879,0.62845635,0.011216059,0.29503602,0.6811409,0.9489537,0.0706605,0.7213193,1.2158514,0.64672863,-0.31661218,0.22589453,0.81233376,844.94507,809.4872,794.9817,599.5604,747.8388,-0.3016357421875,0.143798828125,0.942138671875,2.325286865234375,0.67291259765625,0.276641845703125,1,1.0,1.0,1.0,1.0,90.00
2021-04-15 22:10:04.231,,,,,,,,,,,,,,,,,,,,,,,,,,,,,,,,,,,,,,/muse/elements/jaw_clench
2021-04-15 22:10:04.714,,,,,,,,,,,,,,,,,,,,,,,,,,,,,,,,,,,,,,/muse/elements/jaw_clench
2021-04-15 22:10:04.736,0.59233,0.6208978,-0.18745016,0.4077791,0.2965066,-7.1146694E-4,-0.15786023,0.3058022,0.6722892,0.09765207,0.29661936,0.63934535,0.9576025,0.037310693,0.72223455,1.2209294,0.6178934,-0.26884818,0.22429764,0.7533322,839.707,829.2308,796.99634,520.989,580.6227,-0.27880859375,0.13861083984375,0.9482421875,2.908477783203125,-7.0281982421875,0.829925537109375,1,1.0,1.0,1.0,1.0,90.00
2021-04-15 22:10:04.920,,,,,,,,,,,,,,,,,,,,,,,,,,,,,,,,,,,,,,/muse/elements/jaw_clench
2021-04-15 22:10:05.243,0.51456356,0.54214483,0.16260885,0.5484496,0.27959415,0.22554012,0.05687991,0.35369048,0.6904788,0.23824808,0.3910837,0.6533258,0.9228621,0.08603012,0.6777238,1.1439447,0.57977074,-0.31542203,0.2401741,0.8190586,784.5055,813.1135,811.50183,703.1135,782.8938,-0.24176025390625,0.1385498046875,0.95953369140625,3.9776611328125,-7.783355712890625,-0.82244873046875,1,1.0,1.0,1.0,1.0,90.00
2021-04-15 22:10:05.756,-0.18832338,0.57468283,0.2717364,0.5986335,0.2792683,0.27298442,0.14227818,0.2540868,0.6953322,0.28019124,0.38828626,0.5891784,0.94966143,0.18082683,0.6905068,1.1336627,0.4245529,-0.27982384,0.20129247,0.7450228,785.31134,813.5165,814.7253,729.304,768.3883,-0.25592041015625,0.138671875,0.95404052734375,5.323486328125,-2.310333251953125,1.1962890625,1,1.0,1.0,1.0,1.0,90.00
2021-04-15 22:10:05.791,,,,,,,,,,,,,,,,,,,,,,,,,,,,,,,,,,,,,,/muse/elements/jaw_clench
2021-04-15 22:10:06.266,-0.34506285,0.585476,0.32717314,0.433604,0.19163114,0.28479648,0.12701036,0.28139234,0.65605897,0.4526804,0.35018972,0.677612,0.92639405,0.22868659,0.7021502,1.1831162,0.49993172,-0.3346601,0.24842644,0.8528397,855.0183,803.0403,811.50183,558.86444,639.85345,-0.250244140625,0.14105224609375,0.95697021484375,4.6954345703125,-5.93658447265625,0.43365478515625,1,1.0,1.0,1.0,1.0,90.00
2021-04-15 22:10:06.773,-0.1939093,0.6649354,0.14692165,0.35954615,0.09425346,0.44894058,0.10431179,0.15524697,0.52163404,0.46598357,0.35666844,0.6825252,0.93388647,0.24135342,0.7282877,1.1474273,0.54693925,-0.3600517,0.23732711,0.8073925,789.34064,801.4286,804.65204,724.0659,818.7546,-0.25677490234375,0.1431884765625,0.9561767578125,4.777679443359375,-5.809478759765625,1.203765869140625,1,1.0,1.0,1.0,1.0,90.00
2021-04-15 22:10:06.877,,,,,,,,,,,,,,,,,,,,,,,,,,,,,,,,,,,,,,/muse/elements/jaw_clench
2021-04-15 22:10:07.300,-0.019820374,0.6207948,0.15257569,0.34064674,0.10357054,0.36237797,0.120820716,0.04819121,0.5592857,0.50301224,0.28984135,0.6546116,0.95208067,0.1272904,0.7099549,1.1363552,0.47739214,-0.41046718,0.10637367,0.74254435,688.20514,809.89014,833.2601,983.5531,938.8278,-0.24700927734375,0.14593505859375,0.96044921875,4.687957763671875,-4.583282470703125,0.919647216796875,1,1.0,1.0,1.0,1.0,90.00
2021-04-15 22:10:07.806,0.17445065,0.7615563,0.5929188,0.5023747,0.23062831,0.6172356,0.29703346,0.2989774,0.67300135,0.5855749,0.39192322,0.66096056,0.9500541,0.02982109,0.7048294,1.13478,0.4634556,-0.3531915,0.054741718,0.7134367,746.2271,799.011,825.2015,858.24176,731.31866,-0.25360107421875,0.14239501953125,0.9564208984375,4.88983154296875,-3.6187744140625,0.067291259765625,1,1.0,1.0,1.0,1.0,90.00
2021-04-15 22:10:08.312,0.29096684,0.7058466,0.7132939,0.5493704,0.23981534,0.44592986,0.2661651,0.35990897,0.64901847,0.53542435,0.38435835,0.6298791,0.9769316,-0.0737579,0.7127752,1.1719847,0.46464863,-0.32705906,0.05786964,0.7523388,844.5421,803.44324,804.65204,597.1429,630.18317,-0.263916015625,0.139404296875,0.95263671875,4.83001708984375,-4.7552490234375,0.8074951171875,1,1.0,1.0,1.0,1.0,90.00
2021-04-15 22:10:08.822,0.29902115,0.6591778,0.70950526,0.5504434,0.20698638,0.42939833,0.36667678,0.43286762,0.65593183,0.5330128,0.35093036,0.619068,1.0427283,-0.014759336,0.7827339,1.2032958,0.49511445,-0.30963656,0.14209296,0.74995697,816.337,810.293,797.3993,618.0952,599.15753,-0.26593017578125,0.13970947265625,0.956787109375,4.807586669921875,-4.732818603515625,0.725250244140625,1,1.0,1.0,1.0,1.0,90.00
2021-04-15 22:10:09.339,,,,,,,,,,,,,,,,,,,,,,,,,,,,,,,,,,,,,,/muse/elements/jaw_clench
2021-04-15 22:10:09.341,0.36642578,0.6168642,0.5427556,0.52733564,0.14147738,-0.17997667,0.2926434,0.086847596,0.6390791,0.3845365,0.46650863,0.278647,1.0559044,0.08446653,0.7595433,1.1659031,0.41997564,-0.36264017,0.086383775,0.55981773,726.4835,818.3516,800.2198,927.9487,919.0842,-0.264404296875,0.1390380859375,0.961181640625,4.613189697265625,-5.001983642578125,0.95703125,1,1.0,1.0,1.0,1.0,90.00
2021-04-15 22:10:09.526,,,,,,,,,,,,,,,,,,,,,,,,,,,,,,,,,,,,,,/muse/elements/jaw_clench
2021-04-15 22:10:09.791,,,,,,,,,,,,,,,,,,,,,,,,,,,,,,,,,,,,,,/muse/elements/jaw_clench
2021-04-15 22:10:09.850,0.6389847,0.99228394,0.5881025,0.5720118,0.40582845,0.07131915,0.46486497,0.33779037,0.82142735,0.58274966,0.48653084,0.5313547,1.0104681,0.15400472,0.71176773,1.1271206,0.54627,-0.3990466,0.17868873,0.72373325,747.03296,816.7399,836.8865,983.95605,844.1392,-0.26446533203125,0.13885498046875,0.95660400390625,4.41131591796875,-4.224395751953125,0.67291259765625,1,1.0,1.0,1.0,1.0,90.00
2021-04-15 22:10:09.921,,,,,,,,,,,,,,,,,,,,,,,,,,,,,,,,,,,,,,/muse/elements/blink
2021-04-15 22:10:10.362,0.7715641,1.0874864,0.6986015,0.6132695,0.50890577,0.34094188,0.51644,0.39743742,0.8031821,0.56216234,0.45254314,0.5313547,0.92903435,0.1302484,0.6221538,1.1075325,0.6001876,-0.32912576,0.20735337,0.77257043,796.99634,804.2491,803.0403,642.674,702.71063,-0.26300048828125,0.13824462890625,0.95245361328125,4.50103759765625,-4.254302978515625,0.7177734375,1,1.0,1.0,1.0,1.0,90.00
2021-04-15 22:10:10.866,0.9749209,1.0392894,0.6850991,0.56315297,0.74388254,0.37035865,0.46777788,0.5763601,0.8031821,0.5412492,0.3159787,0.5044219,0.87491363,0.07595573,0.57593143,1.1115757,0.8051554,-0.30701157,0.1970505,0.9793899,858.6447,826.4103,790.14655,568.5348,701.9048,-0.27410888671875,0.13507080078125,0.95684814453125,5.001983642578125,-4.897308349609375,1.0467529296875,1,1.0,1.0,1.0,1.0,90.00
2021-04-15 22:10:11.376,0.2769511,0.8064084,0.738855,0.5011423,-0.0803873,0.35324407,0.2987664,0.3503895,0.8376724,0.432838,0.21000867,0.84672385,1.004308,0.23555379,0.58711237,1.2692497,0.6981,-0.24440219,0.16826063,0.8778209,736.9597,808.2784,824.7985,931.1722,828.8278,-0.26812744140625,0.138671875,0.95330810546875,5.121612548828125,-4.254302978515625,1.30096435546875,1,1.0,1.0,1.0,1.0,90.00
2021-04-15 22:10:11.883,0.2504661,0.77108467,0.7595936,0.4860557,0.22656128,0.2780796,0.25755405,0.35941792,0.8376724,0.4435709,0.22993629,0.86601067,0.9736222,0.3277854,0.6355178,1.2249641,0.66464645,-0.30070785,0.14045453,0.8889969,811.9048,808.68134,823.5897,640.2564,635.0183,-0.26361083984375,0.134765625,0.955810546875,4.478607177734375,-5.271148681640625,0.800018310546875,1,1.0,1.0,1.0,1.0,90.00
2021-04-15 22:10:12.395,0.15215172,0.70786536,0.6357775,0.4440742,0.32191598,0.2506154,0.19954221,0.45902774,0.8776245,0.5011489,0.21477585,0.8689927,0.9841381,0.32323152,0.658408,1.1854084,0.63250506,-0.3578274,0.12651694,0.8672288,780.07324,807.47253,815.9341,786.52014,790.54944,-0.27081298828125,0.1395263671875,0.95294189453125,4.65057373046875,-4.732818603515625,0.755157470703125,1,1.0,1.0,1.0,1.0,90.00
2021-04-15 22:10:12.911,-0.01637613,0.5520872,0.45277235,0.36453715,0.30822277,0.17661408,0.17508794,0.46788836,0.78420955,0.4557451,0.18453719,0.85379636,0.9707574,0.13516097,0.655317,1.1194705,0.59215426,-0.4603915,0.07395837,0.8743599,710.7692,797.3993,815.12823,826.4103,951.31866,-0.27081298828125,0.13336181640625,0.9566650390625,5.016937255859375,-4.2767333984375,0.426177978515625,1,1.0,1.0,1.0,1.0,90.00
2021-04-15 22:10:13.414,-0.30349475,0.12887804,0.022482872,0.2492367,0.32917342,0.036448114,-0.04327818,0.521788,0.5671763,0.35387123,0.07491895,0.7108388,0.9958161,-0.005948286,0.6547004,1.0884029,0.5601196,-0.52879655,0.13842586,0.8336279,733.3333,786.52014,815.12823,1010.54944,948.49817,-0.26959228515625,0.134521484375,0.95166015625,4.3963623046875,-5.031890869140625,1.2261962890625,1,1.0,1.0,1.0,1.0,90.00
2021-04-15 22:10:13.599,,,,,,,,,,,,,,,,,,,,,,,,,,,,,,,,,,,,,,/muse/elements/jaw_clench
2021-04-15 22:10:13.945,-0.33677664,-0.07024431,0.0057715415,0.111066125,0.22717497,0.1993887,0.15502146,0.45410952,0.64133257,0.20407155,0.41409126,0.7663472,0.93763816,0.024753693,0.65186834,1.0428278,0.5078048,-0.47133178,0.19065058,0.7686384,804.65204,805.05493,800.2198,725.2747,734.94507,-0.27520751953125,0.13494873046875,0.95587158203125,5.1141357421875,-4.9945068359375,1.1962890625,1,1.0,1.0,1.0,1.0,90.00
2021-04-15 22:10:14.468,-0.17693327,0.77547127,0.70910263,0.43189698,0.2588873,0.52927434,0.49736828,0.74997884,0.7574331,0.54112965,0.5971555,0.98211986,0.9063655,0.10987445,0.6265192,1.0775981,0.49189532,-0.40832955,0.17208849,0.6502615,740.989,797.3993,847.76556,858.6447,715.2015,-0.2630615234375,0.138427734375,0.95294189453125,4.62066650390625,-5.1141357421875,0.785064697265625,1,1.0,1.0,1.0,1.0,90.00
2021-04-15 22:10:14.982,0.10173911,0.81847495,0.73329234,0.40529752,0.25356728,0.53099686,0.52268606,0.70008177,0.74027705,0.6780198,0.6470214,0.97227275,0.8873668,0.08385166,0.58342975,1.0544022,0.43744135,-0.39217517,0.06527551,0.58753246,857.8388,800.2198,803.8461,620.10986,634.61536,-0.26922607421875,0.13592529296875,0.954833984375,4.35150146484375,-5.42816162109375,1.016845703125,1,1.0,1.0,1.0,1.0,90.00
2021-04-15 22:10:15.486,0.13518643,0.85099316,0.7784102,0.42961085,0.37576216,0.4925372,0.45348874,0.67023677,0.6674435,0.6852299,0.6128796,0.9126756,0.9088116,0.14119034,0.57579374,1.0776321,0.4581744,-0.38698545,0.010993023,0.615897,708.7546,801.8315,825.6044,999.67035,863.47986,-0.2628173828125,0.1317138671875,0.95989990234375,4.56085205078125,-5.66741943359375,1.016845703125,1,1.0,1.0,1.0,1.0,90.00
2021-04-15 22:10:16.005,0.105004646,0.4798778,0.38103506,0.03289072,0.3612517,0.20997448,-0.004331515,0.21764982,0.5103323,0.6240957,0.42332712,0.703645,0.917211,0.18979083,0.57270646,1.0340962,0.3648908,-0.480243,-0.07052757,0.6342782,763.5531,794.17584,833.2601,813.91943,654.35895,-0.2626953125,0.133056640625,0.9576416015625,4.358978271484375,-4.6954345703125,0.994415283203125,1,1.0,1.0,1.0,1.0,90.00
2021-04-15 22:10:16.520,0.10942796,0.35300192,0.43563902,0.35391974,0.18966311,0.2464168,0.08961161,0.2675696,0.545213,0.48191208,0.37413624,0.53379244,0.87722254,0.21358833,0.5737138,1.0449697,0.37521005,-0.41690382,-0.017097635,0.6493613,863.0769,800.6227,803.8461,633.4066,661.2088,-0.2646484375,0.13177490234375,0.95489501953125,4.837493896484375,-3.880462646484375,1.443023681640625,1,1.0,1.0,1.0,1.0,90.00
2021-04-15 22:10:17.032,0.1819409,0.22094245,0.41240007,0.41908193,-0.089075156,0.3509246,0.27931768,0.30298582,0.4084486,0.5538419,0.37346852,0.4043913,0.93763906,0.25149867,0.60072744,1.0639174,0.356139,-0.33039445,-0.043469068,0.6176862,784.10254,799.011,805.05493,671.28204,822.381,-0.26959228515625,0.13702392578125,0.9576416015625,5.301055908203125,-8.3441162109375,0.306549072265625,1,1.0,1.0,1.0,1.0,90.00
2021-04-15 22:10:17.355,,,,,,,,,,,,,,,,,,,,,,,,,,,,,,,,,,,,,,/muse/elements/jaw_clench
2021-04-15 22:10:17.548,0.24458025,0.121252745,0.38857022,0.5155218,-0.1893318,0.32463667,0.33112872,0.32035306,0.6493942,0.46228063,0.2986044,0.5289009,0.9609524,0.2243205,0.6092117,1.0808359,0.32805663,-0.28467754,-0.016424688,0.5620417,725.6777,797.3993,819.9634,983.1502,910.6227,-0.260986328125,0.1275634765625,0.95855712890625,3.84307861328125,-6.47491455078125,2.10845947265625,1,1.0,1.0,1.0,1.0,90.00
2021-04-15 22:10:17.866,,,,,,,,,,,,,,,,,,,,,,,,,,,,,,,,,,,,,,/muse/elements/jaw_clench
2021-04-15 22:10:18.060,0.20793137,-0.042333953,0.21375197,0.3456061,-0.1548876,0.21302511,0.16185986,-0.021073872,0.6615661,0.4616521,0.5319065,0.50814885,0.94669694,0.1876133,0.6492822,1.0488937,0.41081947,-0.26394984,0.13179122,0.6311696,740.989,804.2491,813.1135,884.43225,886.8498,-0.2288818359375,0.200439453125,0.96099853515625,5.166473388671875,-3.596343994140625,3.87298583984375,1,1.0,1.0,1.0,1.0,90.00
2021-04-15 22:10:18.131,,,,,,,,,,,,,,,,,,,,,,,,,,,,,,,,,,,,,,/muse/elements/jaw_clench
2021-04-15 22:10:18.576,0.19088621,0.09199507,-0.001574217,0.3639244,0.003925885,-0.13227864,-0.061956797,0.16121498,0.7635447,0.123979956,0.5085934,0.72719175,0.8676833,0.011568341,0.62549764,1.0236964,0.51420164,-0.3385488,0.25403765,0.690417,823.9927,817.9487,814.7253,622.52747,653.5531,-0.2232666015625,0.1103515625,0.96649169921875,1.158905029296875,-6.168365478515625,-3.745880126953125,1,1.0,1.0,1.0,1.0,90.00
2021-04-15 22:10:19.087,0.33096892,0.73148537,0.16369645,0.46438488,0.060629614,0.13209543,-0.10740669,0.45576656,0.6422647,0.20812738,0.5085934,0.80221087,0.8098896,-0.06372814,0.64819247,1.0368565,0.63983977,-0.37686813,0.2719641,0.785752,846.55676,807.8755,805.05493,647.9121,664.43225,-0.228515625,0.1033935546875,0.96978759765625,6.50482177734375,-6.706695556640625,4.717864990234375,1,1.0,1.0,1.0,1.0,90.00
2021-04-15 22:10:19.599,0.45681584,1.0185969,0.6057629,0.5344697,0.14835654,0.3961677,0.14348635,0.5608127,0.76519406,0.14357416,0.46937746,0.8647339,0.86047435,-0.07105217,0.61590844,1.0776066,0.6291911,-0.43697625,0.19014604,0.7552349,711.978,800.2198,803.0403,919.89014,1060.9158,-0.27496337890625,0.297607421875,0.93695068359375,24.621124267578125,-1.86920166015625,12.807769775390625,1,1.0,1.0,1.0,1.0,90.00
2021-04-15 22:10:20.111,0.5089345,1.1780975,0.6343148,0.525083,0.45673364,0.5374154,0.10193528,0.5196273,0.86510324,0.1209593,0.47127026,0.81956565,0.93267846,0.012982759,0.58652484,1.1091126,0.59399,-0.46473178,0.09145341,0.7095861,719.6337,817.1429,831.2454,914.65204,768.3883,-0.298095703125,0.236328125,0.93475341796875,-7.01324462890625,-18.363037109375,1.024322509765625,1,1.0,1.0,1.0,1.0,85.00
2021-04-15 22:10:20.398,,,,,,,,,,,,,,,,,,,,,,,,,,,,,,,,,,,,,,/muse/elements/jaw_clench
2021-04-15 22:10:20.619,0.70861447,1.2687455,0.58812916,0.66556424,0.6594999,0.66749394,0.07727068,0.4044773,0.86510324,0.040754225,0.47127026,0.79898334,0.9869295,0.037408456,0.55215794,1.1467369,0.53221196,-0.45344085,0.04899258,0.6484178,835.2747,786.52014,780.07324,704.7253,873.5531,-0.26934814453125,0.1424560546875,0.95263671875,7.334747314453125,-6.990814208984375,-2.265472412109375,1,1.0,1.0,1.0,1.0,85.00
2021-04-15 22:10:21.130,0.69145906,1.2687455,0.2786598,0.7551807,0.6832727,0.66749394,-0.31564394,0.30948517,0.86667943,0.040754225,0.2294822,0.6416519,0.9971584,0.037408456,0.5540391,1.1730479,0.56049097,-0.45344085,0.13126302,0.6519963,711.978,796.5934,813.91943,971.4652,868.315,-0.271484375,0.1500244140625,0.953125,5.630035400390625,-4.164581298828125,4.65057373046875,1,1.0,1.0,1.0,1.0,85.00
2021-04-15 22:10:21.661,0.8640237,0.85808957,0.33958527,0.91256624,0.51772857,0.21062125,-0.30250353,0.2286681,0.5465864,0.1941435,0.39166272,0.18552579,0.94467175,0.2141254,0.6466985,1.1883149,0.55395037,-0.423367,0.19008894,0.64600646,736.1539,801.02563,832.4542,901.3553,733.3333,-0.23974609375,0.1356201171875,0.96453857421875,5.1739501953125,-6.17584228515625,1.338348388671875,1,1.0,1.0,1.0,1.0,85.00
2021-04-15 22:10:22.172,0.6941419,0.6189254,0.2737735,0.6726258,0.24647965,0.16573541,-0.38642234,0.13053514,0.57077056,0.24855384,0.41965318,0.07080238,0.89770406,0.20535776,0.62329406,1.1261978,0.59454155,-0.39790857,0.26495603,0.85612935,720.0366,799.81683,819.5604,1000.87915,849.3773,-0.2369384765625,0.1346435546875,0.9775390625,4.94964599609375,-5.091705322265625,4.78515625,1,1.0,1.0,1.0,1.0,85.00
2021-04-15 22:10:22.697,0.66214633,0.5120511,0.19439897,0.44181585,0.09502903,0.17711774,-0.16919155,0.009789102,0.50849223,0.29663625,0.40937558,0.19026844,0.887247,0.21672605,0.6228191,1.1214248,0.6098409,-0.3871495,0.2301234,0.8596516,786.1172,809.0842,813.91943,740.58606,673.69965,-0.27691650390625,0.1441650390625,0.9559326171875,14.19097900390625,1.443023681640625,1.5252685546875,1,1.0,1.0,1.0,1.0,85.00
2021-04-15 22:10:23.028,,,,,,,,,,,,,,,,,,,,,,,,,,,,,,,,,,,,,,/muse/elements/blink
2021-04-15 22:10:23.226,0.3394881,0.037887033,0.12155346,0.44181585,0.07663984,0.060299516,-0.13492852,0.009789102,0.5066426,0.21349911,0.15854652,0.19026844,0.92683154,0.20345317,0.585616,1.1214248,0.66030186,-0.43374622,0.13804331,0.8596516,868.315,808.68134,783.69965,572.1612,647.50916,-0.23370361328125,0.1031494140625,0.9613037109375,0.67291259765625,-6.886138916015625,-0.500946044921875,1,1.0,1.0,1.0,1.0,85.00
2021-04-15 22:10:23.734,0.44475555,0.1562554,0.56193256,0.44181585,-0.062823236,0.050027505,0.04041929,0.009789102,0.45738417,0.44700235,-0.057343204,0.19026844,0.9221378,0.20774308,0.65787303,1.1214248,0.69653803,-0.4264806,0.13644159,0.8596516,775.2381,799.011,800.6227,752.674,825.2015,-0.2467041015625,0.09136962890625,0.965576171875,3.828125,-3.925323486328125,-1.188812255859375,1,1.0,1.0,1.0,1.0,85.00
2021-04-15 22:10:24.238,0.47377098,0.2572061,0.6581595,0.44181585,-0.0422178,0.21745314,0.019017797,0.009789102,0.368796,0.51170695,-0.03421079,0.19026844,0.91922784,0.17850369,0.6856251,1.1214248,0.73160934,-0.51339513,0.07626697,0.8596516,708.7546,800.6227,826.8132,994.0293,895.31134,-0.23297119140625,0.09466552734375,0.968017578125,5.420684814453125,-5.988922119140625,-1.6748046875,1,1.0,1.0,1.0,1.0,85.00
2021-04-15 22:10:24.770,0.41518217,0.2637364,0.649205,0.44181585,0.2763464,0.3131427,0.08200959,0.009789102,0.48223478,0.52273816,0.09004006,0.19026844,0.9437338,0.14941846,0.68085945,1.1214248,0.3484271,-0.4971601,0.10760712,0.8596516,850.58606,799.011,797.3993,578.20514,631.39197,-0.23114013671875,0.096435546875,0.96893310546875,5.226287841796875,-2.55706787109375,0.43365478515625,1,1.0,1.0,1.0,1.0,85.00
2021-04-15 22:10:25.276,0.28808537,0.19959795,0.2828008,0.17773391,0.047407575,0.23697653,0.018663421,0.06384316,0.5623987,0.51792216,0.210627,0.3823028,0.92919624,0.12396399,0.6264925,1.0934446,0.30617523,-0.6001008,0.022326635,0.5464133,850.18317,820.7692,804.2491,578.20514,635.82416,-0.24951171875,0.10357666015625,0.966552734375,5.106658935546875,-4.538421630859375,0.605621337890625,1,1.0,1.0,1.0,1.0,85.00
2021-04-15 22:10:25.796,0.3438888,0.4881521,0.49127254,0.6382211,0.106803894,0.29719472,0.14520507,0.4851413,0.5623987,0.4439213,0.27328584,0.69833136,0.8741528,0.13405725,0.66386503,1.0137826,0.3152865,-0.5962599,0.037923533,0.56021273,811.9048,804.65204,806.26373,671.28204,711.978,-0.2506103515625,0.09771728515625,0.96630859375,4.972076416015625,-3.372039794921875,0.43365478515625,1,1.0,1.0,1.0,1.0,85.00
2021-04-15 22:10:26.315,0.30411753,0.6442123,0.58324975,0.6647707,0.05111989,0.25581628,0.23188293,0.5213117,0.37169525,0.35730442,0.37140447,0.7044848,0.8366687,0.10548818,0.7230788,1.0041308,0.27398008,-0.54137385,0.12213697,0.55818915,725.2747,797.3993,823.9927,970.2564,915.4579,-0.25830078125,0.0985107421875,0.969970703125,5.031890869140625,-6.078643798828125,1.682281494140625,1,1.0,1.0,1.0,1.0,85.00
2021-04-15 22:10:26.843,0.4403509,0.7359983,0.6264757,0.8584033,0.2539694,0.26621178,0.3364999,0.7095923,0.031115606,0.36029235,0.35985586,0.61038864,0.7592741,0.06005675,0.71447,0.9124701,0.30676562,-0.5150498,0.21092694,0.56776416,727.6923,794.57874,841.7216,917.47253,760.7326,-0.25311279296875,0.10101318359375,0.96270751953125,5.03936767578125,-4.66552734375,0.91217041015625,1,1.0,1.0,1.0,1.0,85.00
2021-04-15 22:10:27.363,0.48541045,0.5517807,0.22172558,0.96463925,0.33427772,-0.0135616595,0.20989652,0.8188294,-0.012189072,0.40723324,0.4365825,0.60993993,0.72601926,0.007990036,0.6304757,0.9010915,0.24852774,-0.44968924,0.24128585,0.54900014,824.7985,805.4579,805.4579,648.315,705.9341,-0.256103515625,0.09515380859375,0.96221923828125,4.987030029296875,-3.8580322265625,1.622467041015625,1,1.0,1.0,1.0,1.0,85.00
2021-04-15 22:10:27.877,-0.07145881,0.41882923,0.15863703,0.46947417,-0.3120374,-0.15269741,0.18761073,0.38736248,0.77706236,0.33865988,0.4543973,0.73540586,0.8517368,0.12513384,0.56686527,0.97288716,0.39319614,-0.45190603,0.21027176,0.7329649,840.5128,805.4579,797.8022,598.7546,687.3993,-0.25469970703125,0.1029052734375,0.9610595703125,4.762725830078125,-5.734710693359375,0.8673095703125,1,1.0,1.0,1.0,1.0,85.00
2021-04-15 22:10:28.393,0.13274251,0.23921789,0.023936804,0.36635453,-0.44675678,-0.17257887,-0.026502196,0.4093522,0.77706236,0.33280644,0.41097176,0.73540586,0.846799,0.15756448,0.5753129,1.0091765,0.35213083,-0.4039518,0.16669749,0.69363153,847.3626,793.36993,803.44324,564.10254,533.0769,-0.25665283203125,0.10009765625,0.96453857421875,4.194488525390625,-5.046844482421875,0.994415283203125,1,1.0,1.0,1.0,1.0,85.00
2021-04-15 22:10:28.900,0.24107602,0.19731662,-0.10149139,0.22301601,-0.3861371,-0.1829371,-0.08674779,0.40988722,0.7740721,0.37341523,0.37278256,0.7347581,0.87362564,0.12754229,0.5775461,1.040694,0.40731764,-0.3335517,0.17312504,0.70822775,792.1612,801.4286,790.54944,703.5165,746.2271,-0.2513427734375,0.09918212890625,0.9669189453125,4.6954345703125,-4.149627685546875,1.51031494140625,1,1.0,1.0,1.0,1.0,85.00
2021-04-15 22:10:29.423,0.25472906,0.44252053,0.38186812,0.48231333,-0.03687786,0.053171806,0.035853647,0.5685317,0.7571766,0.47557014,0.13371609,0.7295667,0.9058192,0.17021956,0.5870155,1.0497502,0.5264354,-0.31620356,0.19880822,0.77862906,793.36993,807.8755,811.9048,737.3626,831.2454,-0.2620849609375,0.10235595703125,0.9638671875,4.792633056640625,-4.83001708984375,1.48040771484375,1,1.0,1.0,1.0,1.0,85.00
2021-04-15 22:10:29.949,0.28047344,0.6112176,0.6451031,0.62265456,0.12549794,0.15410542,0.18951432,0.66586596,0.5675926,0.5060742,0.21243288,0.86922944,0.90470254,0.22725776,0.55702984,1.0168396,0.59214735,-0.25687632,0.21239847,0.7935914,839.304,800.6227,809.89014,557.25275,622.9304,-0.25433349609375,0.10150146484375,0.96087646484375,4.508514404296875,-4.508514404296875,0.55328369140625,1,1.0,1.0,1.0,1.0,85.00
2021-04-15 22:10:30.460,0.12082149,0.5990332,0.75887597,0.59278953,0.20522657,0.1277785,0.23555425,0.6156113,0.78075194,0.50790006,0.32923958,0.922676,0.8557209,0.2637491,0.48544946,0.9454889,0.5587775,-0.30142578,0.15219282,0.74039906,827.619,794.57874,804.2491,622.1245,624.5421,-0.24652099609375,0.09423828125,0.96124267578125,4.42626953125,-5.211334228515625,0.657958984375,1,1.0,1.0,1.0,1.0,90.00
2021-04-15 22:10:30.989,0.21773013,0.289968,0.60946774,0.2678543,0.17594701,-0.06934975,0.082185745,0.25697795,0.76955676,0.24125944,0.33285034,0.8608346,0.8356265,0.09232673,0.47046268,0.9701392,0.399572,-0.36085454,0.018707618,0.5614759,715.6044,799.81683,812.3077,981.13556,886.4469,-0.25067138671875,0.0980224609375,0.96356201171875,4.44122314453125,-4.344024658203125,1.21124267578125,1,1.0,1.0,1.0,1.0,90.00
2021-04-15 22:10:31.495,0.15972814,0.6937219,0.5921993,0.33106557,0.20436274,0.099121615,0.2202755,0.13325526,0.8031229,0.30463508,0.42840213,0.8437358,0.8316547,0.031196509,0.49853125,1.0241483,0.32158518,-0.46196145,-0.14453155,0.48725376,747.4359,793.36993,812.71063,905.38464,969.45056,-0.2506103515625,0.10113525390625,0.96429443359375,5.18890380859375,-5.794525146484375,0.874786376953125,1,1.0,1.0,1.0,1.0,90.00
2021-04-15 22:10:32.005,0.13138013,0.8035301,0.45746174,0.47472018,0.14102559,0.26351598,0.12484197,0.2686062,0.59554905,0.4407289,0.39894104,0.69772965,0.798219,0.04387729,0.5649172,1.0743512,0.28054205,-0.50262123,-0.20733382,0.41687712,844.1392,800.2198,810.293,613.663,734.1392,-0.2469482421875,0.09979248046875,0.9693603515625,4.6954345703125,-5.435638427734375,0.575714111328125,1,1.0,1.0,1.0,1.0,90.00
2021-04-15 22:10:32.520,-0.11655861,0.78692394,0.36570507,0.46864092,-0.071863435,0.26001614,0.17074832,0.2073279,0.48386493,0.4325216,0.3672039,0.6193105,0.7990507,0.11952051,0.58080006,1.1148425,0.26731065,-0.5166065,-0.24658555,0.40939027,786.52014,806.26373,813.5165,605.2015,665.64105,-0.2479248046875,0.09564208984375,0.964111328125,4.59075927734375,-4.306640625,1.099090576171875,1,1.0,1.0,1.0,1.0,90.00
2021-04-15 22:10:33.035,-0.460983,0.37428665,0.087732255,0.116223454,-0.065760605,0.185547,-0.013198543,0.11618767,0.522642,0.4594838,0.28107154,0.5760693,0.8150842,0.15825589,0.61314976,1.0990385,0.25549406,-0.4815624,-0.21751149,0.45847377,860.2564,800.6227,797.8022,603.5897,794.9817,-0.2470703125,0.09600830078125,0.964111328125,5.076751708984375,-4.269256591796875,1.457977294921875,1,1.0,1.0,1.0,1.0,90.00
2021-04-15 22:10:33.543,-0.18609846,0.16476291,0.11412013,0.013251064,0.16058855,-0.01154781,-0.054485146,0.17913935,0.517998,0.32037973,0.1533683,0.6862922,0.88448226,0.16480765,0.6344369,1.0990839,0.30797842,-0.41304114,-0.13277327,0.4915095,750.65936,806.26373,812.71063,738.97437,906.99634,-0.24853515625,0.09942626953125,0.96728515625,4.964599609375,-4.777679443359375,1.24114990234375,1,1.0,1.0,1.0,1.0,90.00
2021-04-15 22:10:34.047,0.0028626453,0.30234092,0.2738368,0.016423533,0.2094976,-0.005793765,-0.23482744,0.16604383,0.539915,0.28522,0.17686372,0.7002343,0.9328115,0.14343038,0.6339726,1.0637097,0.3312176,-0.3323662,-0.016539706,0.51239944,803.8461,803.8461,816.7399,680.54944,666.4469,-0.25006103515625,0.10064697265625,0.9649658203125,4.59075927734375,-5.42816162109375,1.727142333984375,1,1.0,1.0,1.0,1.0,90.00
2021-04-15 22:10:34.565,0.06302345,0.50107896,0.53365976,0.29603472,0.27803496,-0.005435449,-0.053694606,0.20908262,0.63280034,0.16788027,0.16641477,0.7953584,0.9292223,0.14379637,0.58944505,1.0270315,0.31591505,-0.25165704,0.032316454,0.4490839,848.5714,806.6667,796.5934,593.91943,689.81683,-0.23486328125,0.09710693359375,0.97381591796875,4.5758056640625,-5.90667724609375,1.338348388671875,1,1.0,1.0,1.0,1.0,90.00
2021-04-15 22:10:35.095,0.0769671,0.5024672,0.5369521,0.41352475,0.24268092,-0.035936125,0.013542061,0.2871355,0.63800585,0.21165681,0.27687043,0.812368,0.8513926,0.12833282,0.5582634,0.9656,0.41230404,-0.21771254,0.063665554,0.62429005,757.50916,794.57874,802.6374,758.71796,776.8498,-0.242919921875,0.09539794921875,0.96661376953125,4.807586669921875,-4.089813232421875,0.538330078125,1,1.0,1.0,1.0,1.0,90.00
2021-04-15 22:10:35.622,0.10605597,0.4578913,0.5376778,0.5247162,0.2954513,-0.04823768,0.059837777,0.4134705,0.6396717,0.21361655,0.27121556,0.8059215,0.76424426,0.14975812,0.52665204,0.9508562,0.43200564,-0.21631664,0.042564075,0.68335474,719.2308,797.8022,832.0513,1002.8938,874.35895,-0.24566650390625,0.0936279296875,0.96429443359375,5.00946044921875,-3.760833740234375,1.0467529296875,1,1.0,1.0,1.0,1.0,90.00
2021-04-15 22:10:36.148,0.1253822,0.13164115,0.24873483,0.35023186,0.22683996,-0.20422226,-0.0013701847,0.3129684,0.6265694,0.23635659,0.36303803,0.7342352,0.7309791,0.21660888,0.55908585,0.98416376,0.49551818,-0.34211913,0.051234894,0.7509113,737.76556,799.41394,815.9341,935.2015,1019.011,-0.251953125,0.09857177734375,0.96966552734375,4.97955322265625,-5.27862548828125,1.5850830078125,1,1.0,1.0,1.0,1.0,90.00
2021-04-15 22:10:36.675,0.05327124,0.058026787,0.24109484,0.13419172,0.10512134,-0.11416323,0.10293673,0.14861129,0.67822516,0.28119436,0.25636366,0.66933036,0.78855085,0.25033963,0.5757083,1.0128441,0.4628934,-0.39678082,0.08779375,0.65680754,733.73627,791.75824,829.6337,947.6923,761.9414,-0.24493408203125,0.0980224609375,0.96514892578125,4.807586669921875,-4.912261962890625,0.770111083984375,1,1.0,1.0,1.0,1.0,90.00
2021-04-15 22:10:37.182,-0.11215413,0.3052805,0.46487644,0.13992743,0.010814775,0.17771474,0.2687695,0.35725436,0.6665693,0.4195078,0.3518894,0.78027505,0.9495051,0.39563066,0.6490806,1.0017483,0.41269746,-0.42937142,0.07117028,0.59092766,819.5604,795.38464,794.17584,670.07324,741.39197,-0.24188232421875,0.09747314453125,0.96197509765625,4.74029541015625,-5.465545654296875,0.785064697265625,1,1.0,1.0,1.0,1.0,90.00
2021-04-15 22:10:37.685,-0.14115499,0.4538729,0.5922228,0.39399415,0.04245938,0.36677533,0.26427504,0.5571936,0.5563125,0.47298542,0.28691003,0.7032924,0.97069377,0.40105286,0.61738014,1.0124961,0.48647904,-0.39654002,0.13041991,0.6440807,835.2747,801.02563,801.4286,575.38464,664.43225,-0.2496337890625,0.0975341796875,0.96759033203125,4.358978271484375,-4.77020263671875,1.353302001953125,1,1.0,1.0,1.0,1.0,90.00
2021-04-15 22:10:38.187,-0.10772555,0.47239798,0.5566739,0.46446148,0.050880734,0.33530623,0.15132932,0.52871585,0.44558287,0.4993957,0.20878889,0.68510216,0.9880636,0.4019236,0.5612263,0.99592304,0.4539152,-0.40966597,0.13663442,0.6337202,757.9121,788.1319,805.8608,783.2967,820.3663,-0.24468994140625,0.0948486328125,0.964599609375,3.910369873046875,-6.183319091796875,1.173858642578125,1,1.0,1.0,1.0,1.0,90.00
2021-04-15 22:10:38.705,0.10606861,0.2886513,0.18215361,0.42287615,0.17990372,0.124906264,-0.30920145,0.30464494,0.28899634,0.43932837,0.20014307,0.59159464,0.82856077,0.23505048,0.46276724,1.0065138,0.50581306,-0.4156741,0.18807143,0.6873919,718.8278,777.6557,794.9817,1003.69965,992.01465,-0.2386474609375,0.0958251953125,0.9664306640625,4.523468017578125,-4.194488525390625,-0.037384033203125,1,1.0,1.0,1.0,1.0,90.00
2021-04-15 22:10:39.223,0.20991626,0.5346809,0.23810622,0.38691577,0.17426117,0.14066453,-0.30084383,-0.016022123,0.2576978,0.4459597,0.18790762,0.415776,0.8201603,0.16437942,0.48578024,0.98202264,0.45109826,-0.28417668,0.17887022,0.65931726,828.4249,788.93774,797.3993,591.9048,650.32965,-0.242919921875,0.0928955078125,0.97222900390625,4.478607177734375,-4.358978271484375,0.418701171875,1,1.0,1.0,1.0,1.0,90.00
2021-04-15 22:10:39.726,0.34221038,0.79126155,0.39991266,0.47943714,0.30732948,0.29668346,-0.2758495,0.03696884,0.14238226,0.4541486,0.045779243,0.35582373,0.75037074,0.10989711,0.5149145,0.98517066,0.4783851,-0.2614499,0.17900765,0.69716907,846.1539,792.1612,788.5348,595.5311,678.1319,-0.24481201171875,0.09478759765625,0.96978759765625,4.747772216796875,-4.837493896484375,1.233673095703125,1,1.0,1.0,1.0,1.0,90.00
2021-04-15 22:10:40.228,0.41494533,0.8159968,0.29770282,0.28660062,0.5344508,0.36624375,0.08146858,0.43328294,0.602115,0.44292647,0.20971672,0.4957451,0.8562706,0.07775302,0.3273672,1.1013501,0.56349605,-0.21678734,0.25712025,0.64315903,737.3626,783.2967,817.9487,1004.5055,884.83514,-0.2523193359375,0.0975341796875,0.96392822265625,5.031890869140625,-4.628143310546875,1.368255615234375,1,1.0,1.0,1.0,1.0,90.00
2021-04-15 22:10:40.729,0.25630978,0.61436605,-0.290585,0.06247121,0.55594945,0.2109308,0.09758797,0.41616052,0.641466,0.34282082,0.25851244,0.561365,0.86864984,0.08960562,0.3286608,1.0951912,0.4478375,-0.29817122,0.1891122,0.564385,780.07324,796.99634,817.9487,773.6264,674.10254,-0.2503662109375,0.09722900390625,0.96929931640625,5.016937255859375,-4.643096923828125,1.158905029296875,1,1.0,1.0,1.0,1.0,90.00
2021-04-15 22:10:41.250,0.22195148,0.27112764,-0.18897593,0.27293897,0.44216448,0.1238213,-0.0038208482,0.31699404,0.641466,0.28906694,0.26315808,0.58417207,0.83160156,0.1264524,0.42877004,1.0677838,0.46899462,-0.31571317,0.1321603,0.64267886,738.97437,789.34064,814.3223,835.6777,796.5934,-0.2513427734375,0.09857177734375,0.96405029296875,4.844970703125,-4.47113037109375,1.218719482421875,1,1.0,1.0,1.0,1.0,90.00
2021-04-15 22:10:41.770,0.14379388,0.27328286,0.014956931,0.3803557,0.32702768,0.11759272,-0.09789046,0.22584176,0.5906213,0.31154707,0.19640934,0.53837574,0.7903321,0.18939102,0.5720222,1.0298488,0.42196944,-0.3563949,0.016565874,0.6771995,747.03296,817.5458,819.5604,996.4469,888.0586,-0.257080078125,0.09619140625,0.96405029296875,4.687957763671875,-4.643096923828125,1.502838134765625,1,1.0,1.0,1.0,1.0,90.00
2021-04-15 22:10:42.297,0.1802786,0.71113676,0.6077643,0.546475,0.12383799,0.3480987,0.05183467,-0.2551208,0.55189717,0.43403667,0.08938641,0.23562852,0.7808987,0.16289349,0.5882697,0.98741245,0.4060943,-0.36543292,-0.056129124,0.7787107,708.7546,794.9817,829.6337,952.9304,827.619,-0.24761962890625,0.09954833984375,0.96514892578125,5.076751708984375,-5.72723388671875,1.024322509765625,1,1.0,1.0,1.0,1.0,90.00
2021-04-15 22:10:42.825,0.17640987,0.7770005,0.7005372,0.41745716,0.102658235,0.46522826,0.109845765,0.37539792,0.677009,0.41915014,0.10384499,0.39249408,0.81759113,0.10128605,0.52455956,0.98475415,0.35854277,-0.39160234,-0.09064752,0.48095462,770.40295,806.26373,821.978,933.9927,826.4103,-0.23675537109375,0.10296630859375,0.96636962890625,4.246826171875,-6.228179931640625,0.710296630859375,1,1.0,1.0,1.0,1.0,90.00
2021-04-15 22:10:43.344,0.12738442,0.9403858,0.6582761,0.2738065,0.060222477,0.49915394,0.20197117,0.3215008,0.79938704,0.39372796,0.41647652,0.95272887,0.81526697,0.07803516,0.42746893,0.9937638,0.36262366,-0.39006078,0.0141865825,0.6471831,821.1722,798.20514,818.3516,643.0769,680.54944,-0.224365234375,0.0975341796875,0.965576171875,4.538421630859375,-4.807586669921875,0.94207763671875,1,1.0,1.0,1.0,1.0,90.00
2021-04-15 22:10:43.814,,,,,,,,,,,,,,,,,,,,,,,,,,,,,,,,,,,,,,/muse/elements/blink
2021-04-15 22:10:43.858,0.027400885,0.8215181,0.16347963,0.12904762,0.16472167,0.43024388,0.10564306,0.31268004,0.7096478,0.09613094,0.46121588,0.9689618,0.78528976,0.07944178,0.45477828,0.9943206,0.3646696,-0.4421448,0.04939861,0.642269,812.71063,801.8315,813.91943,796.5934,755.09155,-0.22283935546875,0.081787109375,0.96630859375,7.215118408203125,-5.106658935546875,6.721649169921875,1,1.0,1.0,1.0,1.0,90.00
2021-04-15 22:10:44.360,-0.040112883,0.90792286,0.52393496,0.073310986,0.22963466,0.40778893,0.22676468,0.362202,0.6331465,0.1803181,0.47195354,0.9689618,0.7502651,0.0461238,0.51303715,1.0269487,0.33454648,-0.4913381,0.11165275,0.69187206,749.85345,802.23444,805.05493,863.0769,931.5751,-0.23614501953125,0.19818115234375,0.96875,1.18133544921875,-4.71038818359375,1.854248046875,1,1.0,1.0,1.0,1.0,90.00
2021-04-15 22:10:44.863,-0.25103298,0.94582945,0.76035374,-0.019554567,0.35524723,0.60496926,0.5002473,0.490793,0.49165374,0.32154274,0.5898076,0.9563344,0.77250934,-0.067663476,0.57605314,1.056701,0.1857384,-0.51067084,-0.015262595,0.56175506,723.2601,796.1905,830.4396,977.9121,893.69965,-0.22772216796875,0.1053466796875,0.9298095703125,1.39068603515625,7.499237060546875,-10.45257568359375,1,1.0,1.0,1.0,1.0,90.00
2021-04-15 22:10:45.358,,,,,,,,,,,,,,,,,,,,,,,,,,,,,,,,,,,,,,/muse/elements/blink
2021-04-15 22:10:45.382,0.79075044,0.94271666,0.84626985,-0.019554567,0.5968408,0.58601403,0.5168075,0.490793,0.55347973,0.37175336,0.5878797,0.9563344,0.85146004,-0.033577017,0.53815234,1.056701,0.43753624,-0.35003406,0.044068087,0.56175506,798.60803,804.65204,815.9341,764.35895,665.64105,-0.2635498046875,0.1287841796875,0.9619140625,-6.003875732421875,-14.347991943359375,2.415008544921875,1,1.0,1.0,1.0,1.0,90.00
2021-04-15 22:10:45.900,0.79075044,0.86128396,0.8043342,-0.019554567,0.5968408,0.67040473,0.49462372,0.490793,0.55347973,0.62025666,0.5652106,0.9563344,0.85146004,0.13982724,0.5143417,1.056701,0.43753624,-0.319873,-0.04620175,0.56175506,860.2564,808.2784,795.38464,595.9341,701.0989,-0.291015625,0.09033203125,0.968505859375,8.8525390625,-10.12359619140625,-8.815155029296875,1,1.0,1.0,1.0,1.0,90.00
2021-04-15 22:10:46.408,0.79075044,0.644385,0.6909078,-0.019554567,0.5968408,0.5369925,0.29840752,0.490793,0.55347973,0.6132178,0.3166094,0.9563344,0.85146004,0.2221094,0.41919228,1.056701,0.43753624,-0.36544028,0.023990411,0.56175506,811.0989,792.1612,813.5165,741.39197,776.8498,-0.239990234375,0.0518798828125,0.96734619140625,0.88226318359375,-3.887939453125,0.49346923828125,1,1.0,1.0,1.0,1.0,90.00
2021-04-15 22:10:46.501,,,,,,,,,,,,,,,,,,,,,,,,,,,,,,,,,,,,,,/muse/elements/blink
2021-04-15 22:10:46.917,0.79075044,0.55694485,0.56207407,-0.019554567,0.5968408,0.47912616,0.18666056,0.490793,0.55347973,0.60982347,0.25168902,0.9563344,0.85146004,0.24118146,0.49151033,1.056701,0.43753624,-0.5311465,0.025638359,0.56175506,808.2784,797.8022,805.8608,739.7802,586.26373,-0.2349853515625,0.03582763671875,0.96954345703125,5.944061279296875,-1.353302001953125,1.06170654296875,1,1.0,1.0,1.0,1.0,90.00
2021-04-15 22:10:47.428,0.79075044,0.36270738,0.17825243,-0.019554567,0.5968408,0.21414264,-0.04917262,0.490793,0.55347973,0.39125618,0.17140166,0.9563344,0.85146004,0.14882709,0.46301898,1.056701,0.43753624,-0.55523187,0.11435087,0.56175506,778.46155,796.5934,817.9487,886.4469,716.8132,-0.274169921875,0.042236328125,0.9642333984375,4.149627685546875,-2.46734619140625,0.336456298828125,1,1.0,1.0,1.0,1.0,90.00
2021-04-15 22:10:47.908,,,,,,,,,,,,,,,,,,,,,,,,,,,,,,,,,,,,,,/muse/elements/blink
2021-04-15 22:10:47.936,0.79075044,0.17414065,-0.050790798,-0.019554567,0.5968408,0.077171214,-0.45901534,0.490793,0.55347973,0.40841004,0.19175312,0.9563344,0.85146004,0.08989911,0.5145039,1.056701,0.43753624,-0.42220926,0.16747588,0.56175506,774.83514,790.54944,816.337,749.45056,806.26373,-0.25787353515625,0.0418701171875,0.9697265625,4.42626953125,-5.914154052734375,0.859832763671875,1,1.0,1.0,1.0,1.0,90.00
2021-04-15 22:10:48.440,0.79075044,-0.16980302,-0.047221735,-0.019554567,0.5968408,0.23887533,-0.20719014,0.490793,0.55347973,0.54731894,0.32107013,0.9563344,0.85146004,0.06659936,0.5139386,1.056701,0.43753624,-0.37914917,0.1301657,0.56175506,771.2088,790.14655,807.0696,1030.6959,1042.7839,-0.2520751953125,0.0411376953125,0.9632568359375,3.66363525390625,-5.03936767578125,2.1234130859375,1,2.0,1.0,1.0,2.0,90.00
2021-04-15 22:10:48.952,0.79075044,-0.09062912,-0.01687382,-0.019554567,0.5968408,0.26940045,-0.1457615,0.490793,0.55347973,0.55565953,0.32041255,0.9563344,0.85146004,0.117943734,0.52296484,1.056701,0.43753624,-0.31862926,0.060829546,0.56175506,733.73627,785.31134,814.3223,830.4396,684.9817,-0.2470703125,0.0367431640625,0.96575927734375,4.777679443359375,-3.013153076171875,5.734710693359375,1,2.0,1.0,1.0,2.0,90.00
2021-04-15 22:10:49.459,0.79075044,0.106733896,0.21065117,0.7255711,0.5968408,0.24266808,0.038195424,0.4017642,0.55347973,0.58658385,0.39665884,0.76758695,0.85146004,0.13520923,0.4888225,1.0326098,0.43753624,-0.23498026,-0.03715957,0.80270606,842.52747,846.9597,782.0879,602.381,565.31134,-0.24542236328125,0.0494384765625,0.9730224609375,4.18701171875,-3.78326416015625,-0.097198486328125,1,2.0,1.0,1.0,2.0,90.00
2021-04-15 22:10:49.969,0.69085777,0.21255144,0.44815698,0.7354506,0.41692966,0.0668151,0.11675307,0.6427637,0.6394333,0.48970005,0.35912848,0.84323114,0.9777182,0.16110903,0.42819965,1.0807431,0.6150649,-0.15744661,0.018119402,0.89824474,814.3223,797.8022,787.326,640.2564,743.8095,-0.2750244140625,0.060302734375,0.96160888671875,4.91973876953125,-5.644989013671875,2.04864501953125,1,1.0,1.0,1.0,1.0,90.00
2021-04-15 22:10:50.478,0.6286664,0.36526048,0.5939652,0.63549554,0.1984704,-0.22442779,0.24678321,0.63200194,0.66871804,0.45278937,0.36258414,0.84345233,0.9053653,0.09273752,0.45982295,1.0193642,0.4886545,-0.041031055,0.01603154,0.8023727,733.3333,805.4579,818.7546,909.011,894.10254,-0.29193115234375,0.04791259765625,0.96185302734375,-2.51220703125,-6.542205810546875,10.355377197265625,1,1.0,1.0,1.0,1.0,90.00
2021-04-15 22:10:50.996,0.5363942,0.45512205,0.44110048,0.65322804,0.098461576,0.39859754,0.1580912,0.5932009,0.69342077,0.31930795,0.16111298,0.8428052,0.8691803,0.02932912,0.4579482,0.98786515,0.45690238,-0.5154494,0.0025229263,0.7856444,767.98535,796.1905,817.1429,974.68866,828.4249,-0.26165771484375,0.0758056640625,0.9620361328125,0.157012939453125,-5.630035400390625,8.0450439453125,1,1.0,1.0,1.0,1.0,85.00
2021-04-15 22:10:51.507,0.4927263,0.45694938,-0.033699382,0.5777966,-0.051543076,0.26845294,0.031232633,0.39608604,0.5879848,0.32124043,0.24059394,0.6446664,0.7665827,0.062290292,0.48114076,0.8990996,0.32252297,-0.42385206,-0.15626478,0.6445027,807.8755,794.17584,802.6374,651.13556,735.34796,-0.2745361328125,0.0572509765625,0.96002197265625,5.802001953125,-0.949554443359375,-0.800018310546875,1,1.0,1.0,1.0,1.0,85.00
2021-04-15 22:10:51.838,,,,,,,,,,,,,,,,,,,,,,,,,,,,,,,,,,,,,,/muse/elements/blink
2021-04-15 22:10:52.033,0.45084578,0.41096756,0.07980071,0.6628378,0.016006004,0.23803076,-6.288096E-4,0.06954792,0.5249351,0.43221438,0.24227038,0.4035854,0.7286207,0.076790825,0.4615012,0.9008698,0.3187673,-0.44042635,-0.14737238,0.6931149,728.49817,797.8022,817.1429,920.293,807.8755,-0.29510498046875,0.083984375,0.9559326171875,5.18890380859375,-6.287994384765625,-0.70281982421875,1,1.0,1.0,1.0,1.0,85.00
2021-04-15 22:10:52.541,0.3899302,0.51110756,0.43099445,0.5959555,0.12415336,0.40396848,0.06387591,-0.00244407,0.3809896,0.41347367,0.3027792,0.31316012,0.64956987,0.09272842,0.4524712,0.9129622,0.24493727,-0.3567929,-0.019389134,0.65117705,765.9707,795.38464,808.2784,767.1795,858.24176,-0.2740478515625,0.0762939453125,0.9581298828125,4.658050537109375,-5.5029296875,-1.1962890625,1,1.0,1.0,1.0,1.0,85.00
2021-04-15 22:10:53.043,0.33073172,0.4583151,0.5026464,0.5959555,0.12170785,0.37062657,0.160284,-0.00244407,0.34332138,0.36250457,0.22930956,0.31316012,0.5829359,0.107304886,0.42370847,0.9129622,0.21991996,-0.36095563,0.046119947,0.65117705,827.619,799.81683,799.41394,710.7692,813.91943,-0.2747802734375,0.0870361328125,0.96063232421875,5.809478759765625,-4.68048095703125,-2.669219970703125,1,1.0,1.0,1.0,1.0,85.00
2021-04-15 22:10:53.560,0.19072843,0.94117457,0.7553321,0.6078803,0.008647288,0.64383227,0.4122652,0.74517065,0.34979835,0.55880266,0.52389836,0.65772426,0.7351012,0.119701326,0.4056659,0.92183536,0.39220598,-0.2798259,0.10304153,0.5327087,815.12823,798.20514,806.26373,573.36993,637.8388,-0.29296875,0.06805419921875,0.9578857421875,6.23565673828125,-4.32159423828125,-0.73272705078125,1,1.0,1.0,1.0,1.0,85.00
2021-04-15 22:10:54.087,0.25366718,0.9784171,0.65028465,0.54356915,-0.04582442,0.5026884,0.38132814,0.56194353,0.3660674,0.55718917,0.55232775,0.65772426,0.66967577,0.15007952,0.42793557,0.9260509,0.4186354,-0.2760258,0.009577574,0.6107711,770.0,796.1905,796.1905,784.5055,840.10986,-0.27471923828125,0.0804443359375,0.9600830078125,6.676788330078125,-5.96649169921875,0.904693603515625,1,1.0,1.0,1.0,1.0,85.00
2021-04-15 22:10:54.612,0.20245564,0.9525534,0.5551064,0.48629028,-0.002613584,0.49858066,0.2486076,0.467067,0.37646067,0.57917994,0.6391918,0.6698576,0.6003126,0.17238797,0.43726373,0.8964285,0.44431922,-0.20523833,0.0020385403,0.6256541,825.2015,794.57874,803.0403,658.7912,692.23444,-0.26287841796875,0.123046875,0.956787109375,7.469329833984375,-6.02630615234375,-2.01873779296875,1,1.0,1.0,1.0,1.0,85.00
2021-04-15 22:10:54.681,,,,,,,,,,,,,,,,,,,,,,,,,,,,,,,,,,,,,,/muse/elements/blink
2021-04-15 22:10:55.115,0.03292562,0.35471895,-0.28726092,0.20931222,-0.121006355,0.04918221,-0.3253258,-0.06390777,0.2807469,0.564902,0.44615427,0.46255255,0.61200106,0.17441306,0.43083832,0.9184276,0.40227482,-0.21577062,-0.11496869,0.6378278,762.3443,800.6227,823.1868,922.3077,867.9121,-0.25909423828125,0.14129638671875,0.96087646484375,8.25439453125,-4.80010986328125,2.40753173828125,1,1.0,1.0,1.0,1.0,85.00
2021-04-15 22:10:55.624,-0.4506092,0.062242124,-0.3475397,-0.14369954,-0.05297148,0.052332975,-0.2723026,0.040741738,0.22964479,0.56450105,0.45891786,0.44560593,0.6469007,0.08479341,0.42472526,0.88400936,0.36464038,-0.2702721,-0.1421212,0.5346043,759.92676,790.9524,819.15753,959.3773,855.0183,-0.265380859375,0.137939453125,0.948486328125,4.164581298828125,-3.880462646484375,1.248626708984375,1,1.0,1.0,1.0,1.0,85.00
2021-04-15 22:10:56.160,-0.4506092,0.0024173455,-0.19000323,-0.14369954,-0.05297148,-0.075465664,-0.16192272,0.040741738,0.22964479,0.5867305,0.3704127,0.44560593,0.6469007,0.035950862,0.45829993,0.88400936,0.36464038,-0.32370776,-0.19918013,0.5346043,803.44324,791.3553,800.6227,635.82416,760.32965,-0.257080078125,0.14373779296875,0.9549560546875,4.42626953125,-4.7552490234375,2.34771728515625,1,1.0,1.0,1.0,1.0,85.00
2021-04-15 22:10:56.684,0.47171497,0.022684542,-0.07033044,0.5104603,0.45077786,-0.21554856,-0.062364183,0.37950778,0.650401,0.2580367,0.3731017,0.60772276,0.6536333,0.045927044,0.51077944,0.7719355,0.030636432,-0.44508654,-0.071596235,0.5201364,838.49817,796.1905,797.3993,594.3223,772.4176,-0.25567626953125,0.1422119140625,0.95843505859375,4.77020263671875,-4.568328857421875,1.876678466796875,1,1.0,1.0,1.0,1.0,85.00
2021-04-15 22:10:57.208,0.33670628,0.021525417,-0.05844215,0.45439246,0.29841048,-0.19411789,-0.10034751,0.30363497,0.66145146,0.2989736,0.3469845,0.64397407,0.6592082,0.10552839,0.5111854,0.8472986,0.15911087,-0.44664937,-0.0011284665,0.5845687,777.25275,810.696,799.41394,753.47986,855.42126,-0.243896484375,0.11651611328125,0.96783447265625,0.934600830078125,-9.188995361328125,5.869293212890625,1,1.0,1.0,1.0,1.0,85.00
2021-04-15 22:10:57.737,0.077144794,0.123841226,-0.12747012,0.55205506,0.16279876,-0.06390162,0.06731094,0.32664263,0.61948967,0.2002842,0.32658252,0.610936,0.6629165,0.15370494,0.4431444,0.9174166,0.34968626,-0.5701153,-0.0082491515,0.70495707,737.76556,803.8461,826.4103,984.35895,839.707,-0.228759765625,0.10546875,0.96331787109375,4.837493896484375,-3.072967529296875,1.831817626953125,1,1.0,1.0,1.0,1.0,85.00
2021-04-15 22:10:58.240,0.122433834,0.19646896,-0.19924483,0.63668,0.045782063,0.05286882,0.07208824,0.33444464,0.5656074,0.1542692,0.08888713,0.5538054,0.7147053,0.21215065,0.38521338,0.98827803,0.4480485,-0.5418235,-0.021277195,0.7840614,819.15753,815.9341,793.7729,929.9634,1023.0403,-0.23492431640625,0.1064453125,0.96746826171875,5.570220947265625,-4.972076416015625,-0.61309814453125,1,1.0,1.0,1.0,1.0,85.00
2021-04-15 22:10:58.758,0.22442022,0.9427991,-0.27710804,0.7847907,0.17448375,0.30263758,0.06701979,0.44643375,0.4253957,0.30096722,0.13579978,0.4829087,0.75013494,-0.05276639,0.2955571,1.0206814,0.53772795,-0.63057166,-0.030336428,0.8598966,834.0659,819.5604,812.3077,656.77655,646.7033,-0.26141357421875,0.17803955078125,0.95513916015625,7.559051513671875,-0.2093505859375,2.22808837890625,1,1.0,1.0,1.0,1.0,85.00
2021-04-15 22:10:59.284,0.25790393,1.1392665,-0.07049448,0.8051456,0.22691143,0.36946607,0.019920534,0.3487777,0.31009912,0.3148093,0.18250391,0.46719936,0.7083968,-0.028784677,0.3122628,0.9307435,0.5640526,-0.45501006,0.05055296,0.9135734,810.696,805.05493,798.60803,620.10986,677.72894,-0.2625732421875,0.18927001953125,0.93536376953125,4.844970703125,-4.3365478515625,9.4207763671875,1,1.0,1.0,1.0,1.0,85.00
2021-04-15 22:10:59.801,0.5069032,1.1072891,-0.041593056,0.40985975,0.3340255,0.40149814,-0.04135799,0.30048403,0.3315138,0.41952464,0.304252,0.5290057,0.69225776,0.113284424,0.35437703,0.9637376,0.4231535,-0.4007464,0.011354625,0.6326119,853.8095,805.8608,793.7729,612.4542,651.9414,-0.2694091796875,0.2135009765625,0.93902587890625,5.81695556640625,-9.28619384765625,-0.4486083984375,1,1.0,1.0,1.0,1.0,85.00
2021-04-15 22:11:00.310,0.49276108,0.9041143,0.009256431,0.46676153,0.26994443,0.3173448,-0.10388388,0.20439887,0.4295899,0.37061432,0.3065329,0.53396624,0.6794057,0.13739415,0.42523256,0.94812024,0.59678435,-0.42337865,0.036263626,0.77549106,738.5714,799.011,828.022,963.4066,822.7839,-0.23370361328125,0.186767578125,0.94976806640625,2.34771728515625,-4.1571044921875,0.485992431640625,1,1.0,1.0,1.0,1.0,85.00
2021-04-15 22:11:00.817,0.3984366,0.58707345,-0.1689213,0.48551336,0.22989368,0.24478537,-0.33457854,0.18869577,0.43261188,0.37072846,0.20434633,0.5609692,0.6754601,0.1478501,0.40044576,0.8841926,0.5729204,-0.53909975,0.024196088,0.772558,792.96704,791.75824,807.0696,771.2088,684.17584,-0.2379150390625,0.1671142578125,0.95928955078125,1.398162841796875,-6.123504638671875,-3.401947021484375,1,1.0,1.0,1.0,1.0,85.00
2021-04-15 22:11:01.318,0.19602153,0.38610286,-0.23110999,0.40487862,0.16395155,0.21920578,-0.33226773,0.13928762,0.35478184,0.1750526,0.047565,0.4857153,0.69138926,0.09282113,0.37435767,0.8573901,0.53946656,-0.59664726,0.010421154,0.7284075,842.52747,803.8461,802.6374,601.5751,646.7033,-0.222412109375,0.13897705078125,0.95928955078125,4.9945068359375,-6.796417236328125,1.24114990234375,1,1.0,1.0,1.0,1.0,90.00
2021-04-15 22:11:01.822,-0.036507715,0.1988696,-0.35998675,0.26038972,0.24364004,0.2798594,-0.27882954,0.2613332,0.45962057,0.262712,0.15370701,0.52090454,0.69273925,0.09232995,0.3489909,0.8646029,0.3577406,-0.4292642,-0.09436268,0.5690115,661.6117,784.90845,823.1868,564.5055,733.73627,-0.2396240234375,0.14447021484375,0.96240234375,5.203857421875,-4.65057373046875,1.3458251953125,1,1.0,1.0,1.0,1.0,90.00
2021-04-15 22:11:02.090,,,,,,,,,,,,,,,,,,,,,,,,,,,,,,,,,,,,,,/muse/elements/blink
2021-04-15 22:11:02.333,-0.06374087,0.25681183,0.049347684,0.08296182,0.28515148,0.27499685,-0.05839069,0.29417443,0.42818248,0.23503837,0.37191096,0.38517365,0.6984133,0.059387963,0.36115912,0.91021335,0.27280042,-0.37589222,-0.14194639,0.46767327,751.4652,801.4286,817.1429,979.5238,996.8498,-0.23565673828125,0.14984130859375,0.96441650390625,4.314117431640625,-5.719757080078125,1.435546875,1,1.0,1.0,1.0,1.0,90.00
2021-04-15 22:11:02.851,0.014217336,0.314521,0.32681024,0.08068492,0.3780252,0.31841606,0.12578318,0.3921335,0.42818248,0.22930442,0.36963236,0.34481728,0.66776806,-0.041536283,0.29587364,0.9467417,0.2927053,-0.34406534,-0.0541755,0.48262954,755.09155,802.23444,828.022,917.8755,809.89014,-0.22442626953125,0.1446533203125,0.95660400390625,5.03936767578125,-6.362762451171875,1.009368896484375,1,1.0,1.0,1.0,1.0,90.00
2021-04-15 22:11:03.367,-0.020638965,0.21343246,0.36318803,0.14965685,0.3776223,0.24921387,0.10234525,0.37513658,0.42818248,0.25263435,0.33807823,0.34338105,0.6610942,0.010117115,0.26233348,0.9463393,0.30039635,-0.35281286,0.027230248,0.49360913,771.6117,794.17584,811.50183,677.326,686.99634,-0.218994140625,0.14935302734375,0.96673583984375,4.91973876953125,-5.99639892578125,0.994415283203125,1,1.0,1.0,1.0,1.0,90.00
2021-04-15 22:11:03.885,0.4561934,0.11887441,0.33897024,0.43262714,0.043614246,0.24335817,-0.06356377,0.37765715,0.61527354,0.19966988,0.37914705,0.408118,0.70401824,-0.020020524,0.2361694,0.9728505,0.4445306,-0.3912597,0.08108726,0.6610227,833.2601,790.14655,796.99634,614.87177,740.989,-0.20794677734375,0.15740966796875,0.97216796875,4.964599609375,-3.409423828125,2.594451904296875,1,1.0,1.0,1.0,1.0,90.00
2021-04-15 22:11:04.393,0.3679782,0.37712002,0.12710321,0.54310787,0.28621167,0.15159899,-0.40004182,0.397308,0.6484774,0.22472292,0.16283819,0.4284748,0.6690229,0.03070745,0.22041278,0.9335565,0.42180657,-0.36311018,0.089827515,0.6678623,756.7033,802.23444,825.2015,915.8608,839.707,-0.21966552734375,0.15325927734375,0.9676513671875,3.132781982421875,-3.7982177734375,4.80010986328125,1,1.0,1.0,1.0,1.0,90.00
2021-04-15 22:11:04.894,0.28942102,0.45339298,0.12346266,0.47461262,0.19397415,0.16346173,-0.34157264,0.27267274,0.59430385,0.20379815,0.1111913,0.34161872,0.70745987,0.04150795,0.24993466,0.9210978,0.36190918,-0.4504507,0.06528332,0.6188052,750.65936,801.8315,823.5897,994.0293,863.8828,-0.23699951171875,0.171630859375,0.94903564453125,12.620849609375,-3.790740966796875,3.66363525390625,1,1.0,1.0,1.0,1.0,90.00
2021-04-15 22:11:05.397,0.23004806,0.48864672,-0.11429871,0.4806341,0.16766913,0.07682711,-0.28587407,0.29424042,0.42274013,0.10824144,0.17656772,0.40183324,0.81570107,0.040596575,0.31530878,0.89170355,0.2755466,-0.433697,-0.016757071,0.5303721,830.84247,801.02563,796.99634,608.8278,640.2564,-0.2353515625,0.19879150390625,0.95391845703125,-9.82452392578125,-5.809478759765625,20.5462646484375,1,1.0,1.0,1.0,1.0,90.00
2021-04-15 22:11:05.900,0.31523845,0.47946408,-0.20236555,0.28233567,-0.11658204,0.06678722,-0.20584519,0.1762159,0.3542131,0.14878051,0.12968174,0.35980567,0.90390784,0.05869084,0.42789003,0.9056386,0.25965598,-0.5079453,-0.038767196,0.45252496,736.1539,791.75824,814.3223,803.8461,799.81683,-0.20977783203125,0.16339111328125,0.970703125,4.74029541015625,-4.687957763671875,-0.979461669921875,1,1.0,1.0,1.0,1.0,90.00
2021-04-15 22:11:06.412,0.4852765,0.59674704,-0.13789342,0.28843963,0.060989577,0.14924316,0.021934547,0.22296481,0.48146778,0.2172811,0.3337849,0.383078,0.8754208,0.017559195,0.4056315,0.86421746,0.3406315,-0.44545722,-0.032599807,0.5200434,821.1722,825.2015,782.0879,654.7619,603.1868,-0.21240234375,0.14892578125,0.9674072265625,5.30853271484375,-6.482391357421875,-3.66363525390625,1,1.0,1.0,1.0,1.0,90.00
2021-04-15 22:11:06.919,0.42817888,0.954197,0.5804023,0.57267016,0.2719208,0.58447254,0.30332595,0.48681384,0.7159839,0.43584695,0.42060247,0.78638357,0.82512575,0.07430832,0.38122752,0.8852353,0.31995955,-0.41227674,-0.022082923,0.4726706,840.5128,799.41394,788.93774,621.31866,738.97437,-0.20703125,0.14373779296875,0.971923828125,4.23187255859375,-4.11224365234375,-2.3028564453125,1,1.0,1.0,1.0,1.0,90.00
2021-04-15 22:11:07.435,0.42642653,1.041648,0.68178463,0.67043203,0.36546895,0.65425444,0.43834576,0.57695234,0.7159839,0.4641365,0.42721617,0.78638357,0.7603427,0.08506162,0.31697214,0.87366945,0.30405813,-0.3280272,-0.051536378,0.45357823,746.63007,807.8755,803.8461,803.0403,834.0659,-0.21661376953125,0.1318359375,0.96319580078125,4.5159912109375,-4.77020263671875,-0.34393310546875,1,1.0,1.0,1.0,1.0,90.00
2021-04-15 22:11:07.939,0.033124246,0.9964551,0.6991818,0.8706206,0.40558228,0.6080107,0.45008984,0.77263445,0.71300364,0.46185392,0.4060631,0.78638357,0.82067317,0.029925615,0.3269927,0.90367883,0.15087183,-0.3165207,0.0010081842,0.24792244,820.3663,798.60803,792.5641,693.44324,805.4579,-0.21630859375,0.13775634765625,0.96826171875,5.151519775390625,-4.02252197265625,1.727142333984375,1,1.0,1.0,1.0,1.0,90.00
2021-04-15 22:11:08.453,0.035741344,0.6637371,0.19588692,0.9457175,0.3978635,0.2273006,0.32190108,0.8368148,0.7046416,0.594654,0.3220141,0.78638357,0.82160425,-0.062217213,0.38542566,0.8831479,0.09451501,-0.3499376,0.02863354,0.19053052,782.49084,799.41394,811.0989,816.337,787.72894,-0.20391845703125,0.13067626953125,0.972900390625,4.329071044921875,-5.00946044921875,-1.09161376953125,1,1.0,1.0,1.0,1.0,90.00
2021-04-15 22:11:08.966,-0.010326724,0.06910832,0.20178571,0.031914867,0.03063145,-0.056074377,0.21426454,0.13439928,0.4225828,0.5059484,0.2593461,0.7725025,0.62965935,-0.1233926,0.40126726,0.9271028,0.05218751,-0.4037002,-0.0699136,0.26828462,817.9487,792.1612,810.293,592.71063,586.26373,-0.21539306640625,0.13665771484375,0.97125244140625,4.987030029296875,-4.80010986328125,1.786956787109375,1,1.0,1.0,1.0,1.0,90.00
2021-04-15 22:11:09.491,0.12934147,0.082675524,0.19299246,0.047745846,-0.0019062364,-0.115764365,0.07076642,0.30636927,0.43294016,0.48783994,0.28384808,0.78015643,0.63081014,-0.10750008,0.38329855,0.91246855,0.072848484,-0.43304607,-0.19828959,0.3456874,828.022,791.75824,791.75824,702.71063,873.1502,-0.22265625,0.13653564453125,0.971435546875,4.987030029296875,-4.4561767578125,2.01873779296875,1,1.0,1.0,1.0,1.0,90.00
2021-04-15 22:11:09.995,0.14823756,0.06413781,0.22407934,-0.072965756,-0.089736916,-0.10803647,-0.017476274,0.28926414,0.4434337,0.4940347,0.32825133,0.6528797,0.7143729,0.054357823,0.31280428,0.921162,0.18945749,-0.47312614,-0.30823934,0.3719848,731.31866,794.17584,814.7253,925.5311,954.94507,-0.21044921875,0.139892578125,0.96875,5.001983642578125,-4.53094482421875,1.256103515625,1,1.0,1.0,1.0,1.0,90.00
2021-04-15 22:11:10.502,0.045947317,0.07012621,0.027203405,-0.10645831,-0.033919983,-0.054834872,-0.1324724,0.2251924,0.30322725,0.31227756,0.35549104,0.4109961,0.75445753,0.11503704,0.40048224,0.9324116,0.20080338,-0.47375366,-0.22690943,0.42050415,747.4359,787.326,819.5604,940.4396,813.91943,-0.21905517578125,0.138671875,0.9752197265625,3.745880126953125,-2.699127197265625,0.35888671875,1,1.0,1.0,1.0,1.0,90.00
2021-04-15 22:11:11.009,0.18978281,0.1377624,-0.14385088,0.06602593,-0.096677,0.026267502,-0.10020696,0.2807248,0.3685483,0.37206376,0.38547716,0.64666367,0.76034045,0.12156047,0.5053752,0.9145537,0.1479244,-0.50426996,-0.1725042,0.39460468,820.7692,806.6667,801.8315,717.619,696.26373,-0.22100830078125,0.1153564453125,0.97027587890625,4.77020263671875,-3.013153076171875,1.622467041015625,1,1.0,1.0,1.0,1.0,90.00
2021-04-15 22:11:11.530,0.5581896,0.74628663,0.71906626,0.36129993,-0.029596599,0.66880447,0.14140241,0.4304396,0.3962711,0.7708923,0.5490576,0.64081144,0.6910159,0.031273916,0.5519398,0.88088334,0.18574084,-0.42028192,-0.0985522,0.37507215,836.8865,807.47253,805.4579,617.28937,648.71796,-0.2232666015625,0.137451171875,0.96636962890625,4.807586669921875,-2.729034423828125,-0.04486083984375,1,1.0,1.0,1.0,1.0,90.00
2021-04-15 22:11:12.055,0.7009936,0.820746,0.818997,0.49597248,0.02012891,0.7261997,0.20716631,0.58935463,0.44033635,0.75687164,0.5421299,0.64021987,0.6499187,-0.06535833,0.44928685,0.82245547,0.17498979,-0.45187417,-0.11245709,0.3672242,773.6264,790.14655,799.81683,777.6557,859.0476,-0.237548828125,0.12298583984375,0.968017578125,3.581390380859375,-5.18890380859375,-1.15142822265625,1,1.0,1.0,1.0,1.0,90.00
2021-04-15 22:11:12.559,0.6458074,0.7982845,0.80323666,0.32682356,0.15776959,0.6946295,0.1725212,0.43932587,0.60735625,0.75225174,0.47251463,0.43000335,0.62732923,0.0015484508,0.43480846,0.8476296,0.19009833,-0.4892087,-0.15523939,0.33634326,738.5714,790.54944,829.2308,975.09155,933.1868,-0.2425537109375,0.1141357421875,0.9639892578125,4.777679443359375,-3.33465576171875,0.3887939453125,1,1.0,1.0,1.0,1.0,90.00
2021-04-15 22:11:13.070,0.3740634,0.30642483,0.062355965,0.20677291,0.18301316,0.0645827,-0.21676843,0.3299097,0.63733894,0.37299845,0.33341804,0.45282277,0.67340165,0.015540157,0.4696212,0.83506465,0.11516089,-0.410502,-0.15920343,0.40209424,752.674,782.8938,815.5311,824.3956,697.47253,-0.24603271484375,0.1162109375,0.961181640625,5.196380615234375,-3.5589599609375,1.65985107421875,1,1.0,1.0,1.0,1.0,90.00
2021-04-15 22:11:13.585,0.09560856,0.20981187,-0.14958368,0.17046624,0.12468301,-0.053905554,-0.32665202,0.3187812,0.626118,0.39277706,0.21928605,0.45282277,0.7023954,0.052602872,0.49642998,0.8474573,0.14925495,-0.35939693,-0.19411837,0.40472233,844.94507,801.8315,789.7436,647.9121,675.31134,-0.2637939453125,0.2041015625,0.94781494140625,10.385284423828125,-1.338348388671875,4.852447509765625,1,1.0,1.0,1.0,1.0,90.00
2021-04-15 22:11:14.092,0.11227806,0.102416314,-0.18446578,0.21388115,0.2275556,0.0659626,-0.27291644,0.18687727,0.6854032,0.32899022,0.22432889,0.28400236,0.73972476,0.019024018,0.401115,0.8689038,0.11808168,-0.31927836,-0.19314878,0.37114388,806.6667,796.5934,800.6227,645.09155,665.64105,-0.2637939453125,0.1734619140625,0.94818115234375,3.63372802734375,-4.448699951171875,1.00189208984375,1,1.0,1.0,1.0,1.0,90.00
2021-04-15 22:11:14.618,0.081961334,0.31619403,-0.21468788,0.27489108,0.26553577,0.064198144,-0.20505063,0.22090714,0.6888981,0.33227864,0.25637984,0.14409596,0.75396705,0.02438745,0.34838173,0.9236058,0.16212523,-0.40644884,-0.20216149,0.4014122,755.4945,798.60803,829.6337,830.0366,737.3626,-0.2779541015625,0.146240234375,0.95867919921875,2.878570556640625,-7.454376220703125,-8.1048583984375,1,1.0,1.0,1.0,1.0,90.00
2021-04-15 22:11:15.142,0.22526,0.41915062,-0.27853867,0.383639,0.35828578,0.1685951,-0.23007804,0.3152079,0.68092585,0.2883273,0.25772947,0.28656974,0.7529493,0.018751169,0.36881536,0.8968368,0.24145415,-0.39992765,-0.14625473,0.4905723,776.8498,801.02563,806.6667,962.1978,964.21246,-0.2822265625,0.099365234375,0.94464111328125,7.82073974609375,-8.95721435546875,-0.216827392578125,1,1.0,1.0,1.0,1.0,90.00
2021-04-15 22:11:15.647,0.13707183,0.4745764,-0.17673276,0.40240628,0.31326216,0.09618895,-0.29823878,0.39197183,0.6254712,0.2590746,0.30196068,0.3531837,0.74170756,-0.0111383535,0.43431467,0.87901974,0.37482607,-0.35671434,-0.15452494,0.55832434,789.34064,792.96704,809.4872,739.3773,707.9487,-0.23907470703125,0.15008544921875,0.96759033203125,8.98712158203125,-4.224395751953125,-1.816864013671875,1,1.0,1.0,1.0,1.0,90.00
2021-04-15 22:11:16.156,0.28879416,0.39806327,-0.13082156,0.54973125,0.3027552,0.09045032,-0.33392292,0.5534476,0.5731205,0.3355836,0.32664245,0.63362825,0.6716301,-0.038175296,0.4390604,0.7713106,0.45879176,-0.34039018,-0.045226846,0.62416416,808.68134,785.31134,801.4286,593.1135,612.4542,-0.2550048828125,0.13275146484375,0.96295166015625,1.21124267578125,-5.24871826171875,2.833709716796875,1,1.0,1.0,1.0,1.0,90.00
2021-04-15 22:11:16.678,0.28879416,0.4663722,0.058212582,0.6654403,0.3027552,-0.0059983646,-0.053617813,0.64267886,0.5731205,0.108280644,0.26261485,0.6335869,0.6716301,-0.07791573,0.44059536,0.7732189,0.45879176,-0.36433396,0.023225104,0.6645312,770.80585,805.8608,801.02563,731.7216,857.8388,-0.22235107421875,0.0987548828125,0.96923828125,4.3963623046875,-7.230072021484375,-1.772003173828125,1,1.0,1.0,1.0,1.0,90.00
2021-04-15 22:11:17.181,0.28879416,0.5253173,0.2046963,0.62978137,0.3027552,0.04041437,0.1924015,0.667216,0.5731205,-0.02506257,0.25696012,0.61190397,0.6716301,-0.028460544,0.40978065,0.7733046,0.45879176,-0.44981182,0.0802579,0.7191656,733.3333,783.2967,826.4103,960.989,821.1722,-0.23724365234375,0.09747314453125,0.96514892578125,4.059906005859375,-0.635528564453125,-2.056121826171875,1,1.0,1.0,1.0,1.0,90.00
2021-04-15 22:11:17.712,0.28879416,0.65261686,0.32624802,0.83240926,0.3027552,0.16371503,0.21994549,0.70742595,0.5731205,-0.18769667,-0.032290053,0.72899795,0.6716301,0.09925808,0.41546762,0.8611427,0.45879176,-0.40293622,-0.0032940628,0.6784693,836.8865,820.7692,801.4286,618.49817,608.022,-0.248046875,0.11767578125,0.96466064453125,6.138458251953125,-5.749664306640625,2.803802490234375,1,1.0,1.0,1.0,1.0,90.00
2021-04-15 22:11:18.216,0.28879416,0.65261686,0.4381206,1.0942664,0.3027552,0.16371503,0.10570455,0.795682,0.5731205,-0.18769667,-0.011917711,0.827824,0.6716301,0.09925808,0.368983,0.9698739,0.45879176,-0.40293622,0.014110132,0.54518276,823.5897,803.44324,816.337,667.25275,635.0183,-0.27398681640625,0.158447265625,0.94891357421875,5.42816162109375,-0.530853271484375,4.284210205078125,1,1.0,1.0,1.0,1.0,90.00
2021-04-15 22:11:18.725,1.1251606,0.8646306,0.43662477,1.0730666,0.6627911,0.18256456,-0.051817223,0.7391426,0.52654094,0.57325375,0.055141978,0.9065499,0.67672086,0.13149776,0.321434,0.94078034,0.46703276,-0.41128296,0.035480812,0.5615385,718.022,801.02563,827.619,947.28937,870.32965,-0.26336669921875,0.14080810546875,0.9552001953125,6.392669677734375,-7.798309326171875,-1.27105712890625,1,1.0,1.0,1.0,1.0,90.00
2021-04-15 22:11:19.232,1.0164207,0.6708999,0.4632862,1.0473839,0.54290223,0.068719245,0.037615947,0.6792234,0.52654094,0.6378046,0.15853947,0.8367994,0.6530199,2.0768666E-6,0.3693511,0.93353695,0.5135784,-0.3509776,0.037958097,0.52877355,817.9487,795.78754,820.7692,933.9927,787.326,-0.22979736328125,0.16314697265625,0.96466064453125,3.790740966796875,-4.822540283203125,0.889739990234375,1,1.0,1.0,1.0,1.0,90.00
2021-04-15 22:11:19.269,,,,,,,,,,,,,,,,,,,,,,,,,,,,,,,,,,,,,,/muse/elements/blink
2021-04-15 22:11:19.750,0.9355373,0.5257685,0.47874072,0.87768,0.4887656,0.11071615,0.17072636,0.516529,0.34665942,0.6827874,0.45072836,0.7173546,0.58398867,0.1072472,0.40192518,0.85001814,0.52668643,-0.36736602,0.05977721,0.5941494,831.6484,818.3516,807.0696,680.54944,628.97437,-0.25408935546875,0.15338134765625,0.953857421875,4.702911376953125,-7.349700927734375,4.91973876953125,1,1.0,1.0,1.0,1.0,90.00
2021-04-15 22:11:20.253,0.78071237,0.13386686,0.41214776,0.4741937,0.26883748,0.09593432,0.16751336,0.3620596,0.14271262,0.48069564,0.45072836,0.36596435,0.5940725,0.09492952,0.44899797,0.8048105,0.57427937,-0.36814532,-0.033736717,0.60218525,821.978,804.2491,807.0696,619.304,639.0476,-0.23944091796875,0.14129638671875,0.96002197265625,4.149627685546875,-1.9140625,0.500946044921875,1,1.0,1.0,1.0,1.0,90.00
2021-04-15 22:11:20.770,0.78071237,0.28615078,0.34187117,0.4741937,0.26883748,0.22197771,0.12222149,0.3620596,0.14271262,0.39857945,0.44218192,0.36596435,0.5940725,0.11924538,0.46978906,0.8048105,0.57427937,-0.43728316,-0.05434887,0.60218525,817.1429,786.9231,799.011,908.20514,1062.5275,-0.24029541015625,0.1346435546875,0.96478271484375,4.42626953125,-4.44122314453125,-0.19439697265625,1,1.0,1.0,1.0,1.0,90.00
2021-04-15 22:11:20.804,,,,,,,,,,,,,,,,,,,,,,,,,,,,,,,,,,,,,,/muse/elements/blink
2021-04-15 22:11:21.295,0.78071237,0.50396335,0.16128622,0.4741937,0.26883748,0.41376853,0.07337847,0.3620596,0.14271262,0.4082336,0.18514499,0.36596435,0.5940725,-0.03853522,0.46735978,0.8048105,0.57427937,-0.39001206,-0.15946898,0.60218525,750.65936,798.60803,833.663,985.56775,884.0293,-0.240966796875,0.135986328125,0.958984375,4.493560791015625,-4.239349365234375,0.58319091796875,1,1.0,1.0,1.0,1.0,90.00
2021-04-15 22:11:21.825,0.78071237,0.45927235,0.22599393,0.4741937,0.26883748,0.37822062,0.08956486,0.3620596,0.14271262,0.466644,0.47859767,0.36596435,0.5940725,-0.09314577,0.4480422,0.8048105,0.57427937,-0.34976578,-0.015953287,0.60218525,794.57874,787.326,819.5604,791.3553,653.95605,-0.24639892578125,0.1392822265625,0.95513916015625,4.3365478515625,-5.345916748046875,1.9140625,1,2.0,1.0,1.0,2.0,85.00
2021-04-15 22:11:22.348,0.61001414,0.5273271,0.4179878,0.8646781,0.54856265,0.37836024,0.22280855,0.5212531,0.6307269,0.42225152,0.501114,1.0951889,0.6884728,-0.080214255,0.38854992,0.87876827,0.3767576,-0.27634233,0.015847433,0.62945074,843.73627,811.50183,790.9524,623.73627,611.6484,-0.25054931640625,0.1407470703125,0.9605712890625,4.673004150390625,-4.194488525390625,0.426177978515625,1,1.0,1.0,1.0,1.0,85.00
