TimeStamp,Delta_TP9,Delta_AF7,Delta_AF8,Delta_TP10,Theta_TP9,Theta_AF7,Theta_AF8,Theta_TP10,Alpha_TP9,Alpha_AF7,Alpha_AF8,Alpha_TP10,Beta_TP9,Beta_AF7,Beta_AF8,Beta_TP10,Gamma_TP9,Gamma_AF7,Gamma_AF8,Gamma_TP10,RAW_TP9,RAW_AF7,RAW_AF8,RAW_TP10,AUX_RIGHT,Accelerometer_X,Accelerometer_Y,Accelerometer_Z,Gyro_X,Gyro_Y,Gyro_Z,HeadBandOn,HSI_TP9,HSI_AF7,HSI_AF8,HSI_TP10,Battery,Elements
2021-04-09 09:53:51.966,0.24475342,0.32769442,-0.5992685,0.2744216,0.04079806,0.2742964,-0.4379302,-0.15100253,0.47040725,0.16981493,0.079184346,0.17865543,-0.068307206,-0.076692015,-0.23361559,-0.06635832,-0.37691456,-0.5391181,-0.556714,-0.23677285,722.8571,791.75824,799.81683,718.8278,868.315,0.01513671875,-0.09375,1.0006103515625,4.8150634765625,-3.372039794921875,1.39068603515625,1,2.0,1.0,1.0,2.0,65.00
2021-04-09 09:53:52.152,,,,,,,,,,,,,,,,,,,,,,,,,,,,,,,,,,,,,,/muse/elements/blink
2021-04-09 09:53:52.479,0.24475342,0.3479954,-0.4853042,0.2744216,0.04079806,0.267081,-0.56519717,-0.15100253,0.47040725,0.0772302,0.013838013,0.17865543,-0.068307206,-0.12814528,-0.18813987,-0.06635832,-0.37691456,-0.5698265,-0.59407973,-0.23677285,867.1062,819.5604,794.57874,871.53845,637.4359,0.01104736328125,-0.10333251953125,0.99285888671875,3.887939453125,-4.254302978515625,-0.142059326171875,1,2.0,1.0,1.0,2.0,65.00
2021-04-09 09:53:52.989,0.24475342,0.485262,-0.29869136,0.2744216,0.04079806,0.30487603,-0.256934,-0.15100253,0.47040725,0.3732099,0.13804998,0.17865543,-0.068307206,-0.09429303,-0.13702928,-0.06635832,-0.37691456,-0.55499643,-0.6829395,-0.23677285,785.7143,790.9524,799.81683,796.99634,689.011,0.02301025390625,-0.10455322265625,1.0010986328125,6.243133544921875,-6.50482177734375,0.755157470703125,1,2.0,1.0,1.0,2.0,65.00
2021-04-09 09:53:53.512,0.24475342,0.50335294,-0.11134309,0.2744216,0.04079806,0.21798092,-0.04170527,-0.15100253,0.47040725,0.460951,0.13330416,0.17865543,-0.068307206,-0.09933326,-0.08529286,-0.06635832,-0.37691456,-0.52949995,-0.6378977,-0.23677285,807.8755,790.54944,794.57874,809.89014,721.6484,0.02203369140625,-0.07574462890625,1.0023193359375,10.998382568359375,-1.39068603515625,9.31610107421875,1,2.0,1.0,1.0,2.0,65.00
2021-04-09 09:53:54.015,0.79016876,0.52263874,0.34905353,1.0591737,0.77413636,0.28547367,0.25036576,0.67465127,0.63701934,0.6343449,0.42531124,0.6928052,0.21501774,-0.050842606,0.042236842,0.24128884,-0.25374037,-0.5363224,-0.60328406,-0.17663069,828.8278,812.71063,800.6227,814.3223,807.8755,-0.01861572265625,0.01202392578125,0.97711181640625,11.476898193359375,3.536529541015625,9.757232666015625,1,2.0,1.0,1.0,2.0,65.00
2021-04-09 09:53:54.526,0.8837727,0.60892737,0.44871014,0.9224926,0.85562706,0.29744887,0.32301807,0.6259276,0.77231133,0.6192873,0.4260945,0.8250256,0.28324687,0.015014039,0.09582997,0.33304775,-0.31955492,-0.64205897,-0.5999707,-0.21292318,790.9524,804.2491,795.78754,798.20514,781.685,-0.06243896484375,0.07421875,0.98968505859375,6.02630615234375,-8.187103271484375,4.373931884765625,1,1.0,1.0,1.0,1.0,65.00
2021-04-09 09:53:54.798,,,,,,,,,,,,,,,,,,,,,,,,,,,,,,,,,,,,,,/muse/elements/blink
2021-04-09 09:53:55.047,0.8837727,0.7588174,0.46945664,0.9585657,0.85562706,0.3576327,0.2914965,0.6250922,0.77231133,0.6162695,0.3910125,0.86730313,0.28324687,0.049330335,0.09937862,0.32786557,-0.31955492,-0.67473245,-0.58483857,-0.2176873,776.4469,797.8022,801.02563,782.0879,634.61536,-0.05975341796875,0.11163330078125,0.99127197265625,0.740203857421875,-5.570220947265625,24.0155029296875,1,1.0,1.0,1.0,1.0,65.00
2021-04-09 09:53:55.559,0.94639575,0.7483052,0.3832347,0.87565476,0.91133755,0.2896299,0.13420586,0.588603,0.747612,0.59655964,0.17343436,0.80973536,0.3310307,0.04825328,0.07053361,0.3772741,-0.38048682,-0.547127,-0.59232765,-0.24738663,771.6117,793.36993,799.81683,786.52014,729.304,0.00384521484375,0.06793212890625,1.00006103515625,5.854339599609375,-10.39276123046875,-5.749664306640625,1,1.0,1.0,1.0,1.0,65.00
2021-04-09 09:53:56.071,0.95221615,0.5900495,0.24846047,0.8945367,0.8480643,0.21768364,-0.050394565,0.5089329,0.71018636,0.37723294,0.040289897,0.73617965,0.34016716,0.015036479,0.01800227,0.37611327,-0.3926455,-0.3432201,-0.49073023,-0.22927193,809.0842,803.44324,794.57874,795.78754,859.45056,0.0406494140625,0.09503173828125,1.00408935546875,4.14215087890625,-4.02252197265625,0.13458251953125,1,1.0,1.0,1.0,1.0,65.00
2021-04-09 09:53:56.575,0.95221615,0.06928003,0.16206506,0.5283352,0.8480643,0.06226247,-0.1609135,-0.051115625,0.71018636,0.29128915,0.06937288,0.09930975,0.34016716,-0.054914992,-0.006484003,0.4866692,-0.3926455,-0.28122848,-0.47256288,0.15128803,808.68134,801.4286,805.8608,796.99634,832.0513,0.04302978515625,0.080078125,1.007080078125,2.82623291015625,-4.78515625,1.383209228515625,1,1.0,1.0,1.0,1.0,65.00
2021-04-09 09:53:57.097,0.4452636,-0.21391019,-0.30530816,0.3966227,0.2813449,-0.14635085,-0.29607266,0.21702091,0.38979027,0.078337885,0.0037927562,0.39567256,0.49245462,-0.121525966,-0.060947314,0.59632516,0.034125905,-0.32762042,-0.41985038,0.15806024,801.4286,804.65204,799.81683,806.26373,813.91943,0.0579833984375,0.063720703125,1.01898193359375,4.08233642578125,-0.58319091796875,0.777587890625,1,1.0,1.0,1.0,1.0,65.00
2021-04-09 09:53:57.609,0.3088474,-0.2958716,-0.32494843,0.31166917,0.45096472,-0.08379759,-0.24857183,0.45796224,0.48337907,-0.004768156,0.050652012,0.5887082,0.4081196,-0.26295215,-0.0034057482,0.5832708,-0.039172046,-0.48446962,-0.4101426,0.17352735,780.87915,800.2198,794.9817,794.57874,658.3883,-0.0379638671875,0.03289794921875,0.99700927734375,2.026214599609375,6.80389404296875,-4.8748779296875,1,1.0,1.0,1.0,1.0,65.00
2021-04-09 09:53:58.129,0.33326986,-0.17466748,-0.12582248,0.33280343,0.7924752,0.15692312,-0.013182086,0.78576845,1.0032376,0.034393933,0.06005406,0.90873635,0.48212492,-0.31001782,0.07956089,0.6178632,-0.07642122,-0.5509667,-0.40261027,0.111833535,793.36993,787.72894,808.2784,792.1612,632.1978,-0.13568115234375,0.06884765625,0.995849609375,9.31610107421875,3.386993408203125,-6.02630615234375,1,1.0,1.0,1.0,1.0,65.00
2021-04-09 09:53:58.433,,,,,,,,,,,,,,,,,,,,,,,,,,,,,,,,,,,,,,/muse/elements/blink
2021-04-09 09:53:58.652,0.44964644,0.1366088,0.21056809,0.44669923,0.92612326,0.22492108,-0.007695278,0.90853244,1.0136235,0.037639335,0.057884533,0.90873635,0.480693,-0.15852927,0.11056432,0.58205634,-0.17952242,-0.5329029,-0.41757044,0.07562787,833.2601,804.65204,801.8315,825.2015,788.1319,-0.20599365234375,0.07647705078125,0.9697265625,7.16278076171875,1.652374267578125,-18.0340576171875,1,1.0,1.0,1.0,1.0,65.00
2021-04-09 09:53:59.158,0.6683039,0.30700895,0.39553186,0.673351,1.1075594,0.2079733,0.065180145,1.0677868,1.0124872,-0.08287183,-0.08150164,0.90873635,0.57912195,-0.06812595,0.12269563,0.6362928,-0.14706117,-0.52904457,-0.4566152,-0.07830698,819.15753,799.011,804.2491,809.0842,726.08057,-0.2982177734375,0.0897216796875,0.947509765625,5.30853271484375,6.452484130859375,-3.6785888671875,1,1.0,1.0,1.0,1.0,65.00
2021-04-09 09:53:59.665,0.7332327,0.7217242,0.46500054,0.7305368,1.1290122,0.37779018,0.08999935,1.10489,1.0124872,0.25307623,0.114713825,0.9068176,0.55307364,0.09867084,0.0981721,0.6592946,-0.15115339,-0.2693733,-0.31334648,-0.06152483,788.1319,807.0696,809.0842,795.78754,786.52014,-0.3592529296875,-0.05670166015625,0.9329833984375,1.57012939453125,-1.502838134765625,-3.581390380859375,1,1.0,1.0,1.0,1.0,65.00
2021-04-09 09:54:00.057,,,,,,,,,,,,,,,,,,,,,,,,,,,,,,,,,,,,,,/muse/elements/blink
2021-04-09 09:54:00.187,0.88832015,0.7385443,0.19860949,0.7731019,0.5510784,0.39537153,0.2910641,0.43705413,0.5303654,0.33627218,0.17060392,0.6687417,0.24175736,0.051537644,0.14079718,0.29250544,-0.4013556,-0.17435274,-0.21384057,-0.20807864,816.7399,810.293,804.65204,805.4579,865.09155,-0.3426513671875,0.06878662109375,0.9296875,5.24871826171875,3.252410888671875,3.768310546875,1,1.0,1.0,1.0,1.0,65.00
2021-04-09 09:54:00.712,1.2373483,0.7296814,0.3032519,0.96043915,1.1933955,0.38573954,0.19177172,0.74685615,0.928237,0.38471195,0.350551,0.85541135,0.50433826,0.094706744,0.18167645,0.36478356,-0.28733838,-0.24766088,-0.27788284,-0.2233284,796.1905,801.02563,804.65204,804.2491,678.93774,-0.36102294921875,0.0731201171875,0.89556884765625,15.2227783203125,4.493560791015625,1.45050048828125,1,1.0,1.0,1.0,1.0,65.00
2021-04-09 09:54:00.998,,,,,,,,,,,,,,,,,,,,,,,,,,,,,,,,,,,,,,/muse/elements/blink
2021-04-09 09:54:01.237,1.2373483,0.6182926,0.41522297,0.99332094,1.1933955,0.16854867,0.2764829,0.7480753,0.928237,0.36856267,0.51078486,0.7976821,0.50433826,0.044536337,0.21551034,0.37870046,-0.28733838,-0.32842606,-0.32550493,-0.24253121,835.2747,809.89014,801.8315,824.3956,916.26373,-0.423095703125,0.12432861328125,0.89971923828125,-0.979461669921875,-7.6263427734375,2.811279296875,1,1.0,1.0,1.0,1.0,65.00
2021-04-09 09:54:01.763,1.4077822,0.7219104,0.7852539,1.0603555,1.4080874,0.24856345,0.64312726,0.8569961,0.91726875,0.5664072,0.54755723,0.7261254,0.6356191,0.039039567,0.27664644,0.4185819,-0.19943447,-0.39713013,-0.38191628,-0.28123888,811.0989,805.8608,801.4286,812.71063,734.5421,-0.33367919921875,0.08001708984375,0.9376220703125,-0.336456298828125,-5.75714111328125,-5.345916748046875,1,1.0,1.0,1.0,1.0,65.00
2021-04-09 09:54:02.289,1.4188592,0.7336618,0.7885903,1.0603555,1.4098084,0.16298646,0.65575063,0.8569961,0.91726875,0.5298942,0.54557896,0.7261254,0.6236117,-0.056736,0.2202832,0.4185819,-0.17019883,-0.38461995,-0.32510945,-0.28123888,784.5055,807.0696,788.93774,787.72894,672.49084,-0.357666015625,0.070068359375,0.953857421875,-3.461761474609375,-0.441131591796875,0.037384033203125,1,1.0,1.0,1.0,1.0,65.00
2021-04-09 09:54:02.818,0.08001257,0.6804647,0.6830207,0.2472695,0.4881926,0.123815246,0.498167,0.13290806,0.31489828,0.52169424,0.3930748,0.35177678,0.1548226,-0.1088482,0.11319901,0.23516528,-0.44911203,-0.41264924,-0.35357088,-0.4271976,794.17584,794.9817,813.91943,794.17584,701.0989,-0.3172607421875,0.001220703125,0.94873046875,4.777679443359375,-10.64697265625,2.99072265625,1,1.0,1.0,1.0,1.0,65.00
2021-04-09 09:54:03.321,0.69560575,0.6637151,0.5640873,0.61645234,0.5816997,0.295451,0.2701064,0.13566573,0.7171087,0.58804405,0.2700484,0.5475308,0.29683593,-0.103162825,-0.017969582,0.28336486,-0.40705872,-0.48157436,-0.3286734,-0.24213795,796.5934,814.7253,788.5348,799.41394,688.20514,-0.34539794921875,-0.01153564453125,0.94091796875,2.788848876953125,-3.177642822265625,-1.57012939453125,1,1.0,1.0,1.0,1.0,65.00
2021-04-09 09:54:03.841,0.75428146,0.92156285,1.0789942,0.7624845,0.6154917,0.55802435,0.5894857,0.5129662,0.72089225,0.68771136,0.6351575,0.59037596,0.30741593,-0.012238533,0.041072827,0.32901266,-0.3563049,-0.5298328,-0.45318583,-0.20664571,794.57874,805.8608,802.23444,801.4286,728.0952,-0.31768798828125,-0.0545654296875,0.92608642578125,4.388885498046875,-5.12908935546875,1.891632080078125,1,1.0,1.0,1.0,1.0,65.00
2021-04-09 09:54:04.143,,,,,,,,,,,,,,,,,,,,,,,,,,,,,,,,,,,,,,/muse/elements/blink
2021-04-09 09:54:04.354,0.9579905,1.0183303,1.1903025,0.8944156,0.6856432,0.6842939,0.70381004,0.6168908,0.72089225,0.6964496,0.6351575,0.58862585,0.3934178,0.058971312,0.054451153,0.37617698,-0.295247,-0.47576588,-0.50466925,-0.12979367,821.5751,807.47253,801.8315,820.7692,863.47986,-0.3927001953125,-0.01812744140625,0.9224853515625,4.673004150390625,-3.611297607421875,2.093505859375,1,1.0,1.0,1.0,1.0,65.00
2021-04-09 09:54:04.864,1.03902,1.0106575,1.2615675,0.9399006,0.77824396,0.667077,0.81418097,0.83890283,0.70081687,0.6433754,0.64637774,0.47776866,0.4157796,4.7019654E-4,0.091508806,0.4138484,-0.19793472,-0.33679378,-0.49498776,-0.17243531,810.293,798.60803,807.47253,810.696,801.8315,-0.38739013671875,-0.0230712890625,0.92041015625,4.314117431640625,-3.626251220703125,0.8673095703125,1,1.0,1.0,1.0,1.0,65.00
2021-04-09 09:54:05.382,1.03902,0.7596424,0.89586294,0.96770966,0.77824396,0.47762194,0.61156005,0.889921,0.70081687,0.38688442,0.46698028,0.46799278,0.4157796,-0.10182372,0.06380337,0.42801285,-0.19793472,-0.37186357,-0.40823582,-0.17024082,799.41394,803.8461,798.60803,796.1905,779.67035,-0.35614013671875,-0.0146484375,0.932373046875,4.20196533203125,-7.31231689453125,1.443023681640625,1,1.0,1.0,1.0,1.0,65.00
2021-04-09 09:54:05.885,0.35878676,0.6392301,0.73900265,-0.028123356,0.43715528,0.3889061,0.5274329,0.16748469,0.6612848,0.17488235,0.37660816,0.3683345,0.18074971,-0.0735572,0.08730725,0.17813991,-0.37922037,-0.39715162,-0.3570989,-0.16776676,814.3223,810.696,807.47253,807.0696,909.011,-0.34320068359375,-0.029052734375,0.94256591796875,4.972076416015625,-6.048736572265625,0.426177978515625,1,1.0,1.0,1.0,1.0,65.00
2021-04-09 09:54:06.397,0.20786826,0.40209445,0.29701445,0.012897848,0.2461893,0.24253905,0.20449656,0.28996816,0.66559285,0.0788593,0.22370796,0.51707864,0.2732338,-0.06831347,0.08020364,0.22920586,-0.444662,-0.43409416,-0.39321274,-0.16916887,817.9487,817.9487,796.1905,801.02563,770.0,-0.32891845703125,-0.04486083984375,0.94964599609375,5.6524658203125,-1.383209228515625,-4.2767333984375,1,1.0,1.0,1.0,1.0,65.00
2021-04-09 09:54:06.898,0.5452478,0.77058,0.7718088,0.29587865,0.25657892,0.48654863,0.4356677,0.4120471,0.6660025,0.37175995,0.50370276,0.6911678,0.31111845,-0.0182111,0.13133611,0.20336826,-0.39591885,-0.3703035,-0.42892188,-0.10621461,790.14655,797.8022,804.65204,802.23444,745.82416,-0.3787841796875,-0.040283203125,0.92724609375,3.177642822265625,-5.93658447265625,4.23187255859375,1,1.0,1.0,1.0,1.0,65.00
2021-04-09 09:54:07.208,,,,,,,,,,,,,,,,,,,,,,,,,,,,,,,,,,,,,,/muse/elements/blink
2021-04-09 09:54:07.409,0.6151125,0.88890964,0.9660398,0.39724076,0.12710829,0.57728267,0.60613817,0.4967259,0.20236349,0.4299096,0.5850702,0.6911678,0.364066,-0.08911497,0.09962859,0.21545333,-0.40451518,-0.34549174,-0.46786126,-0.07842815,786.9231,798.20514,808.2784,799.81683,603.5897,-0.3729248046875,-0.0523681640625,0.94036865234375,4.747772216796875,-4.74029541015625,1.084136962890625,1,1.0,1.0,1.0,1.0,65.00
2021-04-09 09:54:07.920,0.8633719,0.9626262,1.1258821,0.58759475,0.27664098,0.6285716,0.76713574,0.58525956,0.04651231,0.44304287,0.60622036,0.65302885,0.3782162,-0.0978542,0.09233679,0.14656723,-0.31229722,-0.3882605,-0.518573,-0.0024512548,805.4579,807.0696,809.89014,799.011,776.8498,-0.36822509765625,-0.042724609375,0.93212890625,4.314117431640625,-3.5888671875,1.801910400390625,1,1.0,1.0,1.0,1.0,65.00
2021-04-09 09:54:08.438,0.9396275,0.73256534,0.95201355,0.64943415,0.32579523,0.41517106,0.6436569,0.62931776,0.03267255,0.3796041,0.4873975,0.6402357,0.38889042,-0.1441201,0.010740525,0.1472458,-0.30613488,-0.39120016,-0.49605027,0.012852278,825.6044,815.9341,800.2198,803.0403,823.5897,-0.3734130859375,-0.044677734375,0.92584228515625,4.3963623046875,-4.508514404296875,1.27105712890625,1,1.0,1.0,1.0,1.0,65.00
2021-04-09 09:54:08.939,0.22046745,0.4786664,0.7301488,0.30197892,0.2951735,0.22832076,0.43596998,0.47748584,0.3309602,0.35894182,0.39324823,0.36636153,0.041481733,-0.1643627,-0.05560915,0.03436389,-0.3873777,-0.38014373,-0.4568702,-0.09416168,810.696,802.23444,800.2198,796.1905,734.5421,-0.379150390625,-0.03558349609375,0.92987060546875,4.42626953125,-4.239349365234375,1.07666015625,1,1.0,1.0,1.0,1.0,65.00
2021-04-09 09:54:09.443,0.13252188,0.14726959,0.088379845,0.21986514,0.29503894,0.07759205,-0.15866043,0.45353216,0.39781046,0.055980682,0.20177595,0.52832913,0.014607433,-0.1691745,-0.055953793,0.06352902,-0.33928186,-0.3970865,-0.4297422,-0.19079193,794.9817,802.6374,797.8022,795.38464,666.8498,-0.37982177734375,-0.04052734375,0.93389892578125,4.9346923828125,-4.643096923828125,1.016845703125,1,1.0,1.0,1.0,1.0,65.00
2021-04-09 09:54:09.944,0.20202957,0.1024149,0.059306942,0.18868993,0.19481696,0.13179016,-0.2084481,0.33396852,0.45691973,0.26945433,0.19621219,0.5677741,0.04860595,-0.12040127,-0.10233862,0.04482756,-0.26447806,-0.4070865,-0.4813622,-0.287406,827.619,813.5165,796.5934,816.7399,817.1429,-0.375732421875,-0.0413818359375,0.92926025390625,4.90478515625,-4.059906005859375,1.0467529296875,1,1.0,1.0,1.0,1.0,65.00
2021-04-09 09:54:10.462,0.30306908,-0.02408689,-0.2086027,0.26380077,0.03156653,0.047288865,-0.29236546,0.15309022,0.4598171,0.2567222,0.16219565,0.5959295,0.16818912,-0.06584378,-0.016208833,0.1278362,-0.2134116,-0.4549639,-0.58854383,-0.36600196,828.8278,847.76556,767.1795,795.78754,724.4689,-0.37213134765625,-0.039794921875,0.928466796875,4.47113037109375,-4.9945068359375,-0.6878662109375,1,1.0,1.0,1.0,1.0,65.00
2021-04-09 09:54:10.969,0.7206866,0.6224406,0.581048,0.5827428,0.28744417,0.31215313,0.15031566,0.18895273,0.54858667,0.46414357,0.56083226,0.8242304,0.2514653,-0.0062363776,0.011327643,0.3028432,-0.26443446,-0.46996856,-0.6089958,-0.37978816,794.57874,799.81683,806.26373,802.6374,678.5348,-0.37493896484375,-0.037109375,0.93377685546875,4.598236083984375,-6.02630615234375,2.332763671875,1,1.0,1.0,1.0,1.0,65.00
2021-04-09 09:54:11.495,0.9154127,0.8672505,0.8100575,0.7116849,0.53087145,0.44321665,0.32127923,0.29327086,0.6570746,0.48646197,0.56279147,0.81968987,0.29304916,-0.009300237,0.0037322326,0.3497968,-0.33378735,-0.50427294,-0.5902446,-0.3529827,789.34064,816.7399,785.7143,782.49084,740.18317,-0.36663818359375,-0.03900146484375,0.9306640625,4.134674072265625,-4.56085205078125,0.485992431640625,1,1.0,1.0,1.0,1.0,65.00
2021-04-09 09:54:12.009,0.9058944,1.0125397,0.96531636,0.7415396,0.61094534,0.5873243,0.5303719,0.4082829,0.7822867,0.617288,0.5801887,0.8190377,0.26601124,0.089792095,-0.03862583,0.34314674,-0.37424356,-0.49852607,-0.5119512,-0.23995835,809.0842,811.9048,809.0842,805.4579,787.72894,-0.37420654296875,-0.04107666015625,0.93231201171875,4.882354736328125,-4.717864990234375,0.9271240234375,1,1.0,1.0,1.0,1.0,65.00
2021-04-09 09:54:12.517,0.7904968,0.98735964,0.9188848,0.6130567,0.6015869,0.52493525,0.5567137,0.44138643,0.7967277,0.61252505,0.4828603,0.44097725,0.20599912,0.06506123,-0.11293309,0.23102216,-0.35901985,-0.49432316,-0.5263848,-0.17862211,796.5934,790.9524,811.50183,793.36993,808.68134,-0.37298583984375,-0.04400634765625,0.92694091796875,4.05242919921875,-4.725341796875,1.263580322265625,1,1.0,1.0,1.0,1.0,65.00
2021-04-09 09:54:13.042,0.6630427,0.8560824,0.78848034,0.59030527,0.5691341,0.46842507,0.48754373,0.4886717,0.7893427,0.6014119,0.42300776,0.42908207,0.13449134,0.08262261,-0.082001396,0.2384544,-0.38771668,-0.5072997,-0.5259794,-0.15505208,786.52014,801.8315,800.6227,801.8315,663.6264,-0.38250732421875,-0.039306640625,0.9334716796875,4.628143310546875,-4.35150146484375,0.261688232421875,1,1.0,1.0,1.0,1.0,65.00
2021-04-09 09:54:13.554,0.71401215,0.7506599,0.63784504,0.6969516,0.5552078,0.36815485,0.31996864,0.4299117,0.7089862,0.51541024,0.38016537,0.33084583,0.06357204,-0.03612831,-0.0917768,0.23279324,-0.41716406,-0.5522349,-0.5627093,-0.23162988,769.59705,797.3993,803.8461,782.0879,681.3553,-0.3724365234375,-0.0389404296875,0.9327392578125,3.566436767578125,-4.23187255859375,-0.082244873046875,1,1.0,1.0,1.0,1.0,65.00
2021-04-09 09:54:14.056,0.6626619,0.57546353,0.51730347,0.72611403,0.5299289,0.33384722,0.050616253,0.3529291,0.565839,0.3648758,0.1983958,0.23251392,0.20890358,-0.012263866,-0.106469594,0.23154141,-0.31890517,-0.46572632,-0.4431772,-0.20606767,821.1722,799.011,803.0403,806.26373,823.5897,-0.3558349609375,-0.04901123046875,0.9364013671875,4.127197265625,-8.77777099609375,0.485992431640625,1,1.0,1.0,1.0,1.0,65.00
2021-04-09 09:54:14.572,0.41397142,0.44825017,0.47739995,0.6755911,0.4338142,0.19575427,-0.02129534,0.32829624,0.5305174,0.3329795,0.1744124,0.5043242,0.25327197,-0.00660912,-0.110101976,0.2513451,-0.3031806,-0.3791085,-0.3914416,-0.18611379,742.6007,802.23444,812.3077,736.9597,775.2381,-0.32867431640625,-0.0479736328125,0.95318603515625,4.007568359375,-5.046844482421875,0.291595458984375,1,1.0,1.0,1.0,1.0,65.00
2021-04-09 09:54:14.705,,,,,,,,,,,,,,,,,,,,,,,,,,,,,,,,,,,,,,/muse/elements/blink
2021-04-09 09:54:15.097,0.43116125,0.71895176,0.5819449,0.5265729,0.49266478,0.45682758,0.15527393,0.3808558,0.5305174,0.64292336,0.32787517,0.5043242,0.2731356,0.053728245,-0.10654371,0.27143988,-0.28343314,-0.30179703,-0.3554589,-0.1397803,782.49084,787.72894,814.7253,782.0879,801.8315,-0.3199462890625,-0.05792236328125,0.94281005859375,4.605712890625,-3.521575927734375,-1.4056396484375,1,1.0,1.0,1.0,1.0,65.00
2021-04-09 09:54:15.602,0.058994688,0.8334943,0.5642486,0.40563333,0.32814264,0.5332123,0.29529518,0.40096503,0.44557407,0.6350695,0.29407144,0.4923211,0.20454688,0.09593592,-0.09774307,0.31065556,-0.31685975,-0.30861092,-0.4648257,-0.18321756,774.43225,777.25275,809.4872,792.96704,698.2784,-0.3319091796875,-0.05474853515625,0.94677734375,4.88983154296875,-3.96270751953125,0.61309814453125,1,1.0,1.0,1.0,1.0,65.00
2021-04-09 09:54:16.106,0.058994688,1.1323562,0.71176636,0.40563333,0.32814264,0.8285522,0.5756578,0.40096503,0.44557407,0.69614846,0.3580559,0.4923211,0.20454688,0.047285236,0.07269436,0.31065556,-0.31685975,-0.411549,-0.59414536,-0.18321756,791.3553,802.6374,799.011,798.60803,690.6227,-0.33447265625,-0.04754638671875,0.94219970703125,4.42626953125,-3.985137939453125,0.2691650390625,1,1.0,1.0,1.0,1.0,65.00
2021-04-09 09:54:16.614,0.84471804,0.87081563,0.57646054,0.3996683,0.7401409,0.5405413,0.37613508,0.4963039,0.9210435,0.43791652,0.36165234,0.7543155,0.122810766,-0.021197475,0.080303155,0.2527788,-0.37684152,-0.6288545,-0.7096827,-0.26775685,803.8461,794.17584,801.02563,801.4286,989.59705,-0.33770751953125,-0.04736328125,0.941162109375,4.94964599609375,-4.246826171875,0.76263427734375,1,1.0,1.0,1.0,1.0,65.00
2021-04-09 09:54:17.133,1.0819616,1.0070739,0.73708487,0.56985205,0.64739656,0.6391511,0.46661165,0.45193064,0.9210435,0.47080162,0.55252177,0.75613886,0.044995155,-0.043614473,0.067598484,0.23270659,-0.48834074,-0.5643222,-0.70704764,-0.23041856,700.696,757.1062,838.0952,736.55676,720.4396,-0.341064453125,-0.04193115234375,0.94610595703125,4.508514404296875,-4.11224365234375,1.21124267578125,1,1.0,1.0,1.0,1.0,65.00
2021-04-09 09:54:17.322,,,,,,,,,,,,,,,,,,,,,,,,,,,,,,,,,,,,,,/muse/elements/blink
2021-04-09 09:54:17.648,1.0953221,1.0938754,0.8340366,0.86117023,0.58439136,0.7749212,0.5521628,0.87076753,0.8200004,0.60781306,0.6687535,1.228566,0.009989357,-0.002690535,-0.02167658,0.3552141,-0.48762715,-0.5630278,-0.6143825,-0.18058862,784.10254,805.05493,801.8315,796.1905,618.0952,-0.3404541015625,-0.048828125,0.93951416015625,4.314117431640625,-4.104766845703125,0.665435791015625,1,1.0,1.0,1.0,1.0,65.00
2021-04-09 09:54:18.157,1.3216536,1.2353873,0.9259005,1.4031379,0.4133495,0.8883795,0.6385408,1.4951031,0.38827634,0.6530242,0.6372727,1.2588389,-0.13770854,-0.053926185,-0.045999683,0.6372535,-0.8001279,-0.5827402,-0.36710486,-0.11248803,796.5934,809.4872,805.8608,794.9817,764.7619,-0.337646484375,-0.05035400390625,0.9398193359375,4.628143310546875,-4.643096923828125,1.547698974609375,1,1.0,1.0,1.0,1.0,65.00
2021-04-09 09:54:18.425,,,,,,,,,,,,,,,,,,,,,,,,,,,,,,,,,,,,,,/muse/elements/blink
2021-04-09 09:54:18.679,1.3216536,1.1102561,0.8974632,1.4752332,0.4133495,0.7999585,0.6585211,1.5884551,0.38827634,0.6479348,0.5840586,1.2588389,-0.13770854,-0.09676583,-0.0406936,0.7056961,-0.8001279,-0.6621761,-0.24836166,-0.114884436,821.1722,897.326,784.10254,807.0696,747.4359,-0.3326416015625,-0.03094482421875,0.95159912109375,11.372222900390625,-6.332855224609375,9.55535888671875,1,1.0,1.0,1.0,1.0,65.00
2021-04-09 09:54:19.205,1.3216536,0.9039551,0.81395084,1.4752332,0.4133495,0.5007566,0.5228748,1.5884551,0.38827634,0.48826867,0.43728024,1.2588389,-0.13770854,-0.1972431,0.030321667,0.7056961,-0.8001279,-0.6864229,-0.19373164,-0.114884436,813.91943,1056.8865,790.14655,807.0696,684.57874,-0.293212890625,0.1051025390625,0.96856689453125,10.3179931640625,-6.781463623046875,3.09539794921875,1,1.0,1.0,1.0,1.0,65.00
2021-04-09 09:54:19.717,1.3216536,0.3099107,0.8145624,1.4752332,0.4133495,0.21258946,0.6260685,1.5884551,0.38827634,0.23138419,0.2691062,1.2588389,-0.13770854,-0.2428207,0.033736326,0.7056961,-0.8001279,-0.68294084,-0.19558519,-0.114884436,838.0952,724.4689,791.75824,799.81683,929.15753,-0.20025634765625,0.09356689453125,0.99298095703125,7.40203857421875,-12.269439697265625,-10.96099853515625,1,1.0,1.0,1.0,1.0,65.00
2021-04-09 09:54:20.224,1.3216536,0.3099107,0.8145624,1.4752332,0.4133495,0.21258946,0.6260685,1.5884551,0.38827634,0.23138419,0.2691062,1.2588389,-0.13770854,-0.2428207,0.033736326,0.7056961,-0.8001279,-0.68294084,-0.19558519,-0.114884436,788.1319,835.2747,793.7729,804.2491,546.3736,-0.17120361328125,0.0419921875,0.99053955078125,4.486083984375,0.411224365234375,-4.8748779296875,1,2.0,4.0,1.0,2.0,65.00
2021-04-09 09:54:20.751,1.3216536,0.3099107,0.8145624,1.4752332,0.4133495,0.21258946,0.6260685,1.5884551,0.38827634,0.23138419,0.2691062,1.2588389,-0.13770854,-0.2428207,0.033736326,0.7056961,-0.8001279,-0.68294084,-0.19558519,-0.114884436,836.08057,940.4396,798.60803,807.47253,1012.96704,-0.24981689453125,0.00244140625,0.950927734375,4.942169189453125,3.297271728515625,10.998382568359375,1,2.0,1.0,1.0,2.0,65.00
2021-04-09 09:54:21.279,1.3216536,0.3099107,0.8145624,1.4752332,0.4133495,0.21258946,0.6260685,1.5884551,0.38827634,0.23138419,0.2691062,1.2588389,-0.13770854,-0.2428207,0.033736326,0.7056961,-0.8001279,-0.68294084,-0.19558519,-0.114884436,845.34796,845.34796,807.47253,808.2784,982.3443,-0.3873291015625,-0.0927734375,0.933837890625,0.590667724609375,-0.964508056640625,-1.45050048828125,1,2.0,1.0,1.0,2.0,65.00
2021-04-09 09:54:21.387,,,,,,,,,,,,,,,,,,,,,,,,,,,,,,,,,,,,,,/muse/elements/blink
2021-04-09 09:54:21.783,1.3216536,0.3099107,0.7132411,0.98528826,0.4133495,0.21258946,0.08660508,0.7671544,0.38827634,0.23138419,0.20991778,0.9394318,-0.13770854,-0.2428207,0.026186083,0.44247594,-0.8001279,-0.68294084,-0.40165204,0.13918327,786.1172,821.1722,786.52014,796.1905,599.5604,-0.32440185546875,0.06390380859375,0.95330810546875,7.177734375,-3.78326416015625,9.76470947265625,1,1.0,1.0,1.0,1.0,65.00
2021-04-09 09:54:22.298,0.9352739,0.3099107,0.86334753,0.8822301,0.7690536,0.21258946,0.31600323,0.7003104,0.978766,0.23138419,0.29335806,0.9521318,0.3514825,-0.2428207,0.051761836,0.3549201,-0.18350978,-0.68294084,-0.3784955,0.028520847,842.1245,814.7253,796.5934,822.7839,868.315,-0.35400390625,0.01507568359375,0.9488525390625,6.02630615234375,-6.7889404296875,-4.85992431640625,1,1.0,1.0,1.0,1.0,65.00
2021-04-09 09:54:22.806,0.8498642,0.8104685,0.8346161,0.8615505,0.6806462,0.21077414,0.2991619,0.684259,0.978766,0.17493992,0.37721282,0.9521318,0.30779678,-0.053441625,0.05735482,0.3209661,-0.2270933,-0.52732563,-0.43894303,-0.10624442,784.90845,788.93774,805.4579,800.2198,765.56775,-0.34246826171875,0.0198974609375,0.94183349609375,9.323577880859375,-6.98333740234375,-1.2860107421875,1,1.0,1.0,1.0,1.0,65.00
2021-04-09 09:54:22.917,,,,,,,,,,,,,,,,,,,,,,,,,,,,,,,,,,,,,,/muse/elements/blink
2021-04-09 09:54:23.309,0.6829696,0.9184441,0.77834255,0.64102817,0.5915484,0.28390583,0.32765353,0.5146333,0.9172574,0.29736087,0.3837437,0.8596867,0.27706647,-0.113153994,0.086182594,0.2410454,-0.25904837,-0.5790621,-0.48779657,-0.21710663,877.5824,817.1429,807.47253,815.9341,971.4652,-0.35321044921875,0.01434326171875,0.94635009765625,5.93658447265625,-4.42626953125,-3.6187744140625,1,1.0,1.0,1.0,1.0,65.00
2021-04-09 09:54:23.720,,,,,,,,,,,,,,,,,,,,,,,,,,,,,,,,,,,,,,/muse/elements/blink
2021-04-09 09:54:23.817,0.39027354,0.8362213,0.46878856,0.55097836,0.27147785,0.24645376,0.041236088,0.3045871,0.49380806,0.32465795,0.25521633,0.5398396,0.17690991,-0.13040209,0.05301104,0.27317393,-0.35736606,-0.5173312,-0.547664,-0.36741546,834.87177,804.2491,800.2198,810.696,905.38464,-0.38238525390625,0.0577392578125,0.92559814453125,9.084320068359375,-4.59075927734375,2.9010009765625,1,1.0,1.0,1.0,1.0,65.00
2021-04-09 09:54:24.329,0.39027354,0.8069013,0.14033128,0.55097836,0.27147785,0.41697788,-0.035715457,0.3045871,0.49380806,0.3790353,0.25127426,0.5398396,0.17690991,-0.077778675,0.009347568,0.27317393,-0.35736606,-0.46864936,-0.5131672,-0.36741546,756.7033,798.60803,797.3993,780.87915,522.6007,-0.36334228515625,0.0931396484375,0.92718505859375,5.8319091796875,-6.77398681640625,3.132781982421875,1,1.0,1.0,1.0,1.0,65.00
2021-04-09 09:54:24.845,0.39027354,0.53863114,0.04184989,0.55097836,0.27147785,0.38797042,-0.25457698,0.3045871,0.49380806,0.35523993,0.047213983,0.5398396,0.17690991,-0.0099046035,-0.05510902,0.27317393,-0.35736606,-0.45425263,-0.52745503,-0.36741546,746.63007,795.38464,795.78754,778.0586,580.6227,-0.3553466796875,0.086669921875,0.939697265625,5.286102294921875,-5.196380615234375,2.235565185546875,1,1.0,1.0,1.0,1.0,65.00
2021-04-09 09:54:25.251,,,,,,,,,,,,,,,,,,,,,,,,,,,,,,,,,,,,,,/muse/elements/blink
2021-04-09 09:54:25.354,0.50771916,0.5210149,0.6202339,1.0350016,0.22641592,0.42664924,0.07067912,0.43555015,0.13094118,0.35532346,0.38301167,0.64477414,0.30038643,0.041004013,0.0647104,0.24788693,-0.22313277,-0.46692374,-0.6552734,-0.42754403,848.5714,815.12823,795.38464,838.9011,884.43225,-0.322509765625,0.11077880859375,0.95684814453125,1.973876953125,-9.64508056640625,-1.084136962890625,1,1.0,1.0,1.0,1.0,65.00
2021-04-09 09:54:25.867,0.50771916,0.48224428,0.8097797,1.0350016,0.22641592,0.26618615,0.38963038,0.43555015,0.13094118,0.34410262,0.40991944,0.64477414,0.30038643,-0.0015138864,0.12077463,0.24788693,-0.22313277,-0.49488917,-0.532051,-0.42754403,865.4945,810.293,794.57874,813.91943,946.8865,-0.32293701171875,0.077880859375,0.93994140625,6.138458251953125,-3.686065673828125,0.2691650390625,1,1.0,1.0,1.0,1.0,65.00
2021-04-09 09:54:26.387,0.50771916,0.5231884,0.7842711,1.0350016,0.22641592,0.21452954,0.4007832,0.43555015,0.13094118,0.35032535,0.40991944,0.64477414,0.30038643,0.009464117,0.15552859,0.24788693,-0.22313277,-0.48519963,-0.43137336,-0.42754403,758.315,795.78754,794.9817,791.75824,600.7692,-0.37481689453125,0.061767578125,0.944091796875,2.400054931640625,-3.1402587890625,3.887939453125,1,1.0,1.0,1.0,1.0,65.00
2021-04-09 09:54:26.898,0.50771916,0.37850392,0.49843654,1.0350016,0.22641592,0.0060867285,0.31852517,0.43555015,0.13094118,0.31286693,0.2532392,0.64477414,0.30038643,-0.04432904,0.14921309,0.24788693,-0.22313277,-0.4195612,-0.35833973,-0.42754403,820.7692,798.60803,801.8315,809.4872,902.5641,-0.337158203125,0.05859375,0.94775390625,4.523468017578125,-2.205657958984375,-0.2691650390625,1,1.0,1.0,1.0,1.0,65.00
2021-04-09 09:54:27.424,0.55207014,0.1902455,-0.26380438,0.3926851,0.39606014,-0.19620255,-0.24899353,-0.055730876,0.5433056,0.23109017,0.26237276,0.3480306,0.19953401,-0.07276992,0.14988467,0.22768837,-0.43970606,-0.34749407,-0.3342707,-0.3143314,771.6117,800.2198,796.99634,796.5934,673.69965,-0.37432861328125,0.1136474609375,0.93701171875,3.461761474609375,-11.34979248046875,-2.923431396484375,1,1.0,1.0,1.0,1.0,65.00
2021-04-09 09:54:27.946,1.0178244,0.8468632,0.3540151,0.56908065,0.6433695,0.27554342,0.043624938,0.110354215,0.6380727,0.18177761,0.37511283,0.355677,0.1967567,-0.1441859,0.15460591,0.27636546,-0.33019096,-0.27959278,-0.27131405,-0.18775639,829.6337,801.02563,805.4579,813.91943,1116.5201,-0.351318359375,-0.02001953125,0.95068359375,-0.7177734375,-15.589141845703125,-4.68048095703125,1,1.0,1.0,1.0,1.0,65.00
2021-04-09 09:54:28.450,1.0321438,0.9835175,0.6439668,0.6230803,0.65199006,0.3771666,0.22000185,0.19633465,0.63561445,0.33473295,0.45641017,0.5393911,0.19486198,-0.081753485,0.07443819,0.2531833,-0.18750136,-0.31958583,-0.26382235,-0.2559148,840.5128,810.696,799.011,812.3077,945.2747,-0.27923583984375,0.033447265625,0.96783447265625,5.802001953125,-5.704803466796875,5.1739501953125,1,1.0,1.0,1.0,1.0,65.00
2021-04-09 09:54:28.964,1.0415175,1.0328797,0.7555987,0.54086214,0.6570652,0.5042457,0.37338018,0.30608898,0.67256075,0.33524022,0.45873606,0.7458639,0.19654933,0.05537708,0.09811799,0.21749704,-0.16270359,-0.38115698,-0.296006,-0.172201,778.46155,803.44324,800.6227,789.34064,592.71063,-0.234375,-0.03485107421875,0.9749755859375,0.829925537109375,-10.587158203125,2.58697509765625,1,1.0,1.0,1.0,1.0,65.00
2021-04-09 09:54:29.481,0.74833167,0.8247895,0.70841277,0.34780964,0.6326534,0.39578632,0.3485331,0.33897573,0.96410954,0.5691504,0.6359199,0.80205595,0.21880117,0.06793226,0.14639118,0.20873553,-0.15255736,-0.4373417,-0.3267096,-0.22523725,849.3773,810.293,805.4579,821.1722,1095.5677,-0.2388916015625,-0.04669189453125,0.96685791015625,3.2000732421875,-4.246826171875,1.3458251953125,1,1.0,1.0,1.0,1.0,65.00
2021-04-09 09:54:29.983,0.92572194,0.94526625,0.7594404,0.40660316,0.8036766,0.4932753,0.46243995,0.45890045,1.0388422,0.59267265,0.6788667,0.8080581,0.25825295,0.07885168,0.19849978,0.2779822,-0.18692335,-0.43551978,-0.28122523,-0.13233542,836.8865,813.91943,790.9524,804.2491,886.4469,-0.2269287109375,-0.05230712890625,0.98028564453125,3.955230712890625,-5.45806884765625,6.98333740234375,1,1.0,1.0,1.0,1.0,65.00
2021-04-09 09:54:30.515,1.0416812,1.0309278,0.8486502,0.545606,0.95956933,0.48413676,0.4611127,0.53888416,1.0369658,0.65437347,0.6830755,0.6835957,0.29323354,0.0103738485,0.23002085,0.3255663,-0.11628383,-0.34310386,-0.25002462,-0.13421868,845.7509,796.1905,809.4872,816.7399,1034.7252,-0.2401123046875,-0.05303955078125,0.9744873046875,4.1571044921875,-5.211334228515625,1.054229736328125,1,1.0,1.0,1.0,1.0,65.00
2021-04-09 09:54:31.039,1.248134,1.0487217,0.8239457,0.7352851,1.1184366,0.49210438,0.42174357,0.7097026,1.0296142,0.6918245,0.6912872,0.5852823,0.3503069,0.0039556585,0.20609452,0.3015824,-0.08343411,-0.3541863,-0.34100482,-0.12728871,818.3516,812.71063,800.6227,805.05493,833.2601,-0.23748779296875,-0.053955078125,0.977294921875,3.648681640625,-4.254302978515625,2.444915771484375,1,1.0,1.0,1.0,1.0,65.00
2021-04-09 09:54:31.551,0.826412,0.8991969,0.668752,0.53211176,0.48551232,0.38247418,0.17929563,0.66340715,0.7250582,0.6021242,0.5102162,0.50848347,0.38095784,-0.0174478,0.20598759,0.25068203,-0.33133218,-0.27126244,-0.30526632,-0.109296,747.4359,809.4872,791.75824,767.1795,464.57877,-0.247802734375,-0.0587158203125,0.9808349609375,5.121612548828125,-4.35150146484375,1.039276123046875,1,1.0,1.0,1.0,1.0,65.00
2021-04-09 09:54:32.059,1.1582456,0.9370586,0.4976465,0.79172426,0.44037828,0.37790456,0.20466077,0.70196825,0.7250582,0.5198097,0.3704039,0.6451715,0.22614022,0.010127819,0.1580481,0.26102513,-0.4147063,-0.29909942,-0.27842718,-0.21006316,764.35895,793.36993,804.2491,788.1319,896.9231,-0.24920654296875,-0.068359375,0.96917724609375,4.7552490234375,-4.53094482421875,0.2691650390625,1,1.0,1.0,1.0,1.0,65.00
2021-04-09 09:54:32.582,1.0452374,0.80362254,0.37076965,0.70051557,0.43234515,0.17849888,0.15861264,0.6672845,0.726796,0.44008386,0.31395194,0.6973716,0.2466389,0.0017950004,0.07321473,0.27990314,-0.40197733,-0.29777113,-0.3197982,-0.2784643,836.08057,807.0696,799.81683,804.2491,943.663,-0.257568359375,-0.056640625,0.9727783203125,4.673004150390625,-3.745880126953125,0.179443359375,1,1.0,1.0,1.0,1.0,65.00
2021-04-09 09:54:33.068,,,,,,,,,,,,,,,,,,,,,,,,,,,,,,,,,,,,,,/muse/elements/blink
2021-04-09 09:54:33.094,1.0991378,0.7367122,0.37832883,0.7643213,0.56815517,0.15842606,0.22646098,0.6918644,0.47526428,0.32010734,0.31598803,0.68671966,0.24705109,-0.02853112,-0.035286736,0.31853315,-0.41153967,-0.42256206,-0.5265838,-0.389717,931.1722,814.3223,793.7729,892.49084,957.3626,-0.26666259765625,-0.06488037109375,0.962158203125,4.9945068359375,-6.646881103515625,-2.878570556640625,1,1.0,1.0,1.0,1.0,65.00
2021-04-09 09:54:33.597,0.8663277,0.82894164,0.4846259,0.6086063,0.6200703,0.60187006,0.2692904,0.66778123,0.47526428,0.50371146,0.19181581,0.63963044,0.3227678,-0.15308784,-0.13729998,0.3463949,-0.3750466,-0.38937512,-0.60339314,-0.42381173,768.3883,798.60803,800.6227,788.1319,635.0183,-0.253662109375,-0.06378173828125,0.97259521484375,4.78515625,-4.53094482421875,5.084228515625,1,1.0,1.0,1.0,1.0,65.00
2021-04-09 09:54:34.115,0.7206771,0.8657916,0.6053083,0.5563046,0.7721625,0.65266675,0.35575938,0.59057784,0.46285594,0.50553876,0.23418447,0.44392413,0.4274823,-0.20735033,-0.1499191,0.34062847,-0.24689397,-0.2915319,-0.5345671,-0.4361161,834.4689,807.0696,806.6667,818.3516,978.315,-0.25665283203125,-0.05609130859375,0.96722412109375,3.566436767578125,-5.435638427734375,8.710479736328125,1,1.0,1.0,1.0,1.0,65.00
2021-04-09 09:54:34.641,0.7206771,0.84977853,0.4844383,-0.33063054,0.7721625,0.63571984,0.20044237,0.22896451,0.46285594,0.52522403,0.2873722,0.26361004,0.4274823,-0.1938098,0.055712283,0.17216678,-0.24689397,-0.23666419,-0.23698285,-0.113578394,796.1905,810.293,803.8461,809.4872,815.12823,-0.248291015625,-0.05511474609375,0.96685791015625,4.306640625,-4.85992431640625,1.786956787109375,1,1.0,1.0,1.0,1.0,65.00
2021-04-09 09:54:35.169,-0.37313926,0.17587656,0.025956728,0.198493,-0.09029873,-0.12123613,-0.5028409,0.21763544,0.27419996,0.24560218,0.27571905,0.3512445,0.12834409,0.023249898,0.062308952,0.10728251,-0.25639376,-0.31281617,-0.32480335,-0.1855091,861.8681,817.1429,799.41394,827.2161,1100.0,-0.245361328125,-0.0579833984375,0.97344970703125,4.59075927734375,-5.00946044921875,2.145843505859375,1,1.0,1.0,1.0,1.0,65.00
2021-04-09 09:54:35.671,0.35974354,0.34201494,0.2473776,0.50616384,0.11985756,-0.07292117,-0.32099,0.2737605,0.68874115,0.26542324,0.26800108,0.59299815,0.16709027,0.11331536,0.11547251,0.14295122,-0.26122686,-0.48978868,-0.2852921,-0.17648415,837.6923,811.0989,798.60803,819.5604,829.2308,-0.24560546875,-0.044921875,0.96954345703125,4.777679443359375,-5.42816162109375,0.112152099609375,1,1.0,1.0,1.0,1.0,65.00
2021-04-09 09:54:35.688,,,,,,,,,,,,,,,,,,,,,,,,,,,,,,,,,,,,,,/muse/elements/blink
2021-04-09 09:54:36.186,0.57173073,0.7100875,0.47949436,0.66064644,0.18295276,0.17186375,-0.17415017,0.29453707,0.681063,0.38472226,0.12327759,0.5832972,0.1691813,0.15303548,0.07899499,0.12757176,-0.32796672,-0.5779504,-0.31623733,-0.2117206,828.4249,808.68134,782.0879,851.79486,601.1722,-0.24774169921875,-0.0506591796875,0.9703369140625,4.6356201171875,-4.418792724609375,1.054229736328125,1,1.0,1.0,1.0,1.0,65.00
2021-04-09 09:54:36.316,,,,,,,,,,,,,,,,,,,,,,,,,,,,,,,,,,,,,,/muse/elements/blink
2021-04-09 09:54:36.713,0.57173073,1.0566639,1.0225855,0.8575627,0.18295276,0.4867985,0.6765185,0.39554805,0.681063,0.4197372,0.23572297,0.5027363,0.1691813,0.07077096,0.06793386,0.19057973,-0.32796672,-0.5248027,-0.24624063,-0.1973213,755.89746,800.2198,794.57874,793.7729,629.3773,-0.24786376953125,-0.05462646484375,0.9674072265625,4.702911376953125,-4.4561767578125,0.8673095703125,1,1.0,1.0,1.0,1.0,65.00
2021-04-09 09:54:37.214,0.57173073,1.1036514,1.1624824,0.8575627,0.18295276,0.5569905,0.84910804,0.39554805,0.681063,0.49533117,0.23858544,0.5027363,0.1691813,-0.030298125,-0.007321106,0.19057973,-0.32796672,-0.42782238,-0.2755784,-0.1973213,786.9231,796.5934,800.2198,764.35895,920.696,-0.24725341796875,-0.0474853515625,0.97100830078125,4.613189697265625,-3.87298583984375,0.3887939453125,1,1.0,1.0,1.0,1.0,65.00
2021-04-09 09:54:37.355,,,,,,,,,,,,,,,,,,,,,,,,,,,,,,,,,,,,,,/muse/elements/blink
2021-04-09 09:54:37.719,0.57173073,1.2108177,1.3000249,0.8575627,0.18295276,0.75326186,1.0454726,0.39554805,0.681063,0.48944715,0.3043707,0.5027363,0.1691813,-0.18215168,0.0016806414,0.19057973,-0.32796672,-0.33854997,-0.37727222,-0.1973213,867.1062,810.293,797.3993,826.4103,1055.2748,-0.257568359375,-0.04559326171875,0.9686279296875,4.074859619140625,-4.7552490234375,3.237457275390625,1,1.0,1.0,1.0,1.0,65.00
2021-04-09 09:54:38.241,0.57173073,1.2495594,1.217987,0.8575627,0.18295276,0.8294734,0.9977607,0.39554805,0.681063,0.44123244,0.27377167,0.5027363,0.1691813,-0.25218496,0.006317254,0.19057973,-0.32796672,-0.3214957,-0.509047,-0.1973213,750.2564,797.8022,800.2198,797.3993,523.4066,-0.25146484375,-0.0494384765625,0.9659423828125,3.895416259765625,-5.151519775390625,1.951446533203125,1,2.0,1.0,1.0,2.0,65.00
2021-04-09 09:54:38.746,0.57173073,1.1596411,0.9195109,0.8575627,0.18295276,0.77367294,0.71532464,0.39554805,0.681063,0.3223675,0.237724,0.5027363,0.1691813,-0.06950542,-0.021790646,0.19057973,-0.32796672,-0.3484778,-0.30246568,-0.1973213,742.1978,799.41394,799.011,784.10254,554.83514,-0.25152587890625,-0.0599365234375,0.9703369140625,3.3795166015625,-5.480499267578125,0.680389404296875,1,2.0,1.0,1.0,2.0,65.00
2021-04-09 09:54:39.262,0.12469941,0.69688064,0.36602682,0.5791156,0.33846927,0.263253,-0.25170127,0.35420674,0.559404,0.328163,0.05793237,0.51167375,0.32537135,0.051449515,0.09258564,0.36325577,-0.32915127,-0.3218669,-0.29078045,-0.17398028,783.69965,801.4286,802.23444,790.9524,663.6264,-0.24725341796875,-0.05377197265625,0.9742431640625,4.762725830078125,-3.910369873046875,1.428070068359375,1,1.0,1.0,1.0,1.0,65.00
2021-04-09 09:54:39.770,0.114186764,0.36941072,0.3563675,0.5482913,0.36001047,0.043330528,-0.11303479,0.28708857,0.6292474,0.3250677,0.0629298,0.51167375,0.35146207,0.05359543,0.067919716,0.26940766,-0.2288358,-0.26601812,-0.2675071,-0.117812194,848.5714,809.4872,794.57874,805.8608,951.7216,-0.2510986328125,-0.06439208984375,0.97412109375,4.5458984375,-4.14215087890625,0.95703125,1,1.0,1.0,1.0,1.0,65.00
2021-04-09 09:54:40.285,0.017774906,0.36575073,0.37825385,0.50935644,0.3711359,0.012961451,0.030625524,0.27948675,0.7212343,0.3250677,0.14432561,0.5085548,0.26359,0.057483442,0.07219623,0.19680235,-0.21244593,-0.28419444,-0.2777375,-0.13451977,839.304,809.89014,804.65204,813.91943,844.94507,-0.24554443359375,-0.05731201171875,0.96502685546875,4.628143310546875,-4.897308349609375,3.043060302734375,1,1.0,1.0,1.0,1.0,65.00
2021-04-09 09:54:40.806,-0.039352607,0.04835534,0.26480198,0.3855695,0.3511992,-0.11492694,0.0010136701,0.29789034,0.6993174,0.13924439,0.14897543,0.5081462,0.17817904,-0.01658062,-0.009494067,0.059123293,-0.21399675,-0.33227494,-0.24497728,-0.15810518,516.1539,757.1062,836.08057,541.13556,767.98535,-0.26068115234375,-0.05780029296875,0.9691162109375,4.403839111328125,-4.403839111328125,0.171966552734375,1,1.0,1.0,1.0,1.0,65.00
2021-04-09 09:54:41.011,,,,,,,,,,,,,,,,,,,,,,,,,,,,,,,,,,,,,,/muse/elements/blink
2021-04-09 09:54:41.332,-0.10742156,0.56999844,0.47844508,0.23573479,0.33471733,0.26490018,0.17700244,0.35394636,0.676983,0.1528764,0.24123982,0.44522473,-0.015760215,0.012660435,-0.028786879,-0.025299814,-0.2749807,-0.5277154,-0.26455578,-0.24242869,860.2564,812.3077,798.20514,827.2161,1021.8315,-0.2572021484375,-0.05487060546875,0.96990966796875,4.553375244140625,-4.403839111328125,0.142059326171875,1,1.0,1.0,1.0,1.0,65.00
2021-04-09 09:54:41.834,0.01936927,1.0341395,0.8728564,0.17497168,0.22538497,0.61466634,0.40237147,0.4658906,0.3166278,0.25913537,0.25383726,0.44522473,-0.12989672,0.03257269,-0.020377401,-5.121884E-4,-0.3842039,-0.52517563,-0.23746635,-0.24327834,810.293,801.02563,801.02563,805.4579,938.4249,-0.258056640625,-0.05279541015625,0.97705078125,4.65057373046875,-4.23187255859375,1.607513427734375,1,1.0,1.0,1.0,1.0,65.00
2021-04-09 09:54:42.347,0.01936927,1.3352247,1.1934423,0.17497168,0.22538497,0.876227,0.701609,0.4658906,0.3166278,0.77925736,0.36861262,0.44522473,-0.12989672,0.12843789,-0.028418364,-5.121884E-4,-0.3842039,-0.50335693,-0.2616262,-0.24327834,764.35895,801.02563,799.41394,789.7436,600.3663,-0.25311279296875,-0.05908203125,0.97235107421875,5.18890380859375,-4.598236083984375,-3.297271728515625,1,1.0,1.0,1.0,1.0,65.00
2021-04-09 09:54:42.857,-0.07885862,1.1695592,1.0504229,0.3970626,0.009780978,0.6925199,0.54454345,0.080060266,0.3468166,0.77925736,0.36195755,0.63024366,0.16943051,0.04475271,0.033740316,0.29952574,-0.08423047,-0.4028406,-0.27533427,-0.27491036,813.5165,809.4872,808.68134,806.6667,736.1539,-0.2489013671875,-0.05804443359375,0.9620361328125,4.5458984375,-4.23187255859375,1.667327880859375,1,1.0,1.0,1.0,1.0,65.00
2021-04-09 09:54:43.364,-0.15734172,0.95260245,0.83537716,0.3086509,0.13731162,0.4906046,0.32659623,0.055723976,0.35254005,0.77925736,0.35656744,0.6307716,0.15398157,0.0025878225,0.091406345,0.3313519,-0.17556895,-0.3404029,-0.3692506,-0.15725759,817.5458,800.6227,799.81683,800.6227,904.17584,-0.2547607421875,-0.06280517578125,0.966796875,4.5758056640625,-4.366455078125,0.4486083984375,1,1.0,1.0,1.0,1.0,65.00
2021-04-09 09:54:43.854,,,,,,,,,,,,,,,,,,,,,,,,,,,,,,,,,,,,,,/muse/elements/blink
2021-04-09 09:54:43.882,-0.1613879,0.049588297,-0.043056086,0.09601141,0.12416778,-0.16547091,-0.39373118,-0.121582486,0.33123463,0.07099978,0.08395462,0.23340204,0.15971282,-0.043880384,0.1519336,0.2872072,-0.19388978,-0.27248317,-0.2420651,-0.104254924,898.93774,812.3077,802.23444,850.989,1013.7729,-0.25103759765625,-0.0633544921875,0.96783447265625,4.194488525390625,-4.179534912109375,0.889739990234375,1,1.0,1.0,1.0,1.0,65.00
2021-04-09 09:54:44.400,-0.08415873,0.40936357,0.76823443,0.13181496,0.28580132,0.21010154,0.3526265,-0.0305292,0.14897531,0.29214534,0.28005996,0.107284695,0.15722306,-0.03826428,0.118166775,0.32965857,-0.30997005,-0.30486715,-0.18819086,0.012380981,803.0403,802.6374,801.4286,802.6374,641.8681,-0.2535400390625,-0.061279296875,0.97119140625,4.448699951171875,-3.745880126953125,0.478515625,1,1.0,1.0,1.0,1.0,65.00
2021-04-09 09:54:44.919,0.091086395,0.5638774,0.8439322,0.12640509,0.36499786,0.27522236,0.40478134,-0.13926823,0.10688404,0.3338678,0.29882905,-0.054480128,0.16529824,-0.026902182,0.100921005,0.27383578,-0.30336305,-0.3620465,-0.16395037,0.07260869,731.7216,780.4762,799.011,793.36993,848.1685,-0.2454833984375,-0.06427001953125,0.97198486328125,3.820648193359375,-4.344024658203125,1.128997802734375,1,1.0,1.0,1.0,1.0,65.00
2021-04-09 09:54:45.430,0.55943483,0.6209854,0.850208,0.21492036,0.4690939,0.43259943,0.44501197,0.11432771,0.3492234,0.35851854,0.4698899,0.11957291,0.20313239,0.026526283,0.061506625,0.27612263,-0.23755082,-0.42564726,-0.24686474,-0.34172842,776.04395,791.75824,814.3223,805.05493,686.99634,-0.25103759765625,-0.0662841796875,0.96942138671875,4.44122314453125,-4.0972900390625,-0.082244873046875,1,1.0,1.0,1.0,1.0,65.00
2021-04-09 09:54:45.951,0.5253405,0.44881037,0.41475955,0.22100966,0.34964907,0.31194127,0.047627028,0.09706076,0.386816,0.33035997,0.45760667,0.27049038,0.31556016,0.065753855,0.07577508,0.27601752,-0.2846229,-0.4009458,-0.32007313,-0.33845305,859.45056,806.6667,803.0403,823.5897,1020.2198,-0.25396728515625,-0.06512451171875,0.9725341796875,4.5758056640625,-4.20196533203125,0.411224365234375,1,1.0,1.0,1.0,1.0,65.00
2021-04-09 09:54:46.456,0.5051942,0.34841883,0.64208007,0.22291796,0.31241107,0.35002023,0.294457,0.11469054,0.51499623,0.21443273,0.68511844,0.27100155,0.28028893,0.07346016,0.058601975,0.27003366,-0.29515862,-0.35770184,-0.34400064,-0.33298692,840.9158,814.3223,807.0696,810.293,766.77655,-0.25018310546875,-0.069091796875,0.97015380859375,4.71038818359375,-4.17205810546875,0.680389404296875,1,1.0,1.0,1.0,1.0,65.00
2021-04-09 09:54:46.973,0.617142,0.32465845,1.157285,0.22816904,0.2887132,0.18671167,0.66468304,0.11493226,0.51373506,0.19760954,0.8490755,0.18881902,0.25697693,0.05105729,0.06736621,0.2659264,-0.23708148,-0.35473874,-0.34882122,-0.3272555,767.1795,800.6227,807.47253,789.7436,516.55676,-0.25347900390625,-0.0635986328125,0.96966552734375,4.88983154296875,-4.523468017578125,0.979461669921875,1,1.0,1.0,1.0,1.0,65.00
2021-04-09 09:54:47.475,0.5563289,0.24882115,1.1570116,0.15033925,0.22249512,0.0030100448,0.65071905,0.15323965,0.6181589,0.08530672,0.85596585,0.52616477,0.17689991,-0.08889482,0.073745556,0.22889598,-0.16752873,-0.37434813,-0.35056347,-0.21987575,758.315,775.64105,817.9487,815.5311,522.1978,-0.25177001953125,-0.0626220703125,0.96697998046875,4.553375244140625,-3.865509033203125,0.478515625,1,1.0,1.0,1.0,1.0,65.00
2021-04-09 09:54:47.993,0.590888,0.38547158,1.1037978,0.76835114,0.17631668,0.085674055,0.58559436,0.5273764,0.51725274,0.103838,0.85596585,0.56335896,0.14981653,-0.020983133,0.07962975,0.23407613,-0.09701967,-0.5034289,-0.38779065,-0.15198022,807.0696,795.78754,811.0989,787.72894,884.0293,-0.25201416015625,-0.062744140625,0.96990966796875,4.47113037109375,-4.44122314453125,0.844879150390625,1,1.0,1.0,1.0,1.0,65.00
2021-04-09 09:54:48.502,0.86052144,0.8432626,0.7288949,0.795596,0.2329738,0.19926415,0.2563381,0.5640416,0.63926935,0.32678664,0.36201647,0.5630787,0.18119651,-0.0020429287,0.043421566,0.23526885,-0.13308409,-0.5600646,-0.4164618,-0.1488362,855.82416,813.91943,805.4579,821.1722,1038.7546,-0.25140380859375,-0.05535888671875,0.974853515625,4.613189697265625,-4.702911376953125,1.614990234375,1,1.0,1.0,1.0,1.0,65.00
2021-04-09 09:54:49.028,0.9405453,1.0031693,0.8768472,1.1574028,0.44166547,0.28886965,0.44358402,0.88447773,0.7691028,0.40364397,0.43059573,0.94640416,0.18720657,0.056817148,-0.0052209473,0.26913822,-0.19579764,-0.5929419,-0.47080073,-0.12963003,761.13556,800.6227,791.75824,798.20514,741.39197,-0.252197265625,-0.05889892578125,0.9698486328125,4.5458984375,-3.7384033203125,-0.25421142578125,1,1.0,1.0,1.0,1.0,65.00
2021-04-09 09:54:49.532,0.9066375,1.2129326,1.0618433,1.2419887,0.5142145,0.576504,0.630519,1.0176982,0.7857401,0.5838228,0.6076773,0.9381422,0.13704705,0.011060172,0.104864426,0.31136388,-0.26794013,-0.62183094,-0.40287444,-0.19394282,748.6447,799.011,801.02563,794.9817,450.87912,-0.26025390625,-0.06427001953125,0.97161865234375,3.386993408203125,-3.446807861328125,0.171966552734375,1,1.0,1.0,1.0,1.0,65.00
2021-04-09 09:54:50.047,0.7175379,1.1633779,1.0374076,1.0860238,0.53639627,0.6016728,0.61388296,0.92847234,0.80855626,0.61068827,0.6076773,0.9381422,0.08999939,-0.023686647,0.10601366,0.28260162,-0.30625343,-0.5280945,-0.43917874,-0.15150505,862.27106,818.3516,803.8461,824.7985,998.0586,-0.2750244140625,-0.0723876953125,0.9698486328125,3.760833740234375,-3.207550048828125,-0.85235595703125,1,1.0,1.0,1.0,1.0,65.00
2021-04-09 09:54:50.553,0.49580175,0.9943118,0.8782366,0.6368156,0.37416932,0.5362821,0.44592518,0.5559745,0.73172045,0.5986458,0.5706771,0.49618658,0.12242978,-0.03108306,0.0856489,0.24933071,-0.32322082,-0.5053788,-0.37978375,-0.07558315,853.00366,801.02563,811.0989,816.337,1060.1099,-0.25567626953125,-0.05877685546875,0.97314453125,4.66552734375,-5.016937255859375,1.173858642578125,1,1.0,1.0,1.0,1.0,65.00
2021-04-09 09:54:51.083,0.71784514,0.8028638,0.70561916,0.7006972,0.51120675,0.47887674,0.2652657,0.6126902,0.7934383,0.5315879,0.49867225,0.6685816,0.20149194,0.04526171,0.033556007,0.27939835,-0.324328,-0.48612586,-0.37632325,-0.09902651,745.82416,809.0842,793.7729,783.69965,434.35898,-0.2569580078125,-0.05902099609375,0.96710205078125,4.26177978515625,-4.119720458984375,0.897216796875,1,1.0,1.0,1.0,1.0,65.00
2021-04-09 09:54:51.448,,,,,,,,,,,,,,,,,,,,,,,,,,,,,,,,,,,,,,/muse/elements/blink
2021-04-09 09:54:51.608,1.0655881,0.79233176,0.75001436,0.99121594,0.7382517,0.64599824,0.41723967,0.62524134,0.74146795,0.5181831,0.37502828,0.63731074,0.36828968,0.12949245,0.09811235,0.28546023,-0.1795809,-0.4893335,-0.3361811,-0.114381,769.59705,817.9487,804.65204,797.3993,565.7143,-0.2496337890625,-0.06195068359375,0.9666748046875,5.69732666015625,-5.540313720703125,2.833709716796875,1,1.0,1.0,1.0,1.0,65.00
2021-04-09 09:54:52.133,1.1699759,1.0753683,1.0831467,1.3341033,1.1198746,0.8319174,0.64822143,1.1065245,1.0854568,0.5696557,0.54339856,1.3251276,0.4804426,0.08937346,0.14837982,0.47482213,-0.10813695,-0.40034816,-0.2932111,-0.13458867,751.4652,790.9524,817.9487,797.3993,495.20148,-0.26153564453125,-0.07318115234375,0.962158203125,3.96270751953125,-2.758941650390625,-2.400054931640625,1,1.0,1.0,1.0,1.0,65.00
2021-04-09 09:54:52.645,0.93747425,1.0645609,1.0648699,1.4511915,0.9476856,0.7673499,0.59593755,1.2135099,1.0898129,0.69243646,0.57270193,1.3231649,0.41217178,0.08696136,0.06496609,0.54353553,-0.2570087,-0.41654128,-0.26996353,-0.09321166,827.2161,813.1135,815.12823,814.3223,897.72894,-0.26300048828125,-0.07318115234375,0.9638671875,4.47113037109375,-4.41131591796875,-1.652374267578125,1,1.0,1.0,1.0,1.0,65.00
2021-04-09 09:54:53.168,0.8769234,1.1310244,1.0804254,1.1643746,0.91907525,0.7513423,0.5569877,1.0311029,1.0872179,0.6611769,0.5912284,1.3119719,0.39698583,0.069433615,0.09478679,0.47415495,-0.29291645,-0.40414864,-0.2528934,-0.024450965,857.4359,816.7399,810.293,809.0842,936.8132,-0.26141357421875,-0.077880859375,0.97259521484375,4.867401123046875,-4.912261962890625,0.55328369140625,1,1.0,1.0,1.0,1.0,65.00
2021-04-09 09:54:53.271,,,,,,,,,,,,,,,,,,,,,,,,,,,,,,,,,,,,,,/muse/elements/blink
2021-04-09 09:54:53.677,1.239563,0.89155185,0.76380116,0.54861367,0.9260564,0.516575,0.28205755,0.41171283,1.4169748,0.5753016,0.39745063,0.6621476,0.51353645,0.10556025,0.054522213,0.27772632,-0.33779475,-0.40089175,-0.1860687,-0.004615086,796.5934,798.20514,808.2784,796.5934,628.5714,-0.25762939453125,-0.0767822265625,0.97021484375,4.792633056640625,-4.897308349609375,1.1065673828125,1,1.0,1.0,1.0,1.0,65.00
2021-04-09 09:54:54.185,1.5732266,0.734551,0.6207108,0.57521164,1.2301968,0.39357138,0.11955559,0.44394866,1.4169748,0.5357962,0.39304608,0.57403827,0.7147069,-0.01282878,0.082219854,0.2670572,-0.28173327,-0.38702706,-0.21781853,0.009442494,750.2564,799.011,804.2491,787.326,479.08426,-0.25421142578125,-0.07318115234375,0.96490478515625,4.702911376953125,-4.912261962890625,1.547698974609375,1,1.0,1.0,1.0,1.0,65.00
2021-04-09 09:54:54.687,1.318496,0.4112026,0.29690647,0.5229422,1.0019605,0.08489939,-0.21037228,-0.024383802,1.4169748,0.26353103,0.40755388,0.327594,0.51722735,-0.052011464,0.045165513,-0.09188875,-0.31646946,-0.47087422,-0.24396254,-0.2971043,774.43225,800.2198,807.0696,793.36993,748.6447,-0.25225830078125,-0.07861328125,0.97137451171875,4.05242919921875,-4.134674072265625,1.158905029296875,1,1.0,1.0,1.0,1.0,65.00
2021-04-09 09:54:55.206,0.7675656,0.5681043,0.49166384,0.77177095,0.5860843,0.13043523,-0.063012,0.14228207,1.1902853,0.23250651,0.42235208,0.45772913,0.22387448,-0.077620275,0.06358164,0.047995385,-0.24798343,-0.49584952,-0.28042287,-0.29824057,799.011,802.6374,801.02563,807.0696,608.4249,-0.25482177734375,-0.0791015625,0.96893310546875,4.47113037109375,-4.134674072265625,0.6878662109375,1,1.0,1.0,1.0,1.0,65.00
2021-04-09 09:54:55.710,0.3086009,0.53399473,0.44387755,0.7014361,0.38689947,0.0065423883,-0.07432709,0.120110966,0.5662059,0.17467396,0.4263238,0.6170468,0.21131685,-0.0013182081,0.037067708,0.13711737,-0.23049146,-0.3705443,-0.2988537,-0.18803969,859.45056,798.20514,809.0842,839.304,920.293,-0.252197265625,-0.0728759765625,0.9644775390625,4.88983154296875,-4.702911376953125,0.515899658203125,1,1.0,1.0,1.0,1.0,65.00
2021-04-09 09:54:56.224,0.55650246,0.505146,0.47179243,0.984248,0.42957976,0.15381087,-0.02552712,0.23103791,0.73851717,0.561644,0.4869189,0.7106645,0.25021076,0.015609036,0.013375846,0.18521751,-0.19874826,-0.33755994,-0.30266327,-0.17351414,784.90845,803.44324,807.47253,800.6227,841.31866,-0.25201416015625,-0.07452392578125,0.9678955078125,4.38140869140625,-4.29168701171875,0.635528564453125,1,1.0,1.0,1.0,1.0,65.00
2021-04-09 09:54:56.733,0.68938565,0.429069,0.4780855,1.1167196,0.38547936,0.2736159,0.070529096,0.31478927,0.7207637,0.57290405,0.31953335,0.69677234,0.27046028,0.02084232,0.03551883,0.20598155,-0.24925534,-0.32122,-0.38470396,-0.15783629,856.63007,818.3516,801.4286,811.0989,981.53845,-0.2542724609375,-0.066162109375,0.97125244140625,4.29168701171875,-5.30853271484375,0.695343017578125,1,1.0,1.0,1.0,1.0,65.00
2021-04-09 09:54:56.770,,,,,,,,,,,,,,,,,,,,,,,,,,,,,,,,,,,,,,/muse/elements/blink
2021-04-09 09:54:57.236,1.0796931,0.54714394,0.66433465,1.3772247,0.9966667,0.3905982,0.41269952,1.0051004,1.309848,0.5708088,0.459486,1.3761957,0.53072566,0.0018430788,0.053474296,0.36486453,-0.20494266,-0.36707985,-0.41871235,-0.2844554,837.6923,807.0696,803.44324,811.9048,819.15753,-0.243408203125,-0.08050537109375,0.97027587890625,3.9776611328125,-5.5926513671875,-3.461761474609375,1,1.0,1.0,1.0,1.0,65.00
2021-04-09 09:54:57.756,1.215227,0.46433,0.56405795,1.4771209,1.1812156,0.30818164,0.38797596,1.2942708,1.3004849,0.5156672,0.44117317,1.3695413,0.6433023,-0.104924075,0.023550024,0.50882334,-0.16665712,-0.36585855,-0.45983973,-0.4158471,857.03296,812.71063,789.7436,874.7619,481.90475,-0.25396728515625,-0.0810546875,0.96990966796875,3.102874755859375,-3.3795166015625,1.398162841796875,1,1.0,1.0,1.0,1.0,65.00
2021-04-09 09:54:57.789,,,,,,,,,,,,,,,,,,,,,,,,,,,,,,,,,,,,,,/muse/elements/blink
2021-04-09 09:54:58.278,1.3262979,0.7196066,0.93850756,1.4763222,1.3582433,0.3742949,0.54477924,1.3706996,1.3004849,0.32336745,0.39506203,1.3688762,0.7729064,-0.2077639,-0.011788406,0.5614198,-0.053232092,-0.42308283,-0.5329104,-0.43341935,761.53845,805.8608,795.78754,781.28204,477.47253,-0.24249267578125,-0.07635498046875,0.97381591796875,5.69732666015625,-0.052337646484375,-1.786956787109375,1,1.0,1.0,1.0,1.0,65.00
2021-04-09 09:54:58.796,1.3654052,0.709229,0.95314944,1.4763222,1.3868427,0.30584303,0.410532,1.3706996,1.3004849,0.32784012,0.12160877,1.3688762,0.7703336,-0.2047037,-0.08551613,0.5614198,-0.013293197,-0.41883343,-0.41326377,-0.43341935,823.1868,803.8461,801.02563,805.05493,872.3443,-0.2503662109375,-0.08673095703125,0.97430419921875,5.241241455078125,-5.084228515625,2.429962158203125,1,1.0,1.0,1.0,1.0,60.00
2021-04-09 09:54:59.306,1.3654052,0.66971403,0.93599266,1.4763222,1.3868427,0.23295966,0.37194836,1.3706996,1.3004849,0.28962764,0.08536997,1.3688762,0.7703336,-0.23455459,-0.17583866,0.5614198,-0.013293197,-0.4333145,-0.38951916,-0.43341935,847.76556,807.47253,804.2491,823.5897,950.9158,-0.2470703125,-0.08172607421875,0.96954345703125,4.373931884765625,-4.553375244140625,1.742095947265625,1,1.0,1.0,1.0,1.0,60.00
2021-04-09 09:54:59.818,0.2540064,0.13740396,0.05298873,-0.35454082,-0.028522277,-0.10328791,-0.44096684,-0.33451936,0.074503094,0.021321496,-0.10309333,0.26092604,0.02518032,-0.09862159,-0.016735442,0.052292187,-0.3432058,-0.4359561,-0.34679762,-0.20945105,817.5458,812.71063,801.8315,803.8461,659.59705,-0.23516845703125,-0.07672119140625,0.9715576171875,4.83001708984375,-6.29547119140625,2.579498291015625,1,1.0,1.0,1.0,1.0,60.00
2021-04-09 09:55:00.323,0.18781614,-0.08094452,-0.16415164,-0.3324198,0.09486981,-0.10063297,-0.49474895,-0.03707674,0.0935573,0.019415908,-0.12513636,0.27083406,2.9084345E-4,-0.06673923,0.05223155,0.042211704,-0.30887586,-0.3988475,-0.40134233,-0.18817784,758.71796,800.2198,802.23444,790.9524,462.96704,-0.23712158203125,-0.078857421875,0.968994140625,4.83001708984375,-4.658050537109375,2.811279296875,1,1.0,1.0,1.0,1.0,60.00
2021-04-09 09:55:00.834,0.21068661,0.020742418,-0.257463,-0.12584172,0.113013946,-0.1161628,-0.53430444,0.026443893,0.14801355,-0.045420434,-0.18982299,0.48397,-0.0023414243,-0.007430898,0.11111327,0.087758176,-0.32531288,-0.33683693,-0.36584076,-0.24972896,775.64105,797.3993,808.2784,798.60803,701.0989,-0.244140625,-0.076171875,0.9715576171875,4.38140869140625,-4.837493896484375,0.530853271484375,1,1.0,1.0,1.0,1.0,60.00
2021-04-09 09:55:01.335,0.18195263,-0.06997336,-0.15869392,0.0073792716,0.1287226,-0.18413372,-0.3852931,0.20859143,0.42453945,0.0030953386,-0.27462107,0.48364025,0.041788504,-0.02258208,0.056979638,0.0668847,-0.3766351,-0.29150903,-0.32866797,-0.27938488,847.3626,807.47253,809.89014,824.3956,1077.033,-0.2349853515625,-0.06976318359375,0.9744873046875,4.314117431640625,-4.90478515625,1.188812255859375,1,1.0,1.0,1.0,1.0,60.00
2021-04-09 09:55:01.692,,,,,,,,,,,,,,,,,,,,,,,,,,,,,,,,,,,,,,/muse/elements/blink
2021-04-09 09:55:01.835,0.22126777,0.15664765,0.38614845,0.11354797,0.04246833,0.07073066,0.0012119749,0.21142599,0.49871686,0.21397568,-0.009720346,0.507538,0.093284614,0.04792779,0.05981138,0.07198554,-0.4665687,-0.3397643,-0.27866164,-0.34062663,775.64105,807.8755,802.23444,819.15753,530.2564,-0.23748779296875,-0.08148193359375,0.9649658203125,2.452392578125,-4.68048095703125,4.329071044921875,1,1.0,1.0,1.0,1.0,60.00
2021-04-09 09:55:02.339,0.29870862,0.8104453,0.76289946,0.12558404,0.13344936,0.47956076,0.30032092,0.31675348,0.48537335,0.29459944,0.06738222,0.45537472,0.15130731,0.09904209,0.08348653,-0.015519439,-0.5642351,-0.38808075,-0.25733992,-0.28889185,777.6557,806.6667,801.8315,797.3993,645.4945,-0.26318359375,-0.0841064453125,0.96978759765625,4.246826171875,-4.059906005859375,2.22808837890625,1,1.0,1.0,1.0,1.0,60.00
2021-04-09 09:55:02.841,0.2509704,0.82674223,0.79438215,0.12783793,9.1154705E-4,0.4744346,0.3329875,0.22992088,0.47120637,0.29459944,0.12090364,0.3394894,0.20540544,0.09474418,0.051055837,-0.024035474,-0.5780993,-0.3764201,-0.21025616,-0.29320002,815.12823,802.23444,803.8461,806.6667,706.7399,-0.2501220703125,-0.07733154296875,0.9677734375,3.94775390625,-2.429962158203125,-1.368255615234375,1,1.0,1.0,1.0,1.0,60.00
2021-04-09 09:55:03.126,,,,,,,,,,,,,,,,,,,,,,,,,,,,,,,,,,,,,,/muse/elements/blink
2021-04-09 09:55:03.342,0.2509704,0.86126494,0.9432081,0.12783793,9.1154705E-4,0.4397442,0.5881229,0.22992088,0.47120637,0.30466518,0.34432435,0.3394894,0.20540544,0.037744686,0.13654786,-0.024035474,-0.5780993,-0.37536088,-0.3000688,-0.29320002,860.2564,814.3223,808.2784,826.4103,875.56775,-0.3060302734375,-0.1202392578125,0.9708251953125,-0.695343017578125,-14.243316650390625,1.7047119140625,1,1.0,1.0,1.0,1.0,60.00
2021-04-09 09:55:03.844,0.2509704,0.8124504,1.1528658,0.12783793,9.1154705E-4,0.23877968,0.7591505,0.22992088,0.47120637,0.15909721,0.3904161,0.3394894,0.20540544,0.03736409,0.11859445,-0.024035474,-0.5780993,-0.32719153,-0.31886932,-0.29320002,815.9341,799.41394,803.8461,822.7839,570.54944,-0.40264892578125,-0.4404296875,0.75531005859375,-9.4207763671875,30.2362060546875,-18.415374755859375,1,1.0,1.0,1.0,1.0,60.00
2021-04-09 09:55:04.346,0.2509704,0.8438758,1.1803929,0.12783793,9.1154705E-4,0.36110544,0.7816164,0.22992088,0.47120637,0.28082886,0.41347525,0.3394894,0.20540544,0.14115737,0.08815805,-0.024035474,-0.5780993,-0.25393194,-0.41631177,-0.29320002,838.0952,821.1722,805.4579,816.337,1065.751,-0.3599853515625,-0.19879150390625,0.87939453125,26.19873046875,-9.203948974609375,7.79083251953125,1,2.0,1.0,1.0,2.0,60.00
2021-04-09 09:55:04.858,0.2509704,0.8397896,1.0945307,1.27306,9.1154705E-4,0.30933434,0.5921627,0.5011128,0.47120637,0.28017166,0.40961304,0.89352053,0.20540544,0.14133336,-0.05210265,0.46677867,-0.5780993,-0.2557667,-0.3724685,0.08521988,838.0952,799.41394,809.0842,812.3077,962.6007,-0.387939453125,0.00189208984375,1.01776123046875,32.0306396484375,-10.235748291015625,7.5665283203125,1,1.0,1.0,1.0,1.0,60.00
2021-04-09 09:55:05.359,0.89502573,0.50179327,0.47893748,1.0721673,0.042474534,0.044711955,-0.047505554,0.4430858,0.6446718,0.2289074,0.0020479562,0.89352053,0.46401736,0.16568871,0.014312174,0.42279395,0.06865337,-0.32388672,-0.27608562,0.15528843,776.8498,798.20514,806.6667,801.4286,582.6374,-0.12872314453125,-0.04461669921875,1.03509521484375,1.203765869140625,-11.506805419921875,7.01324462890625,1,1.0,1.0,1.0,1.0,60.00
2021-04-09 09:55:05.861,0.27838796,0.49095562,0.33666614,0.9113594,0.015687725,-0.32180786,-0.12845446,0.35967803,0.38809648,0.10248764,0.011940173,0.7202053,0.40738106,0.117669605,0.0878324,0.34360465,-0.06996555,-0.34730586,-0.25374705,0.098435916,752.674,813.1135,808.68134,802.23444,630.58606,-0.24493408203125,0.031982421875,0.95343017578125,4.29168701171875,-5.899200439453125,4.2767333984375,1,1.0,1.0,1.0,1.0,60.00
2021-04-09 09:55:06.363,0.5614768,0.4901268,-0.050300505,0.5998268,0.009983152,-0.44485158,-0.24505739,0.2807582,0.40697032,-0.120933816,0.0017200232,0.34026736,0.37170553,0.110042594,0.08515678,0.30610898,-0.09647596,-0.2761141,-0.21825781,0.04260369,863.0769,824.3956,791.3553,815.9341,987.98535,-0.2432861328125,-0.07659912109375,0.96746826171875,12.747955322265625,-1.51031494140625,-11.746063232421875,1,1.0,1.0,1.0,1.0,60.00
2021-04-09 09:55:06.865,0.65142167,0.92557395,0.73848104,0.51735646,0.20318526,0.448885,0.36049873,0.17740324,0.43216172,0.41981342,0.5414674,0.35371274,0.33116552,0.1396064,0.119536564,0.29435772,-0.09013804,-0.16450015,-0.26544395,-0.08320056,767.5824,807.0696,805.05493,803.8461,580.6227,-0.291015625,-0.02923583984375,0.96343994140625,5.630035400390625,-5.6524658203125,-2.400054931640625,1,1.0,1.0,1.0,1.0,60.00
2021-04-09 09:55:07.368,0.72574645,1.040108,0.89856064,0.5389389,0.30004847,0.62512887,0.4856388,0.07523549,0.38791236,0.4199029,0.5324558,0.41175625,0.28057334,0.095422626,0.09588297,0.3295059,-0.04982339,-0.1682481,-0.21012442,-0.13209,831.6484,804.2491,797.3993,806.26373,948.49817,-0.2557373046875,-0.00921630859375,0.9715576171875,3.940277099609375,-3.3795166015625,-0.500946044921875,1,1.0,1.0,1.0,1.0,60.00
2021-04-09 09:55:07.809,,,,,,,,,,,,,,,,,,,,,,,,,,,,,,,,,,,,,,/muse/elements/blink
2021-04-09 09:55:07.869,0.6332623,1.002689,0.93051195,0.18381841,0.3623068,0.6344547,0.49348477,-0.2341122,0.41113856,0.4199029,0.5324558,0.28916028,0.311438,0.09138952,0.15039702,0.36584917,0.015578779,-0.16642633,-0.2145442,-0.015025863,890.07324,817.9487,801.4286,858.24176,946.08057,-0.26885986328125,-0.02862548828125,0.96258544921875,4.20196533203125,-5.1739501953125,1.62994384765625,1,1.0,1.0,1.0,1.0,60.00
2021-04-09 09:55:08.372,0.59769666,0.65026546,0.80291784,0.18381841,0.28170767,0.33915195,0.45984295,-0.2341122,0.39287597,0.38636258,0.50898576,0.28916028,0.30453235,0.049220845,0.11742908,0.36584917,-4.9473724E-4,-0.16669247,-0.16745988,-0.015025863,774.83514,801.02563,804.65204,790.9524,536.30035,-0.26983642578125,-0.03387451171875,0.96173095703125,4.35150146484375,-4.418792724609375,0.88226318359375,1,1.0,1.0,1.0,1.0,60.00
2021-04-09 09:55:08.874,0.4999127,0.09042179,0.6186164,0.18381841,0.17550865,-0.055929817,0.31645662,-0.2341122,0.21575923,0.1437108,0.43585327,0.28916028,0.40281656,0.0645078,0.15738982,0.36584917,0.007773803,-0.19754924,-0.15012841,-0.015025863,743.00366,794.57874,797.3993,782.8938,665.64105,-0.273681640625,-0.03424072265625,0.96441650390625,4.14215087890625,-4.912261962890625,1.532745361328125,1,1.0,1.0,1.0,1.0,65.00
2021-04-09 09:55:09.377,-0.08997616,0.16052577,0.5524816,-0.04303533,0.25791463,0.11444334,0.30487573,0.23523138,0.67971355,0.19673753,0.45160133,0.29800865,0.22484264,0.12879941,0.17572919,0.1643454,-0.24088906,-0.24582353,-0.14837623,-0.031558733,860.65936,811.50183,807.0696,813.5165,1024.249,-0.267578125,-0.04339599609375,0.9677734375,4.29168701171875,-4.598236083984375,0.500946044921875,1,1.0,1.0,1.0,1.0,65.00
2021-04-09 09:55:09.718,,,,,,,,,,,,,,,,,,,,,,,,,,,,,,,,,,,,,,/muse/elements/blink
2021-04-09 09:55:09.880,0.03301915,0.7064689,0.2384295,-0.0029440483,0.28207698,0.45653144,-0.028468931,0.19338965,0.72387946,0.5051678,0.20940866,0.3519965,0.25258,0.19018202,0.2248732,0.21686488,-0.23377688,-0.35808098,-0.17418626,-0.036856327,812.71063,817.5458,803.44324,818.7546,533.0769,-0.267822265625,-0.04315185546875,0.96246337890625,4.5458984375,-4.852447509765625,0.052337646484375,1,1.0,1.0,1.0,1.0,65.00
2021-04-09 09:55:10.383,0.03301915,0.85575736,0.30156893,-0.0029440483,0.28207698,0.59869546,0.07180551,0.19338965,0.72387946,0.50430286,0.19440372,0.3519965,0.25258,0.2389896,0.19807464,0.21686488,-0.23377688,-0.3680662,-0.23867388,-0.036856327,733.73627,787.72894,805.8608,781.685,485.53113,-0.27239990234375,-0.04193115234375,0.97601318359375,4.05242919921875,-4.50103759765625,0.01495361328125,1,1.0,1.0,1.0,1.0,65.00
2021-04-09 09:55:10.885,0.13710746,0.9705029,0.42539224,0.06015858,0.3052939,0.64710325,0.21500759,0.17370178,0.6810735,0.50430286,0.23385404,0.30893064,0.23169857,0.22015949,0.16724974,0.21878627,-0.22359444,-0.41488433,-0.15252015,-0.051063385,867.50916,862.674,759.12085,776.04395,884.43225,-0.26397705078125,-0.0426025390625,0.9642333984375,5.203857421875,-4.717864990234375,-3.611297607421875,1,1.0,1.0,1.0,1.0,65.00
2021-04-09 09:55:11.017,,,,,,,,,,,,,,,,,,,,,,,,,,,,,,,,,,,,,,/muse/elements/blink
2021-04-09 09:55:11.408,0.45152593,1.1740031,1.1804491,0.06015858,0.22422577,0.6970624,0.8287307,0.17370178,0.4160022,0.75610465,0.71231955,0.30893064,0.31544363,0.07529629,0.030307181,0.21878627,-0.014667203,-0.40361625,-0.018142136,-0.051063385,809.4872,813.91943,816.337,809.89014,573.7729,-0.26531982421875,-0.04962158203125,0.96527099609375,3.865509033203125,-5.181427001953125,0.9869384765625,1,1.0,1.0,1.0,1.0,65.00
2021-04-09 09:55:11.916,0.45596674,1.1761265,1.158926,0.06015858,0.23221228,0.6430153,0.7858021,0.17370178,0.43749362,0.75610465,0.71231955,0.30893064,0.27780405,0.059694406,0.060072668,0.21878627,-0.028721213,-0.37546748,-0.09050209,-0.051063385,738.5714,799.81683,800.6227,777.6557,493.1868,-0.26873779296875,-0.05743408203125,0.9619140625,3.5589599609375,-4.5458984375,1.375732421875,1,1.0,1.0,1.0,1.0,65.00
2021-04-09 09:55:12.432,0.34371802,1.0810654,1.0719261,0.050248265,0.18315731,0.5543904,0.7001906,-0.15814707,0.43749362,0.75610465,0.71231955,0.31740347,0.20554006,0.08803289,0.05166464,0.28010204,-0.08600904,-0.25912243,-0.1418794,-0.09272414,776.8498,807.47253,801.4286,800.6227,699.89014,-0.25665283203125,-0.046875,0.96649169921875,4.8150634765625,-4.85992431640625,1.383209228515625,1,1.0,1.0,1.0,1.0,65.00
2021-04-09 09:55:12.937,0.12514223,0.726204,0.6990785,-0.013140342,0.092296384,0.15497911,0.30959696,-0.20134863,0.38877508,0.63079643,0.5747708,0.39058965,0.1492883,0.1400671,0.041032713,0.33069253,-0.21649183,-0.23135503,-0.1594137,-0.09854268,845.34796,814.3223,792.5641,803.44324,1041.5751,-0.2562255859375,-0.05352783203125,0.96826171875,4.38140869140625,-4.942169189453125,0.800018310546875,1,1.0,1.0,1.0,1.0,65.00
2021-04-09 09:55:13.458,-0.29441866,-0.21605445,-0.033092517,-0.038982157,-0.01718179,-0.35221502,-0.4032425,-0.27872318,0.095704705,-0.1354246,-0.026587391,0.38947856,0.13918301,0.15900941,0.11037337,0.29622194,-0.32719934,-0.19429965,-0.13516359,-0.09089959,917.47253,829.2308,768.3883,874.7619,867.50916,-0.2523193359375,-0.05242919921875,0.96453857421875,4.23187255859375,-4.47113037109375,0.49346923828125,1,1.0,1.0,1.0,1.0,65.00
2021-04-09 09:55:13.524,,,,,,,,,,,,,,,,,,,,,,,,,,,,,,,,,,,,,,/muse/elements/blink
2021-04-09 09:55:13.974,-0.5861032,0.50067455,0.17184444,-0.1041185,-0.07728625,0.060037978,-0.31893173,-0.25270268,-0.0118787,-0.04737704,0.12382625,0.2012568,0.20382018,0.15338433,0.1687121,0.35812885,-0.40135422,-0.23957111,-0.093579404,-0.1292456,792.96704,793.36993,812.3077,814.7253,510.1099,-0.25445556640625,-0.052734375,0.96514892578125,4.643096923828125,-5.570220947265625,1.21124267578125,1,1.0,1.0,1.0,1.0,65.00
2021-04-09 09:55:14.517,-0.53297496,0.7126041,0.35533902,-0.05058391,-0.029012777,0.24983026,-0.2211447,-0.21864048,-0.08231318,-0.06108279,0.11355145,0.14300773,0.26128525,0.09853251,0.2742122,0.3111644,-0.32910505,-0.21117939,-0.13560246,-0.18213485,747.03296,802.23444,796.99634,792.1612,579.81683,-0.2581787109375,-0.04949951171875,0.9700927734375,4.71038818359375,-4.366455078125,1.79443359375,1,1.0,1.0,1.0,1.0,65.00
2021-04-09 09:55:14.977,,,,,,,,,,,,,,,,,,,,,,,,,,,,,,,,,,,,,,/muse/elements/blink
2021-04-09 09:55:15.056,-0.53297496,0.8050962,0.7128937,-0.05058391,-0.029012777,0.3640344,0.3106513,-0.21864048,-0.08231318,0.1797165,0.5375848,0.14300773,0.26128525,-0.12502636,0.06223074,0.3111644,-0.32910505,-0.30767822,-0.34776714,-0.18213485,764.7619,804.65204,793.36993,796.99634,394.06595,-0.25677490234375,-0.04931640625,0.97003173828125,4.3365478515625,-4.23187255859375,0.88226318359375,1,1.0,1.0,1.0,1.0,65.00
2021-04-09 09:55:15.593,1.3196073,0.53803885,0.7529758,-0.05058391,1.2025558,0.19163232,0.34188336,-0.21864048,1.1136824,0.40297168,0.62765163,0.14300773,0.7351303,-0.16088344,0.09091614,0.3111644,-0.13069697,-0.18383671,-0.25428906,-0.18213485,769.59705,802.6374,809.89014,802.23444,728.0952,-0.261962890625,-0.05084228515625,0.96759033203125,4.306640625,-4.269256591796875,0.8074951171875,1,1.0,1.0,1.0,1.0,65.00
2021-04-09 09:55:16.102,1.0935802,0.47752914,0.60841596,-0.05058391,0.9689366,0.23061176,0.18265544,-0.21864048,1.1136824,0.41139683,0.6141286,0.14300773,0.7194275,-0.042232838,0.08546805,0.3111644,-0.17048092,-0.16608801,-0.21508096,-0.18213485,840.10986,803.0403,802.23444,807.47253,1064.1392,-0.2564697265625,-0.045654296875,0.9705810546875,4.613189697265625,-4.2169189453125,0.2392578125,1,1.0,1.0,1.0,1.0,65.00
2021-04-09 09:55:16.636,0.94394475,0.4470206,0.4853039,0.02377831,0.84315914,0.20940603,0.07761555,0.26828936,1.1136824,0.41139683,0.6002269,0.42919904,0.63635796,0.032439545,0.05400581,0.45291987,-0.1916167,-0.1253675,-0.14852814,-0.19995488,795.38464,803.0403,792.96704,800.6227,877.1795,-0.26123046875,-0.04949951171875,0.9697265625,4.194488525390625,-4.568328857421875,0.171966552734375,1,1.0,1.0,1.0,1.0,65.00
2021-04-09 09:55:17.153,0.37253046,0.24866863,0.11261054,0.24578246,0.39160624,0.13734299,-0.07579971,0.14622629,0.71140957,0.0968397,0.025527706,0.48084405,0.45371893,0.122101635,0.022405362,0.37279278,-0.19862537,-0.10245754,-0.15001088,-0.1711419,871.13556,812.3077,811.9048,837.28937,1180.1831,-0.25921630859375,-0.05340576171875,0.96661376953125,4.867401123046875,-4.9945068359375,1.876678466796875,1,1.0,1.0,1.0,1.0,65.00
2021-04-09 09:55:17.673,0.44999406,0.2614073,0.28875825,0.45089686,0.34773722,0.14818981,-0.01733582,0.08822833,0.5862376,0.20712365,0.22405754,0.6348599,0.38984704,0.09963904,-0.013680509,0.36893445,-0.19315132,-0.14022069,-0.14385629,-0.1494441,826.8132,813.5165,801.4286,809.4872,751.8681,-0.2554931640625,-0.05401611328125,0.96966552734375,4.508514404296875,-4.478607177734375,1.09161376953125,1,1.0,1.0,1.0,1.0,65.00
2021-04-09 09:55:18.205,0.6185777,0.24530151,0.42534974,0.7202963,0.31808648,0.18095762,0.14513975,0.2989272,0.6355814,0.22885834,0.22405754,0.7612136,0.41152188,0.04803456,0.049113296,0.45710325,-0.12735477,-0.18999901,-0.21858281,-0.0642119,757.1062,802.6374,801.8315,798.20514,499.23077,-0.258544921875,-0.04559326171875,0.96697998046875,4.553375244140625,-4.47113037109375,0.710296630859375,1,1.0,1.0,1.0,1.0,65.00
2021-04-09 09:55:18.709,0.7329183,0.4687509,0.42683357,0.9584686,0.57165486,0.24799438,0.12015088,0.6697698,0.8799901,0.23431791,0.19369319,0.93616027,0.42671722,0.022975653,0.04044775,0.4807332,-0.08706949,-0.21693066,-0.20925099,-0.06608072,749.45056,805.05493,811.50183,787.326,534.2857,-0.2557373046875,-0.0499267578125,0.97125244140625,4.329071044921875,-4.299163818359375,0.67291259765625,1,1.0,1.0,1.0,1.0,65.00
2021-04-09 09:55:19.229,0.6479024,0.39988554,0.26541892,1.0508814,0.62949264,0.14059983,0.034832116,0.77881074,0.9089218,0.21722524,0.15538982,0.93651474,0.35749218,0.05286107,0.15833683,0.456739,-0.040103525,-0.17673422,-0.22907716,-0.1105946,819.9634,803.8461,807.0696,810.293,895.31134,-0.2525634765625,-0.0533447265625,0.96875,3.701019287109375,-4.486083984375,1.039276123046875,1,1.0,1.0,1.0,1.0,65.00
2021-04-09 09:55:19.750,0.5519766,0.3531462,-0.06778508,0.89379406,0.64738417,0.057413563,-0.18794458,0.8088806,0.90328544,0.018802319,0.14083908,0.9565739,0.27115917,0.055886,0.1412184,0.41373694,-0.072796054,-0.16381381,-0.13883314,-0.18744598,768.3883,799.81683,802.23444,796.99634,501.24542,-0.24957275390625,-0.049072265625,0.972412109375,5.016937255859375,-4.628143310546875,0.874786376953125,1,1.0,1.0,1.0,1.0,65.00
2021-04-09 09:55:20.280,0.16011415,0.0054546534,-0.17603083,0.2796797,0.3465106,-0.13545969,-0.3932677,0.46758023,0.54403454,0.13947205,0.0118362745,0.507199,0.17965509,0.024241418,0.16931145,0.39054605,-0.14709,-0.24695556,-0.10879191,-0.1079455,817.5458,811.9048,803.0403,804.2491,627.76556,-0.25115966796875,-0.04364013671875,0.96807861328125,2.332763671875,-3.207550048828125,3.058013916015625,1,1.0,1.0,1.0,1.0,65.00
2021-04-09 09:55:20.795,,,,,,,,,,,,,,,,,,,,,,,,,,,,,,,,,,,,,,/muse/elements/blink
2021-04-09 09:55:20.798,-0.066279225,0.029301794,-0.029058117,0.18078634,0.089568146,-0.16364917,-0.15408376,0.37415865,0.36810145,0.12719353,0.11025852,0.5069597,0.008301578,-0.017390588,0.04969361,0.289767,-0.23718192,-0.24269046,-0.0726767,-0.12091412,887.6557,807.8755,801.4286,851.79486,849.3773,-0.2496337890625,-0.06109619140625,0.97021484375,4.583282470703125,-4.673004150390625,0.336456298828125,1,1.0,1.0,1.0,1.0,65.00
2021-04-09 09:55:21.313,-0.22580028,0.618939,0.7582222,0.22032644,-0.09878423,0.4545346,0.58086735,0.027351508,0.11175459,0.21437722,0.36265045,0.19550648,0.021834467,0.028259454,0.057964586,0.2051787,-0.30541795,-0.19989568,-0.17378865,-0.16960593,781.28204,807.47253,803.44324,788.5348,564.90845,-0.25042724609375,-0.05242919921875,0.97174072265625,4.35150146484375,-5.0244140625,0.97198486328125,1,1.0,1.0,1.0,1.0,65.00
2021-04-09 09:55:21.828,-0.3550264,0.6308392,0.78266585,-0.00735697,-0.2709393,0.48143104,0.58727765,-0.27044937,0.11175459,0.16116275,0.35138977,0.044135675,0.06321604,0.061594315,0.1403354,0.1988997,-0.3265061,-0.21965306,-0.23504686,-0.30263337,847.3626,807.0696,802.23444,809.0842,1074.6154,-0.25469970703125,-0.05706787109375,0.97271728515625,4.11224365234375,-4.687957763671875,0.456085205078125,1,1.0,1.0,1.0,1.0,65.00
2021-04-09 09:55:22.333,0.12033572,0.5865948,0.7809065,0.20104524,0.3526263,0.44659492,0.5545948,0.20648983,0.23031554,0.124395564,0.3152307,0.068194926,0.25078297,0.15479036,0.20550185,0.1140532,-0.22314073,-0.19638208,-0.20901355,-0.051508587,793.7729,798.20514,799.41394,798.20514,948.49817,-0.25665283203125,-0.0555419921875,0.9715576171875,4.179534912109375,-4.433746337890625,0.396270751953125,1,1.0,1.0,1.0,1.0,65.00
2021-04-09 09:55:22.843,-0.0068999967,0.19345045,0.34137848,0.1453088,0.2847004,0.009530786,-0.009098823,0.112547375,0.26731363,0.10994512,0.024002789,0.37863144,0.28827673,0.1924527,0.17805538,0.12839942,-0.19384429,-0.17175621,-0.1476863,-0.015073749,789.7436,805.4579,801.02563,801.4286,589.89014,-0.256103515625,-0.062255859375,0.96563720703125,4.792633056640625,-4.717864990234375,0.73272705078125,1,1.0,1.0,1.0,1.0,65.00
2021-04-09 09:55:23.355,0.03064657,-0.08870274,5.6493975E-4,0.0055575203,0.21294989,-0.243461,-0.13999696,0.020666922,0.3317894,0.16192539,-0.1686275,0.4944435,0.24203579,0.17356683,0.034642786,0.14136453,-0.15100808,-0.14734517,-0.026612407,-0.045262635,826.8132,809.4872,802.6374,806.6667,767.98535,-0.25537109375,-0.05438232421875,0.968017578125,4.269256591796875,-4.358978271484375,0.76263427734375,1,1.0,1.0,1.0,1.0,65.00
2021-04-09 09:55:23.868,0.13868554,-0.102803394,-0.04333093,-0.14959738,0.053819507,-0.24631783,-0.17912498,-0.121367045,0.18397638,0.17321454,-0.15981652,0.47322062,0.21328872,0.15227629,-0.056664404,0.1651353,-0.11460068,-0.24051705,-0.096894115,-0.111216225,806.26373,811.9048,798.20514,811.50183,885.2381,-0.25396728515625,-0.05792236328125,0.96881103515625,4.66552734375,-4.5458984375,0.725250244140625,1,1.0,1.0,1.0,1.0,65.00
2021-04-09 09:55:24.396,0.38377136,0.19367498,0.19609445,0.43907315,-0.011624932,0.0074261157,-0.2194777,-0.0011101743,0.17255673,0.28170824,0.10440723,0.4658469,0.17633517,0.1501682,0.10510437,0.23105496,-0.10479591,-0.33093345,-0.18757236,-0.21905887,868.71796,813.5165,805.4579,829.6337,1028.6813,-0.24920654296875,-0.05828857421875,0.96844482421875,4.38140869140625,-4.822540283203125,1.682281494140625,1,1.0,1.0,1.0,1.0,65.00
2021-04-09 09:55:24.931,0.49454603,0.3567052,0.32443514,0.53806937,-0.15723088,0.12344344,0.0010589486,0.24268392,-0.096443534,0.26574954,0.13564743,0.44405496,0.19706537,0.103818215,0.12779978,0.31120723,-0.07542142,-0.36511937,-0.26602626,-0.12512688,824.3956,790.14655,821.978,822.7839,753.8828,-0.25592041015625,-0.05902099609375,0.96990966796875,4.486083984375,-4.4561767578125,0.515899658203125,1,1.0,1.0,1.0,1.0,65.00
2021-04-09 09:55:25.081,,,,,,,,,,,,,,,,,,,,,,,,,,,,,,,,,,,,,,/muse/elements/blink
2021-04-09 09:55:25.465,0.9816249,0.80688334,0.6578595,0.79010946,1.1137313,0.45281637,0.28960073,0.7992767,1.1465797,0.5252079,0.3588302,0.9042431,0.4759764,0.028523272,0.16582355,0.48748922,-0.053262144,-0.22459371,-0.27214622,-0.052118737,857.8388,808.2784,802.23444,814.7253,1104.4323,-0.24969482421875,-0.05511474609375,0.96868896484375,4.269256591796875,-4.77020263671875,0.665435791015625,1,1.0,1.0,1.0,1.0,65.00
2021-04-09 09:55:25.983,1.0139796,0.87373555,0.68367165,0.7708131,1.1916761,0.45609438,0.34747967,0.9003303,1.1465797,0.5252079,0.3455595,0.9042431,0.48877874,0.026535638,0.14785138,0.50215554,-0.089135244,-0.16186894,-0.22345188,0.011299055,807.8755,799.011,806.6667,799.41394,680.14655,-0.24505615234375,-0.05841064453125,0.96954345703125,4.85992431640625,-5.001983642578125,0.216827392578125,1,1.0,1.0,1.0,1.0,65.00
2021-04-09 09:55:26.521,0.9678535,0.9801033,0.78196746,0.7807655,1.15478,0.55615824,0.40626654,0.90346766,1.1465797,0.5824919,0.4490347,0.90258604,0.4527682,0.12840602,0.18652652,0.5120814,-0.16891494,-0.14672677,-0.17145035,-0.07391082,806.6667,802.6374,805.4579,806.26373,880.80585,-0.243896484375,-0.05816650390625,0.97174072265625,4.605712890625,-4.673004150390625,1.682281494140625,1,1.0,1.0,1.0,1.0,65.00
2021-04-09 09:55:27.056,0.5956387,0.8146921,0.9130978,0.72804976,0.43539435,0.39026862,0.5493163,0.58196324,0.56751484,0.5017061,0.5179937,0.5986368,0.18592097,0.18032433,0.17529272,0.42113867,-0.18394451,-0.20136501,-0.17536831,-0.06448657,789.34064,807.47253,802.6374,795.38464,586.6667,-0.2513427734375,-0.0562744140625,0.97161865234375,4.77020263671875,-4.68048095703125,1.203765869140625,1,1.0,1.0,1.0,1.0,65.00
2021-04-09 09:55:27.558,0.46187842,0.7519861,0.89324504,0.6617707,0.2631412,0.4185277,0.5114776,0.4686184,0.33686545,0.58702314,0.5063113,0.59948885,0.19551481,0.14120595,0.07055485,0.42984304,-0.14225842,-0.27730793,-0.20309526,-0.14444603,835.6777,816.337,803.44324,803.44324,880.80585,-0.24359130859375,-0.0574951171875,0.97015380859375,5.00946044921875,-4.725341796875,0.844879150390625,1,1.0,1.0,1.0,1.0,65.00
2021-04-09 09:55:28.060,0.3944415,0.17396362,0.6792302,0.5229765,0.2878823,-0.054919366,0.27304745,0.3561021,0.3409945,0.26585734,0.4782689,0.6145146,0.24525441,0.05703021,0.02623055,0.4127422,-0.06932876,-0.22469525,-0.11912262,-0.060164317,780.07324,799.81683,804.2491,797.3993,780.07324,-0.2437744140625,-0.05877685546875,0.9732666015625,4.38140869140625,-4.5458984375,0.73272705078125,1,1.0,1.0,1.0,1.0,65.00
2021-04-09 09:55:28.583,0.10334191,-0.08142264,-0.018747719,0.07583953,0.20071602,-0.20044284,-0.37042657,0.23493186,0.31318614,0.25159928,0.07192741,0.47533825,0.24813832,0.057163466,0.072189346,0.36212024,-0.08190559,-0.16363443,-0.035978444,-0.097780906,800.2198,814.3223,804.65204,798.20514,635.42126,-0.25567626953125,-0.058349609375,0.970458984375,4.433746337890625,-3.94775390625,1.757049560546875,1,1.0,1.0,1.0,1.0,65.00
2021-04-09 09:55:29.124,-0.08887125,-0.25284055,-0.030977678,-0.055898037,0.07198921,-0.5235978,-0.3070881,0.2919124,0.13287975,0.14438654,-0.06786796,0.35379568,0.21323314,0.07612105,0.115753286,0.2535134,-0.12317526,-0.15473306,-0.086481705,-0.048149463,840.5128,802.6374,814.3223,822.7839,865.4945,-0.24871826171875,-0.05987548828125,0.9688720703125,4.583282470703125,-4.269256591796875,0.95703125,1,1.0,1.0,1.0,1.0,65.00
2021-04-09 09:55:29.656,0.35154945,0.9074869,0.62710816,0.42657006,0.56494826,0.50885594,0.33825418,0.47215924,0.7732287,0.5209074,0.3656329,0.6458258,0.22601153,0.05589869,0.15432407,0.29847962,-0.1271087,-0.08100955,-0.18839462,-0.0798886,772.8205,791.3553,799.41394,796.1905,768.3883,-0.255859375,-0.06536865234375,0.9683837890625,3.8580322265625,-4.366455078125,0.5682373046875,1,1.0,1.0,1.0,1.0,60.00
2021-04-09 09:55:30.175,0.44582698,1.0783107,0.78508383,0.8479186,0.5932374,0.67440724,0.48672792,0.6518532,0.7732287,0.5209074,0.3656329,0.67378116,0.30808794,0.04578548,0.13386619,0.3679008,-0.15786485,-0.096365266,-0.2935177,-0.027066542,747.03296,808.68134,801.4286,786.9231,430.7326,-0.25103759765625,-0.0718994140625,0.96905517578125,4.8748779296875,-2.504730224609375,1.532745361328125,1,1.0,1.0,1.0,1.0,60.00
2021-04-09 09:55:30.691,0.66145456,1.365057,1.2278852,1.1841098,0.63898253,0.95950633,0.83640534,0.8270995,0.79534495,0.51772004,0.7932839,0.7978902,0.453606,-0.008141745,0.2724422,0.52161795,-0.1547609,-0.0037659658,-0.14830077,-0.02262785,801.02563,780.07324,818.7546,814.3223,887.6557,-0.2591552734375,-0.0740966796875,0.9637451171875,3.84307861328125,-7.663726806640625,0.2691650390625,1,1.0,1.0,1.0,1.0,60.00
2021-04-09 09:55:31.214,0.5786662,1.4360211,1.1721722,1.1418836,0.56659484,1.0342616,0.7931859,0.7655923,0.9441492,0.51772004,0.8452961,0.8474587,0.50934607,-0.022210099,0.2890801,0.5235502,-0.14877978,0.013751462,-0.11569769,-0.08610585,780.07324,807.0696,811.0989,807.0696,600.7692,-0.25311279296875,-0.07720947265625,0.9688720703125,5.03936767578125,-4.433746337890625,1.472930908203125,1,1.0,1.0,1.0,1.0,60.00
2021-04-09 09:55:31.720,0.6426728,1.4360211,1.2753938,1.012759,0.57954186,1.0342616,0.8845341,0.64501643,0.9472086,0.51772004,0.8925319,0.87736046,0.45094463,-0.022210099,0.32045123,0.46780387,-0.13922621,0.013751462,-0.16223332,-0.18842848,825.6044,810.696,802.23444,798.20514,696.6667,-0.2584228515625,-0.07275390625,0.97674560546875,4.119720458984375,-5.286102294921875,0.97198486328125,1,1.0,1.0,1.0,1.0,60.00
2021-04-09 09:55:32.265,0.5905773,1.4360211,1.2657591,0.9814482,0.62265056,1.0342616,0.8174504,0.55159134,0.95861644,0.51772004,0.70236003,0.84554446,0.3373324,-0.022210099,0.24333307,0.35179353,-0.13835074,0.013751462,-0.2317619,-0.13940915,778.46155,811.50183,790.14655,803.0403,565.7143,-0.2498779296875,-0.072509765625,0.96875,4.089813232421875,-4.523468017578125,1.263580322265625,1,1.0,1.0,1.0,1.0,60.00
2021-04-09 09:55:32.780,0.632815,0.677957,1.2091742,1.0076567,0.34282526,0.2987694,0.76219875,0.5092496,0.8567075,0.47325966,0.69038135,0.78363705,0.18138464,0.29270327,0.24702032,0.2624347,-0.19921067,-0.40450105,-0.1922456,-0.012691066,789.34064,804.65204,797.3993,804.2491,661.2088,-0.248046875,-0.077392578125,0.9716796875,4.792633056640625,-5.136566162109375,0.94207763671875,1,1.0,1.0,1.0,1.0,60.00
2021-04-09 09:55:33.309,0.6710268,0.536313,0.84582883,0.94955146,0.454399,0.19266754,0.43822858,0.5095483,0.80496144,0.5973038,0.42372274,0.69040895,0.17834708,0.22986828,0.20207402,0.33965263,-0.14951919,-0.32082927,-0.14348057,0.03558532,838.0952,799.81683,790.14655,799.41394,878.7912,-0.254150390625,-0.07806396484375,0.96771240234375,4.2169189453125,-4.2767333984375,0.635528564453125,1,1.0,1.0,1.0,1.0,60.00
2021-04-09 09:55:33.812,0.6605033,0.3570053,0.40173712,0.6827869,0.4347296,0.17728445,0.29072714,0.4241492,0.76697123,0.5342647,0.3923042,0.63841444,0.17083092,0.22569995,0.1827792,0.36629498,-0.06863364,-0.2286114,-0.15255937,0.08536545,776.8498,794.57874,804.65204,802.23444,723.2601,-0.24810791015625,-0.07958984375,0.96527099609375,5.0244140625,-5.106658935546875,0.4486083984375,1,1.0,1.0,1.0,1.0,60.00
2021-04-09 09:55:34.328,0.5124223,0.21207276,0.26918998,0.58009183,0.4332124,0.121664,0.13905102,0.3761327,0.87929463,0.60723245,0.3258995,0.66150177,0.27569336,0.14249694,0.105401404,0.38510278,-0.08083777,-0.19067769,-0.123916395,0.011935414,857.03296,816.7399,804.2491,816.7399,1085.4945,-0.25103759765625,-0.08087158203125,0.96795654296875,4.329071044921875,-4.000091552734375,0.5084228515625,1,1.0,1.0,1.0,1.0,60.00
2021-04-09 09:55:34.856,0.47527093,1.0723002,1.0029182,0.7901306,0.35109875,0.6997578,0.5488998,0.50587034,0.8604064,0.7649387,0.60383403,0.81626546,0.34116194,0.12748675,0.07412477,0.335753,-0.08217375,-0.12793742,-0.15703194,-0.049104523,807.47253,803.8461,804.2491,804.65204,853.8095,-0.25164794921875,-0.08489990234375,0.96710205078125,3.820648193359375,-5.5926513671875,0.456085205078125,1,1.0,1.0,1.0,1.0,60.00
2021-04-09 09:55:35.391,0.5400068,1.1261721,1.0238469,0.8016418,0.25503856,0.6744666,0.5488533,0.5075776,0.844513,0.6694371,0.60383403,0.81626546,0.35147655,0.062387317,0.11968977,0.38311094,-0.14835873,-0.13264443,-0.18748935,-0.066387825,768.3883,783.69965,806.26373,795.78754,558.86444,-0.24908447265625,-0.07928466796875,0.96881103515625,5.316009521484375,-4.91973876953125,1.532745361328125,1,1.0,1.0,1.0,1.0,60.00
2021-04-09 09:55:35.909,0.68431085,1.2038598,1.0389075,0.76135564,0.38947728,0.7342772,0.54529625,0.48508382,0.72797036,0.67723495,0.62007475,0.81626546,0.37003875,0.07696634,0.1813099,0.37303746,-0.098053336,-0.09400302,-0.23135862,-0.05438783,819.15753,798.60803,813.1135,806.6667,813.91943,-0.25457763671875,-0.08306884765625,0.9678955078125,4.3365478515625,-3.611297607421875,0.8074951171875,1,1.0,1.0,1.0,1.0,60.00
2021-04-09 09:55:36.414,0.61722696,0.89758503,0.6300008,0.19085053,0.39162624,0.3552038,0.13395064,0.07996961,0.4848894,0.38169274,0.37029272,0.3410691,0.35369232,0.015268025,0.24457717,0.35725573,-0.12218628,-0.109985106,-0.2157763,-0.009787372,780.07324,813.91943,802.23444,803.44324,498.82785,-0.2427978515625,-0.0833740234375,0.9691162109375,4.6954345703125,-4.14215087890625,0.381317138671875,1,1.0,1.0,1.0,1.0,60.00
2021-04-09 09:55:36.625,,,,,,,,,,,,,,,,,,,,,,,,,,,,,,,,,,,,,,/muse/elements/blink
2021-04-09 09:55:36.933,0.93857247,0.95108,0.81546104,0.6205774,0.5860365,0.53773767,0.38197422,0.44362175,0.8580741,0.44462103,0.5307714,0.94627774,0.41557318,0.081682056,0.27213287,0.3151791,-0.08545986,-0.07634522,-0.17567565,0.04985637,754.68866,798.60803,802.6374,795.38464,529.85345,-0.2520751953125,-0.08819580078125,0.967529296875,4.822540283203125,-4.2169189453125,-0.007476806640625,1,1.0,1.0,1.0,1.0,60.00
2021-04-09 09:55:37.464,1.0386698,0.9633287,0.88715243,0.8409904,0.6680795,0.61938137,0.5095175,0.79569495,0.8446972,0.5388945,0.52926874,1.0045553,0.39846197,0.09849225,0.26656646,0.35536078,-0.09853985,-0.08630764,-0.10065781,0.07415431,834.87177,814.7253,807.47253,807.47253,978.71796,-0.25299072265625,-0.0897216796875,0.96429443359375,4.747772216796875,-3.282318115234375,1.024322509765625,1,1.0,1.0,1.0,1.0,60.00
2021-04-09 09:55:37.970,1.0733316,0.93915355,0.85828215,0.987624,0.64851683,0.616329,0.5289015,0.94255555,0.8446972,0.54178953,0.52568877,1.0045553,0.340454,0.1634769,0.18417718,0.32962352,-0.14498031,0.0133352885,-0.117676355,0.105134204,952.52747,822.7839,792.1612,899.7436,988.3883,-0.2568359375,-0.08770751953125,0.966552734375,5.420684814453125,-4.844970703125,2.332763671875,1,1.0,1.0,1.0,1.0,60.00
2021-04-09 09:55:38.031,,,,,,,,,,,,,,,,,,,,,,,,,,,,,,,,,,,,,,/muse/elements/blink
2021-04-09 09:55:38.475,0.7947057,0.92432916,0.7730221,0.8460899,0.4336262,0.6011024,0.4371033,0.97618705,0.68000954,0.49560606,0.28003606,0.8770069,0.19960596,0.14590053,0.14866923,0.24360101,-0.24219666,0.06622661,-0.08441108,-0.09307201,802.23444,799.81683,795.78754,802.6374,727.6923,-0.25537109375,-0.08343505859375,0.95904541015625,4.11224365234375,-6.1907958984375,1.218719482421875,1,1.0,1.0,1.0,1.0,60.00
2021-04-09 09:55:38.986,0.5487069,0.55785143,0.45547,0.8460899,-0.27234432,0.25111765,0.14986476,0.97618705,0.23737216,0.31133786,-0.039468877,0.8770069,0.11191273,0.11615606,0.07371873,0.24360101,-0.3181921,0.08480582,-0.25239098,-0.09307201,743.00366,796.1905,792.1612,786.1172,511.72162,-0.27947998046875,-0.067626953125,0.97442626953125,1.353302001953125,-8.1646728515625,12.134857177734375,1,1.0,1.0,1.0,1.0,60.00
2021-04-09 09:55:39.527,0.5487069,0.3246455,-0.06450309,0.8460899,-0.27234432,0.115252785,-0.19618148,0.97618705,0.23737216,0.25257498,-0.075284384,0.8770069,0.11191273,0.020738713,0.07515057,0.24360101,-0.3181921,-0.089757055,-0.097284615,-0.09307201,877.98535,807.47253,814.3223,825.2015,921.50183,-0.26995849609375,-0.0701904296875,0.95574951171875,6.901092529296875,-2.55706787109375,3.15521240234375,1,1.0,1.0,1.0,1.0,60.00
2021-04-09 09:55:40.032,0.4234013,0.11519045,0.12247878,0.885362,-0.098195374,-0.28079915,-0.112114444,0.06167363,0.70211715,-0.048029553,0.16259775,0.847367,0.22059934,0.05735756,0.15010233,0.45562536,0.07769145,-0.18886743,-0.08700287,-0.068267606,810.293,809.0842,794.17584,793.7729,682.96704,-0.27374267578125,-0.05413818359375,0.95196533203125,4.725341796875,-6.6693115234375,-2.639312744140625,1,1.0,1.0,1.0,1.0,60.00
2021-04-09 09:55:40.557,0.75886375,0.2882269,0.285139,1.0342863,0.20312575,-0.18893951,-0.05590103,0.152436,0.9989618,-0.049329657,0.19453025,0.965896,0.2689661,0.099132545,0.18463908,0.45902807,0.007486185,-0.22420654,-0.1366318,-0.030564362,760.32965,799.41394,801.4286,793.36993,517.3626,-0.25177001953125,-0.07452392578125,0.96820068359375,4.246826171875,-4.254302978515625,0.2093505859375,1,1.0,1.0,1.0,1.0,60.00
2021-04-09 09:55:41.073,0.6978925,0.41004932,0.32965112,0.9796478,0.27682102,-0.060140762,0.013309804,0.2668424,0.9989618,0.040760744,0.2572891,0.9385943,0.22846825,0.1526464,0.20225364,0.390788,-0.092909575,-0.25769255,-0.09518618,-0.038778923,787.72894,810.696,797.3993,797.3993,628.5714,-0.26287841796875,-0.07366943359375,0.9583740234375,4.403839111328125,-5.689849853515625,-0.022430419921875,1,1.0,1.0,1.0,1.0,60.00
2021-04-09 09:55:41.595,0.49030384,0.45321855,0.31528032,0.29588205,0.28582639,0.07532868,0.09814247,0.23111099,0.9986111,0.13383277,0.40081453,0.6118805,0.17248581,0.17546107,0.1864457,0.24646065,-0.20175533,-0.24513508,-0.08337321,0.027405234,754.2857,798.20514,797.3993,790.54944,514.94507,-0.25701904296875,-0.07147216796875,0.97015380859375,2.4224853515625,-5.405731201171875,-1.876678466796875,1,1.0,1.0,1.0,1.0,60.00
2021-04-09 09:55:42.102,0.14451687,0.6799477,0.4035801,0.34738922,0.25953752,0.31840765,0.32437736,0.20869616,0.5178988,0.5288428,0.45875022,0.6118805,0.08574495,0.1575243,0.14751886,0.21094334,-0.17255309,-0.1606609,-0.019988233,0.026901232,781.28204,799.41394,803.8461,799.41394,827.619,-0.25445556640625,-0.07867431640625,0.9688720703125,4.418792724609375,-4.882354736328125,2.452392578125,1,1.0,1.0,1.0,1.0,60.00
2021-04-09 09:55:42.615,0.39738566,0.9585411,0.69153965,0.6401164,0.38089192,0.6203807,0.48589408,0.19039099,0.4388487,0.61850643,0.5139637,0.6118805,0.08887568,0.20344211,0.15860488,0.18926917,-0.10870395,-0.10108052,-0.056196935,0.09024041,959.7802,816.337,788.5348,925.12823,1060.5128,-0.25482177734375,-0.08880615234375,0.97076416015625,4.029998779296875,-3.8580322265625,0.635528564453125,1,1.0,1.0,1.0,1.0,60.00
2021-04-09 09:55:42.656,,,,,,,,,,,,,,,,,,,,,,,,,,,,,,,,,,,,,,/muse/elements/blink
2021-04-09 09:55:43.148,0.544483,1.1799705,0.81112045,0.7315458,0.486724,0.83401346,0.56212723,0.17732431,0.3255533,0.6281724,0.45004115,0.434369,0.040623616,0.17747542,0.13030955,0.090631284,-0.05746457,-0.046666022,-0.06109749,0.084531456,841.7216,809.4872,804.2491,811.50183,939.6337,-0.25634765625,-0.07672119140625,0.972412109375,4.179534912109375,-3.768310546875,1.06170654296875,1,1.0,1.0,1.0,1.0,60.00
2021-04-09 09:55:43.655,0.73921543,1.2117134,0.9375606,0.94381565,0.5868541,0.83322257,0.5488027,0.20190118,0.19058244,0.6118369,0.4236248,0.08644498,0.055995274,0.17311087,0.16709512,0.016608668,-0.07523256,-0.093065664,-0.12928379,0.15237716,797.3993,808.2784,790.14655,809.89014,710.7692,-0.2569580078125,-0.08697509765625,0.966796875,4.927215576171875,-4.2767333984375,0.291595458984375,1,1.0,1.0,1.0,1.0,60.00
2021-04-09 09:55:44.191,0.73921543,1.0773482,0.25291207,0.94381565,0.5868541,0.69299364,-0.15143079,0.20190118,0.19058244,0.40256166,0.15426433,0.08644498,0.055995274,0.008960595,0.3307083,0.016608668,-0.07523256,-0.104072094,-0.1551889,0.15237716,751.4652,793.36993,797.3993,792.5641,574.17584,-0.25592041015625,-0.07574462890625,0.970947265625,5.076751708984375,-5.27862548828125,1.60003662109375,1,1.0,1.0,1.0,1.0,60.00
2021-04-09 09:55:44.500,,,,,,,,,,,,,,,,,,,,,,,,,,,,,,,,,,,,,,/muse/elements/blink
2021-04-09 09:55:44.696,1.2603503,0.7411021,-0.2963633,1.079972,0.8698317,0.31472355,-0.53067935,0.51836437,0.6835258,0.3238285,0.06595717,0.48139274,0.35746637,-0.077144094,0.25374293,0.5198252,-0.24316059,-0.1747762,-0.101937436,0.0074884496,798.60803,803.0403,796.1905,799.41394,745.82416,-0.2479248046875,-0.068603515625,0.97955322265625,5.076751708984375,-4.702911376953125,1.24114990234375,1,1.0,1.0,1.0,1.0,60.00
2021-04-09 09:55:45.217,1.2607775,0.32806963,-0.22969043,1.133839,0.9299255,0.004433225,-0.3254906,0.8363804,0.90099335,0.26548514,0.080154866,0.89444,0.44223866,0.08072464,0.1773762,0.55095303,-0.24466689,-0.23797308,-0.12622838,-0.07336822,850.58606,810.696,802.6374,808.68134,925.12823,-0.246826171875,-0.06732177734375,0.9727783203125,4.18701171875,-4.239349365234375,0.79254150390625,1,1.0,1.0,1.0,1.0,60.00
2021-04-09 09:55:45.723,1.125301,0.27822745,-0.19738169,1.0118629,0.8040607,-0.29244426,-0.31637064,0.7803777,0.89457935,0.11156271,0.08869431,0.89444,0.41114962,0.2112803,0.06508551,0.49347323,-0.2560471,-0.29036134,-0.11750872,-0.053466227,803.8461,793.7729,801.4286,790.54944,900.54944,-0.24462890625,-0.0712890625,0.9708251953125,4.56085205078125,-4.418792724609375,0.186920166015625,1,1.0,1.0,1.0,1.0,60.00
2021-04-09 09:55:46.252,0.9345491,0.19283485,-0.197192,0.8662302,0.66997856,-0.18856408,-0.26605877,0.70674425,0.89457935,0.13700339,0.08600267,0.8930592,0.33573696,0.27313274,0.05039572,0.4279414,-0.24240234,-0.21314718,-0.17449781,-0.09260275,767.5824,801.4286,796.1905,787.326,539.12085,-0.24957275390625,-0.0731201171875,0.9654541015625,4.3963623046875,-4.90478515625,1.12152099609375,1,1.0,1.0,1.0,1.0,60.00
2021-04-09 09:55:46.532,,,,,,,,,,,,,,,,,,,,,,,,,,,,,,,,,,,,,,/muse/elements/blink
2021-04-09 09:55:46.763,0.48941582,0.04343999,-0.07799319,0.5158854,0.2308208,-0.09295849,-0.2175778,0.33246696,-0.030423423,0.08724788,0.07507014,0.391671,0.16781732,0.16290125,0.05927767,0.29808512,-0.24004589,-0.17447819,-0.19726959,-0.03536497,765.56775,1299.8535,811.50183,750.65936,705.5311,-0.24078369140625,-0.0518798828125,0.96295166015625,10.400238037109375,-2.145843505859375,-2.58697509765625,1,1.0,1.0,1.0,1.0,60.00
2021-04-09 09:55:47.059,,,,,,,,,,,,,,,,,,,,,,,,,,,,,,,,,,,,,,/muse/elements/blink
2021-04-09 09:55:47.266,0.51768583,-0.25679448,-0.010592919,0.570014,0.28703752,-0.009164343,-0.13479032,0.42021814,-0.045842897,0.08724788,-0.08041249,0.1617472,0.2151701,0.10151695,0.023160586,0.24506903,-0.2393093,-0.12427502,-0.27722958,-0.030793257,803.44324,736.1539,796.1905,791.75824,810.293,-0.24822998046875,0.004638671875,0.97900390625,6.5496826171875,-3.940277099609375,2.7215576171875,1,1.0,1.0,1.0,1.0,60.00
2021-04-09 09:55:47.757,,,,,,,,,,,,,,,,,,,,,,,,,,,,,,,,,,,,,,/muse/elements/blink
2021-04-09 09:55:47.795,0.5901288,-0.29661912,0.14828542,0.6038544,0.3067627,-0.035807893,0.0369926,0.40309656,-0.056467865,-0.11401018,-0.20918867,0.03390444,0.23292643,-0.092909105,0.07600433,0.17592748,-0.23666054,-0.2055737,-0.250908,-0.041498866,857.8388,785.31134,792.96704,812.71063,1057.2894,-0.2762451171875,-0.03668212890625,0.96331787109375,4.029998779296875,-4.127197265625,-2.729034423828125,1,1.0,1.0,1.0,1.0,60.00
2021-04-09 09:55:48.322,0.5901288,-0.29661912,0.059616998,0.6038544,0.3067627,-0.035807893,-0.12585911,0.40309656,-0.056467865,-0.11401018,7.071492E-4,0.03390444,0.23292643,-0.092909105,0.08899698,0.17592748,-0.23666054,-0.2055737,-0.22566684,-0.041498866,846.1539,805.05493,815.12823,835.2747,784.90845,-0.27734375,-0.0364990234375,0.96392822265625,3.820648193359375,-4.8748779296875,3.058013916015625,1,1.0,1.0,1.0,1.0,60.00
2021-04-09 09:55:48.874,0.5901288,0.8888096,0.7363965,0.6038544,0.3067627,0.62709343,0.38629007,0.40309656,-0.056467865,0.42319933,0.5107052,0.03390444,0.23292643,0.21182528,0.06801102,0.17592748,-0.23666054,-0.09529698,-0.10124379,-0.041498866,866.30035,805.05493,794.57874,821.5751,938.8278,-0.2689208984375,-0.03094482421875,0.966552734375,4.448699951171875,-4.2169189453125,0.201873779296875,1,1.0,1.0,1.0,1.0,60.00
2021-04-09 09:55:49.387,1.2185318,0.9139827,0.79965246,1.178147,0.45050073,0.49767768,0.4035939,0.68852806,0.84765315,0.47221762,0.53829473,0.6673004,0.25104076,0.1252901,0.07773152,0.22021341,-0.09715956,-0.1159005,-0.052633863,-0.14171809,823.9927,796.1905,801.4286,789.34064,1053.2601,-0.2725830078125,-0.04058837890625,0.964111328125,4.32159423828125,-3.94775390625,0.2392578125,1,1.0,1.0,1.0,1.0,60.00
2021-04-09 09:55:49.897,1.2275352,0.80812055,0.81751925,1.1113625,0.7060717,0.3702332,0.38598877,0.8342847,1.1323422,0.47221762,0.54386,1.1846861,0.377095,0.08372425,0.093537666,0.4917205,0.01756931,-0.052890774,-0.0055481666,-0.054063,725.2747,780.87915,803.8461,768.7912,469.81686,-0.26898193359375,-0.03619384765625,0.966796875,4.53094482421875,-4.68048095703125,0.904693603515625,1,1.0,1.0,1.0,1.0,60.00
2021-04-09 09:55:50.413,1.1586484,0.62842524,0.562881,1.0832154,0.8163294,0.19436625,0.14218049,0.86516976,1.1456842,0.3558692,0.5240143,1.2013344,0.44072324,-0.0010966497,0.14122598,0.55551475,0.029504135,-0.03049828,-0.0547404,-0.024172882,766.77655,796.99634,804.2491,795.38464,699.4872,-0.277587890625,-0.03338623046875,0.9661865234375,4.6356201171875,-4.32159423828125,0.276641845703125,1,1.0,1.0,1.0,1.0,65.00
2021-04-09 09:55:50.947,0.98486817,0.191591,0.1414508,0.92394316,0.80684876,0.094411455,-0.192528,0.82627606,1.126951,0.21084526,0.19658215,1.2013344,0.45041215,0.0058301003,0.115113415,0.57840383,-0.0051469444,-0.073872924,-0.109352514,-0.02141549,750.2564,794.17584,803.44324,796.99634,469.011,-0.267333984375,-0.0390625,0.9627685546875,4.844970703125,-5.14404296875,1.592559814453125,1,1.0,1.0,1.0,1.0,65.00
2021-04-09 09:55:51.458,0.65664315,0.4316035,0.30157655,0.8353182,0.64578587,0.34423047,-0.013453458,0.61118346,1.0613554,0.33404374,0.3742741,1.1817762,0.3541603,-0.037728745,0.10487802,0.41999713,-0.17920765,-0.20904453,-0.18625213,-0.15864468,866.7033,820.7692,790.9524,809.89014,961.79486,-0.2667236328125,-0.04248046875,0.96539306640625,4.306640625,-5.689849853515625,0.964508056640625,1,1.0,1.0,1.0,1.0,65.00
2021-04-09 09:55:51.963,0.5666946,0.622073,0.6086971,0.99264354,0.43300077,0.38804457,0.16498561,0.62905383,0.5152833,0.5223872,0.36768323,0.60172796,0.20380461,0.09675048,0.08958899,0.3384305,-0.16588926,-0.1960366,-0.24331799,-0.23111595,863.8828,801.8315,792.5641,823.9927,1042.7839,-0.26739501953125,-0.04132080078125,0.9627685546875,4.852447509765625,-5.48797607421875,0.994415283203125,1,1.0,1.0,1.0,1.0,65.00
2021-04-09 09:55:52.473,0.6136631,0.73127395,0.7051028,1.0505993,0.49657363,0.40284172,0.21204194,0.7531818,0.49165776,0.52205265,0.36768323,0.60172796,0.17133026,0.12586343,0.08535266,0.37923887,-0.089593284,-0.15554263,-0.1922259,-0.17837016,812.71063,794.17584,783.69965,854.21246,517.3626,-0.26373291015625,-0.03173828125,0.9658203125,4.807586669921875,-4.717864990234375,0.5682373046875,1,1.0,1.0,1.0,1.0,65.00
2021-04-09 09:55:52.532,,,,,,,,,,,,,,,,,,,,,,,,,,,,,,,,,,,,,,/muse/elements/blink
2021-04-09 09:55:53.015,0.7341936,0.6984807,0.9013483,1.126638,0.56438816,0.31104413,0.41557932,0.87878084,0.48104137,0.4714506,0.2501989,0.4957629,0.16072974,0.15975569,0.047003694,0.45069987,0.030035233,-0.097505756,-0.23487663,-0.09705568,772.01465,784.5055,812.71063,795.38464,744.61536,-0.26483154296875,-0.037353515625,0.96453857421875,4.8150634765625,-5.5029296875,1.024322509765625,1,1.0,1.0,1.0,1.0,65.00
2021-04-09 09:55:53.522,0.54634625,0.6090747,0.88740575,1.0697477,0.64837945,0.1862573,0.39017034,0.969159,0.41087094,0.4278879,0.11672309,0.4580591,0.18570022,0.076071784,0.031917397,0.46583244,0.06393408,-0.15377368,-0.26555708,-0.022526126,752.27106,796.5934,809.89014,791.75824,501.24542,-0.2857666015625,-0.05462646484375,0.96539306640625,5.60760498046875,-7.2076416015625,3.297271728515625,1,1.0,1.0,1.0,1.0,65.00
2021-04-09 09:55:53.987,,,,,,,,,,,,,,,,,,,,,,,,,,,,,,,,,,,,,,/muse/elements/blink
2021-04-09 09:55:54.031,0.54634625,0.57070696,0.8991449,1.0697477,0.64837945,0.19632965,0.46368346,0.969159,0.41087094,0.42735985,0.11901793,0.4580591,0.18570022,0.10445001,0.15834066,0.46583244,0.06393408,-0.1576391,-0.34918585,-0.022526126,810.696,1234.5787,810.696,812.3077,805.8608,-0.11016845703125,0.061279296875,0.97857666015625,12.254486083984375,-30.804443359375,8.486175537109375,1,1.0,1.0,1.0,1.0,65.00
2021-04-09 09:55:54.582,0.54634625,0.41609007,0.84709567,1.0697477,0.64837945,0.09970917,0.5291875,0.969159,0.41087094,0.42735985,0.11572475,0.4580591,0.18570022,0.15777211,0.22307767,0.46583244,0.06393408,-0.1904634,-0.22997501,-0.022526126,871.13556,687.8022,805.4579,812.3077,956.9597,0.0419921875,0.09686279296875,1.01116943359375,8.575897216796875,-6.183319091796875,-4.044952392578125,1,1.0,1.0,1.0,1.0,65.00
2021-04-09 09:55:55.121,0.54634625,0.30429104,0.91062796,1.0697477,0.64837945,0.08685984,0.6498082,0.969159,0.41087094,0.3173566,-0.032892704,0.4580591,0.18570022,0.14742897,0.27648094,0.46583244,0.06393408,-0.2634636,-0.16138306,-0.022526126,841.31866,668.86444,804.2491,809.0842,834.4689,-0.0068359375,0.05950927734375,1.0086669921875,3.289794921875,-2.6019287109375,-0.95703125,1,2.0,1.0,1.0,2.0,65.00
2021-04-09 09:55:55.658,0.6986524,0.30429104,1.198901,0.64484596,0.3881011,0.08685984,0.7720005,0.32702565,0.6156789,0.3173566,0.5223422,0.6324124,0.45899642,0.14742897,0.46990234,0.7345733,0.039965738,-0.2634636,0.22923137,0.23542851,770.0,744.21246,798.20514,788.1319,412.60074,-0.063232421875,0.032958984375,0.99609375,5.001983642578125,-2.332763671875,-3.536529541015625,1,1.0,1.0,1.0,1.0,65.00
2021-04-09 09:55:56.166,0.8755997,0.30429104,1.230346,0.6120484,0.4038784,0.08685984,0.4972835,0.35334477,0.68780327,0.3173566,0.58734584,0.7079306,0.49691892,0.14742897,0.5783444,0.648745,-0.01530268,-0.2634636,0.25445035,0.090883195,801.02563,93.47985,817.9487,794.57874,711.5751,-0.05804443359375,0.03369140625,1.000732421875,4.792633056640625,-4.68048095703125,0.725250244140625,1,1.0,1.0,1.0,1.0,65.00
2021-04-09 09:55:56.684,0.9895569,0.30429104,1.230346,0.8230046,0.5046129,0.08685984,0.4972835,0.48003778,0.6969882,0.3173566,0.58734584,0.70822215,0.49747697,0.14742897,0.5783444,0.5905747,0.017710347,-0.2634636,0.25445035,0.090713136,788.1319,781.28204,829.2308,796.5934,910.6227,-0.06036376953125,0.04486083984375,1.00567626953125,4.02252197265625,-4.05242919921875,1.114044189453125,1,1.0,1.0,1.0,1.0,65.00
2021-04-09 09:55:57.195,1.0633156,0.30429104,1.2762597,0.9609813,0.690517,0.08685984,0.5423133,0.61459213,0.7178181,0.3173566,0.58685094,0.7390685,0.45532453,0.14742897,0.57010543,0.44000408,-0.022308575,-0.2634636,0.20251255,-0.031227112,854.61536,807.0696,803.44324,814.7253,1013.36993,-0.0616455078125,0.03314208984375,1.000732421875,4.403839111328125,-4.91973876953125,1.577606201171875,1,1.0,1.0,1.0,1.0,65.00
2021-04-09 09:55:57.700,1.058376,0.30429104,0.88648653,1.0367345,0.8158069,0.08685984,0.28998852,0.691473,0.7298038,0.3173566,0.26034707,0.6967836,0.34366867,0.14742897,0.10559084,0.39249924,-0.08675316,-0.2634636,-0.0024194063,-0.079729974,845.7509,805.4579,796.1905,812.3077,1001.28204,-0.0643310546875,0.03997802734375,1.00274658203125,3.9776611328125,-4.089813232421875,0.16448974609375,1,1.0,1.0,1.0,1.0,65.00
2021-04-09 09:55:58.245,0.9681031,0.9582152,0.8694237,0.7973802,0.72110045,-0.049892947,0.42753378,0.7124403,0.8082093,0.38782728,0.3085524,0.7048456,0.36204323,0.25484872,0.16501588,0.41440445,-0.13867806,-0.07760879,-0.062743485,-0.07247759,854.21246,815.9341,807.8755,821.978,1010.14655,-0.0809326171875,0.02642822265625,1.00299072265625,4.486083984375,-4.2767333984375,1.114044189453125,1,1.0,1.0,1.0,1.0,65.00
2021-04-09 09:55:58.779,0.78554016,0.7563067,0.7257968,0.52780306,0.45203686,-0.18279497,0.30435404,0.5738655,0.74484545,0.38782728,0.30938888,0.57611316,0.34321913,0.2113718,0.22734575,0.33617264,-0.13068645,-0.16771147,-0.06818525,-0.07957256,864.2857,813.91943,803.44324,817.5458,1023.0403,-0.076171875,0.027099609375,1.0029296875,4.4561767578125,-4.32159423828125,0.7476806640625,1,1.0,1.0,1.0,1.0,65.00
2021-04-09 09:55:59.288,0.74583983,0.82005686,0.92388463,0.3865943,0.51638216,0.12698263,0.42965555,0.5402662,0.67058915,0.48047352,0.26996648,0.57353145,0.3159769,0.20604585,0.29690456,0.25766915,-0.040221266,-0.12373775,-0.014211259,0.016462617,842.1245,801.4286,798.20514,807.8755,895.7143,-0.07305908203125,0.02862548828125,0.9989013671875,3.9178466796875,-4.44122314453125,2.250518798828125,1,1.0,1.0,1.0,1.0,65.00
2021-04-09 09:55:59.809,0.6087061,0.6168282,0.89723873,0.20939395,0.5033171,0.15326382,0.33330753,0.29266003,0.5371349,0.44546393,0.41365212,0.4890496,0.2515678,0.1573467,0.29481834,0.21496506,-0.08567985,-0.14777385,-0.00504102,-0.011925008,769.59705,793.36993,798.60803,789.7436,738.97437,-0.0797119140625,0.03131103515625,0.999755859375,4.209442138671875,-4.523468017578125,1.024322509765625,1,1.0,1.0,1.0,1.0,65.00
2021-04-09 09:56:00.342,0.7664251,0.7383631,0.99923795,0.30872536,0.57302856,0.3247845,0.42459914,0.35222384,0.75512403,0.444041,0.53064233,0.5565867,0.22382951,0.16684918,0.22203457,0.29946667,-0.08825816,-0.002418996,-0.06292647,0.091941066,751.8681,787.326,801.8315,789.7436,526.2271,-0.07476806640625,0.02801513671875,1.004150390625,4.23187255859375,-4.643096923828125,1.24114990234375,1,1.0,1.0,1.0,1.0,65.00
2021-04-09 09:56:00.874,0.7456623,0.61642456,0.70945376,0.29247174,0.4841553,0.21010862,0.27514604,0.22060628,0.8753569,0.3202402,0.56273943,0.59456843,0.21517356,0.14845493,0.11588129,0.24330115,-0.11580532,-0.03276228,-0.13850074,0.06141306,802.23444,796.99634,807.0696,811.0989,821.1722,-0.073974609375,0.029541015625,1.0008544921875,4.269256591796875,-4.493560791015625,0.889739990234375,1,1.0,1.0,1.0,1.0,65.00
2021-04-09 09:56:01.403,0.9275611,0.85571796,0.8054487,0.4634445,0.6909048,0.3629497,0.42400607,0.2385609,0.90299183,0.49927145,0.5782802,0.6023052,0.25726113,0.22144769,0.10011999,0.32530513,-0.012285325,-0.040974684,-0.018729163,0.04992884,863.0769,815.9341,805.4579,821.5751,1095.1648,-0.07220458984375,0.02581787109375,1.00079345703125,4.164581298828125,-4.8748779296875,1.15142822265625,1,1.0,1.0,1.0,1.0,65.00
2021-04-09 09:56:01.908,0.8332254,0.7515608,0.6416808,0.51714504,0.6199108,0.24289145,0.34493682,0.095932886,0.8990163,0.49927145,0.36630818,0.51459634,0.30377683,0.2874032,0.059685398,0.32901353,0.085083075,-0.03253465,0.018607432,0.080029316,826.8132,801.4286,799.41394,807.8755,926.337,-0.068115234375,0.0341796875,1.0023193359375,4.912261962890625,-4.687957763671875,1.727142333984375,1,1.0,1.0,1.0,1.0,65.00
2021-04-09 09:56:02.423,0.7428557,0.63609856,0.5595934,0.5325776,0.5108068,0.13046214,0.260882,0.088456586,0.8539036,0.49927145,0.36630818,0.34569445,0.30593568,0.3247471,0.11611222,0.30921134,0.09346564,-0.03456208,0.008545784,0.110563226,867.1062,807.8755,793.36993,812.3077,1032.3077,-0.06732177734375,0.02789306640625,1.00103759765625,4.373931884765625,-4.50103759765625,0.7177734375,1,1.0,1.0,1.0,1.0,65.00
2021-04-09 09:56:02.961,0.74739206,0.27879307,0.49764615,0.4606084,0.25726417,0.08840512,0.15246205,0.33348498,0.6896825,0.0032950095,0.60886264,0.498698,0.32117352,0.2621109,0.10293928,0.2766666,0.046049338,-0.048314404,-0.13427317,0.09399981,798.60803,798.20514,808.68134,800.2198,720.84247,-0.06646728515625,0.02947998046875,0.9984130859375,4.822540283203125,-4.47113037109375,0.67291259765625,1,1.0,1.0,1.0,1.0,65.00
2021-04-09 09:56:03.489,0.8673433,0.43429792,0.63792014,0.4008385,0.32160854,0.20694129,0.2598613,0.5040977,0.6951447,0.0032950095,0.6093899,0.5925657,0.29398385,0.07628539,0.1636621,0.31290263,-0.1295642,-0.11656713,-0.12955011,-0.042007323,734.1392,792.96704,799.81683,773.22345,437.98535,-0.072265625,0.0242919921875,0.99755859375,4.38140869140625,-4.329071044921875,1.218719482421875,1,1.0,1.0,1.0,1.0,65.00
2021-04-09 09:56:04.023,0.8438044,0.52676713,0.70265085,0.45196858,0.40725574,0.2789329,0.33576632,0.5904593,0.97352654,0.56938666,0.6093899,0.5943632,0.42237264,0.055563323,0.15753543,0.38991794,-0.037654188,-0.07232244,-0.08319538,-0.038940713,759.5238,789.7436,801.02563,791.3553,717.619,-0.072265625,0.024658203125,0.9979248046875,4.5458984375,-4.53094482421875,0.650482177734375,1,1.0,1.0,1.0,1.0,65.00
2021-04-09 09:56:04.545,0.4967083,0.41403347,0.61727285,0.5785265,0.5372363,0.10331371,0.17014188,0.52433145,1.0199288,0.6345895,0.27846405,0.5707056,0.4381334,0.10767877,0.16205248,0.35761666,0.012675801,-0.09283808,-0.06839918,-0.028673796,743.00366,801.02563,798.20514,784.5055,579.41394,-0.06951904296875,0.03125,0.99786376953125,4.11224365234375,-3.768310546875,0.530853271484375,1,1.0,1.0,1.0,1.0,65.00
2021-04-09 09:56:05.082,0.45318693,0.661542,0.82358587,0.7145031,0.59273213,0.17415497,0.34905025,0.5052765,1.0199288,0.6491151,0.43337056,0.56591487,0.4543089,0.16550538,0.14656347,0.35830474,0.054094836,-0.22206572,-0.13860607,0.015064439,859.45056,813.91943,807.47253,817.1429,1014.17584,-0.0809326171875,0.02752685546875,1.00555419921875,4.85992431640625,-4.246826171875,0.560760498046875,1,1.0,1.0,1.0,1.0,65.00
2021-04-09 09:56:05.595,0.4537384,0.7535341,0.8640523,0.71259475,0.56912786,0.18136157,0.38393086,0.39248812,1.0199229,0.6491151,0.43337056,0.5578904,0.35124627,0.13632274,0.19555615,0.32716167,-0.028023621,-0.31804812,-0.16662982,-0.045179,882.8205,794.57874,825.2015,833.2601,1046.4103,-0.08154296875,0.0242919921875,1.00054931640625,4.164581298828125,-4.373931884765625,0.59814453125,1,1.0,1.0,1.0,1.0,65.00
2021-04-09 09:56:06.111,0.33214876,0.6880078,0.72968024,0.60420376,0.3123995,0.072805226,0.30930716,0.27239534,0.25965652,0.3815159,0.4330183,0.32567286,0.2843374,0.040805306,0.22329645,0.24551018,-0.1232507,-0.37974396,-0.19730139,-0.08904662,829.2308,811.9048,793.7729,802.23444,849.3773,-0.074462890625,0.03265380859375,1.003173828125,3.00567626953125,-3.342132568359375,1.682281494140625,1,1.0,1.0,1.0,1.0,65.00
2021-04-09 09:56:06.618,0.29751098,0.5280301,0.5102998,0.476807,0.30750394,0.100243576,0.13892075,0.23346846,0.4307953,0.26707146,0.37146917,0.449659,0.34715536,0.010885727,0.20900758,0.28742176,-0.16377023,-0.27911088,-0.20635177,-0.13727292,766.77655,797.8022,799.41394,786.9231,377.14285,-0.11798095703125,-0.008544921875,0.993896484375,1.54022216796875,-1.816864013671875,-1.92901611328125,1,1.0,1.0,1.0,1.0,65.00
2021-04-09 09:56:07.143,0.25583422,0.2813542,0.3656347,0.40935436,0.26790035,0.08553455,0.007020363,0.27660313,0.40146825,0.17649075,0.32271716,0.44310042,0.34498367,0.11220286,0.22165659,0.36115032,-0.1575398,-0.2021866,-0.14265141,-0.10361464,865.89746,813.91943,807.8755,835.2747,1062.5275,-0.1436767578125,-0.0208740234375,0.99298095703125,2.58697509765625,-1.652374267578125,0.082244873046875,1,1.0,1.0,1.0,1.0,65.00
2021-04-09 09:56:07.650,0.26326466,0.23640914,0.3393044,0.24725029,0.39014864,0.003574624,0.01814361,0.18856111,0.44785577,0.12873834,0.34167063,0.42206904,0.31333345,0.1487623,0.27753025,0.37315446,-0.13478175,-0.11472268,-0.072986186,-0.029131133,821.1722,801.4286,801.4286,812.3077,921.50183,-0.15966796875,-0.0579833984375,0.99798583984375,0.127105712890625,-1.80938720703125,-1.472930908203125,1,1.0,1.0,1.0,1.0,65.00
2021-04-09 09:56:08.176,0.30432054,0.024854774,0.23083566,0.27723387,0.30973887,-0.2060966,-0.09064665,0.07680511,0.5106018,0.111785844,0.26930043,0.4024464,0.28855693,0.1495657,0.33561695,0.2907277,-0.17059188,-0.08999941,-0.042055435,-0.037011955,592.3077,798.20514,817.5458,594.3223,776.04395,-0.28851318359375,-0.006591796875,0.9586181640625,0.37384033203125,-4.0673828125,4.0972900390625,1,1.0,1.0,1.0,1.0,65.00
2021-04-09 09:56:08.337,,,,,,,,,,,,,,,,,,,,,,,,,,,,,,,,,,,,,,/muse/elements/blink
2021-04-09 09:56:08.719,0.37827906,0.5272804,0.5904429,0.3596816,0.38505372,0.33726332,0.44452897,0.063334316,0.4791058,0.8554906,0.8285055,0.39973772,0.34069762,0.11243624,0.28193516,0.2136553,-0.18261708,-0.07497547,-0.022913046,-0.019651495,850.18317,805.8608,803.44324,812.71063,1041.978,-0.1656494140625,-0.03741455078125,1.00128173828125,3.24493408203125,-2.908477783203125,0.695343017578125,1,1.0,1.0,1.0,1.0,65.00
2021-04-09 09:56:09.246,0.5703162,0.8688335,0.7758363,0.61973983,0.17197755,0.60334027,0.65248793,-0.012849212,0.386373,0.90127194,0.8562686,0.26028258,0.36363646,0.20527199,0.291701,0.22523265,-0.16712081,-0.10560405,-0.023146158,-0.050708305,748.24176,801.4286,801.8315,780.4762,435.9707,-0.1656494140625,0.0281982421875,0.99029541015625,6.47491455078125,-9.031982421875,-1.24114990234375,1,1.0,1.0,1.0,1.0,65.00
2021-04-09 09:56:09.759,0.5703162,1.0565062,0.91088873,0.61973983,0.17197755,0.735692,0.73192185,-0.012849212,0.386373,0.93482655,0.8569889,0.26028258,0.36363646,0.25589564,0.30343142,0.22523265,-0.16712081,-0.12364575,-0.07306889,-0.050708305,866.7033,801.8315,820.3663,824.7985,1126.5934,-0.18939208984375,-0.0301513671875,0.98480224609375,2.609405517578125,-0.58319091796875,3.887939453125,1,1.0,1.0,1.0,1.0,65.00
2021-04-09 09:56:10.263,0.8823553,1.1218348,0.9069661,1.0202745,0.55938566,0.6782448,0.63894784,0.88273126,0.57497257,0.93606627,0.8402073,0.7965807,0.52670246,0.25550145,0.34428155,0.41293517,0.34877858,-0.14829224,-0.1884355,0.1255878,733.73627,797.3993,802.6374,786.52014,456.11722,-0.20135498046875,-0.0125732421875,0.98272705078125,4.807586669921875,-2.893524169921875,3.671112060546875,1,1.0,1.0,1.0,1.0,65.00
2021-04-09 09:56:10.786,0.7854239,1.0256538,0.8040807,0.7928957,0.431586,0.49488157,0.4174139,0.65093136,0.6178009,0.57346785,0.39908844,0.7975197,0.41521454,0.1482895,0.31017777,0.3505212,0.14526449,-0.19315247,-0.23831196,-0.017894818,794.57874,804.2491,798.20514,801.4286,761.9414,-0.2164306640625,-0.02984619140625,0.979248046875,6.078643798828125,-4.702911376953125,0.814971923828125,1,1.0,1.0,1.0,1.0,65.00
2021-04-09 09:56:11.329,0.6683528,0.9008511,0.66398287,0.6476747,0.33864343,0.32452852,0.29872885,0.500015,0.6178009,0.57346785,0.37747556,0.7927621,0.37372234,0.09301772,0.22299455,0.31018063,0.03135,-0.24530008,-0.27838168,-0.07018164,770.40295,794.57874,796.99634,783.69965,649.92676,-0.2249755859375,-0.0174560546875,0.98211669921875,5.899200439453125,-3.880462646484375,1.9140625,1,1.0,1.0,1.0,1.0,65.00
2021-04-09 09:56:11.857,0.24023706,0.23938003,0.12802519,0.08222241,0.24840361,-0.09702239,-0.14322005,0.054426737,0.47431424,0.16054963,0.13962121,0.450102,0.19815911,0.06765614,0.068524614,0.16009046,-0.22364041,-0.20620912,-0.13180695,-0.1950428,833.2601,828.4249,786.9231,797.8022,819.15753,-0.2169189453125,-0.01702880859375,0.974365234375,4.4561767578125,-4.747772216796875,-0.04486083984375,1,1.0,1.0,1.0,1.0,65.00
2021-04-09 09:56:12.391,0.2667114,0.27590165,0.14350048,-0.029068416,0.3182989,0.067963116,0.1267585,0.16794887,0.25411013,0.063263275,0.38427988,0.2898977,0.1882417,0.1158013,0.07184162,0.16877879,-0.13337386,-0.10485239,-0.14249505,-0.17507833,867.1062,806.26373,796.5934,813.1135,981.13556,-0.21759033203125,-0.02392578125,0.9788818359375,4.18701171875,-4.897308349609375,0.904693603515625,1,1.0,1.0,1.0,1.0,65.00
2021-04-09 09:56:12.916,0.47488293,0.6058848,0.29792032,0.102852486,0.29226398,0.16289605,0.23029026,0.34295443,0.12278835,0.11767738,0.4281923,0.2829062,0.14372024,0.115117505,0.14210582,0.16580148,-0.10075764,-0.10558979,-0.15779461,-0.18451843,805.8608,817.1429,809.4872,798.60803,656.3736,-0.234619140625,-0.02850341796875,0.97052001953125,4.104766845703125,-7.40203857421875,7.0880126953125,1,1.0,1.0,1.0,1.0,65.00
2021-04-09 09:56:13.452,0.45384118,0.6408798,0.2639684,0.1628573,0.15603484,0.19009455,0.19260497,0.2516411,0.26545572,0.15179753,0.4281923,0.21325444,0.13545004,0.04736294,0.15868735,0.2175773,-0.09197249,-0.13805,-0.24508615,-0.15014932,749.0476,792.96704,796.1905,788.1319,480.29303,-0.1558837890625,0.02886962890625,0.96881103515625,6.38519287109375,-7.476806640625,3.3795166015625,1,1.0,1.0,1.0,1.0,65.00
2021-04-09 09:56:13.986,0.35024217,0.7687799,0.50761306,0.54962,0.11552561,0.34952992,0.17597021,0.17249273,0.479785,0.39479983,0.50396454,0.40480378,0.13808374,0.023521258,0.18684666,0.19810073,-0.083134346,-0.14337428,-0.21818738,-0.064550355,776.04395,805.05493,809.89014,805.05493,759.5238,-0.1942138671875,0.04205322265625,0.9873046875,0.40374755859375,-1.42059326171875,-1.12152099609375,1,1.0,1.0,1.0,1.0,65.00
2021-04-09 09:56:14.500,0.24122728,0.7551698,0.71140563,0.8140079,0.30038473,0.39808202,0.34240797,0.11851626,0.5409496,0.49873498,0.53359187,0.6199484,0.18873121,0.12033672,0.280523,0.3082283,-0.05304631,-0.04941882,-0.15933222,-0.007952709,645.09155,794.57874,840.10986,617.6923,973.47986,-0.18804931640625,0.02392578125,0.983642578125,4.5159912109375,-4.0673828125,-1.562652587890625,1,1.0,1.0,1.0,1.0,65.00
2021-04-09 09:56:14.550,,,,,,,,,,,,,,,,,,,,,,,,,,,,,,,,,,,,,,/muse/elements/blink
2021-04-09 09:56:15.014,0.30469286,0.83191854,0.99311656,0.93432844,0.3633949,0.508666,0.7105606,0.1955135,0.5397343,0.60518104,0.53359187,0.6199484,0.23391542,0.073693894,0.3562735,0.3393201,-0.039632212,-0.033868186,-0.061480857,7.284643E-4,806.26373,803.8461,809.89014,818.3516,998.86444,-0.18682861328125,0.021728515625,0.98779296875,4.26177978515625,-4.127197265625,0.530853271484375,1,1.0,1.0,1.0,1.0,65.00
