TimeStamp,Delta_TP9,Delta_AF7,Delta_AF8,Delta_TP10,Theta_TP9,Theta_AF7,Theta_AF8,Theta_TP10,Alpha_TP9,Alpha_AF7,Alpha_AF8,Alpha_TP10,Beta_TP9,Beta_AF7,Beta_AF8,Beta_TP10,Gamma_TP9,Gamma_AF7,Gamma_AF8,Gamma_TP10,RAW_TP9,RAW_AF7,RAW_AF8,RAW_TP10,AUX_RIGHT,Accelerometer_X,Accelerometer_Y,Accelerometer_Z,Gyro_X,Gyro_Y,Gyro_Z,HeadBandOn,HSI_TP9,HSI_AF7,HSI_AF8,HSI_TP10,Battery,Elements
2021-04-17 09:43:26.920,1.2911276,0.38476217,0.21713139,1.3219861,1.1438612,0.27483472,0.36725107,1.2792286,0.64516836,0.029960604,0.4523717,0.6272613,0.18400976,0.2959763,-0.16587815,0.38248885,-0.46670905,0.027794933,-0.6015191,-0.12161561,795.78754,800.2198,807.8755,797.8022,777.6557,-0.1396484375,0.01531982421875,0.99224853515625,4.942169189453125,-4.762725830078125,1.30096435546875,1,2.0,1.0,1.0,2.0,60.00
2021-04-17 09:43:26.982,,,,,,,,,,,,,,,,,,,,,,,,,,,,,,,,,,,,,,/muse/elements/blink
2021-04-17 09:43:27.426,1.2911276,0.6399373,0.64711165,1.3219861,1.1438612,0.43035612,0.23281121,1.2792286,0.64516836,0.4409803,0.55443096,0.6272613,0.18400976,0.39993003,-0.13792893,0.38248885,-0.46670905,0.09201918,-0.58539826,-0.12161561,798.60803,807.47253,804.2491,800.6227,643.0769,-0.13751220703125,0.007568359375,0.989501953125,4.6356201171875,-6.0113525390625,3.237457275390625,1,2.0,1.0,1.0,2.0,60.00
2021-04-17 09:43:27.937,,,,,,,,,,,,,,,,,,,,,,,,,,,,,,,,,,,,,,/muse/elements/blink
2021-04-17 09:43:27.938,1.2911276,0.6591199,0.6500835,1.3219861,1.1438612,0.46299815,0.18938427,1.2792286,0.64516836,0.49660313,0.5186828,0.6272613,0.18400976,0.4021768,-0.16746534,0.38248885,-0.46670905,0.062134292,-0.47978514,-0.12161561,811.9048,795.38464,807.0696,819.5604,776.4469,-0.13214111328125,0.00634765625,1.00006103515625,3.33465576171875,-4.747772216796875,17.406005859375,1,2.0,1.0,1.0,2.0,60.00
2021-04-17 09:43:28.442,1.2911276,0.6363176,0.58725756,1.3219861,1.1438612,0.3500251,0.19756515,1.2792286,0.64516836,0.50961775,0.51608336,0.6272613,0.18400976,0.33107707,-0.15518655,0.38248885,-0.46670905,0.0814457,-0.48117316,-0.12161561,797.3993,799.011,800.6227,796.1905,733.73627,-0.1429443359375,0.0308837890625,0.99359130859375,2.295379638671875,-5.06927490234375,19.148101806640625,1,2.0,1.0,1.0,2.0,60.00
2021-04-17 09:43:28.971,1.2911276,0.58077234,0.17694041,1.3219861,1.1438612,0.27805287,0.05979886,1.2792286,0.64516836,0.345742,0.2922819,0.6272613,0.18400976,0.2189007,-0.22449385,0.38248885,-0.46670905,-0.0010328658,-0.4613346,-0.12161561,840.5128,812.71063,795.78754,815.12823,771.2088,-0.10028076171875,-0.038330078125,0.9906005859375,3.656158447265625,-7.0880126953125,1.562652587890625,1,2.0,1.0,1.0,2.0,60.00
2021-04-17 09:43:29.483,1.2911276,0.6029187,0.3038386,1.3219861,1.1438612,0.24441929,0.114272244,1.2792286,0.64516836,0.4144049,0.23216078,0.6272613,0.18400976,0.30206507,-0.17820615,0.38248885,-0.46670905,0.023219263,-0.4765071,-0.12161561,823.5897,797.3993,805.8608,812.71063,842.9304,-0.064208984375,-0.01495361328125,1.001220703125,9.6600341796875,-8.97216796875,-0.88226318359375,1,2.0,1.0,1.0,2.0,60.00
2021-04-17 09:43:29.772,,,,,,,,,,,,,,,,,,,,,,,,,,,,,,,,,,,,,,/muse/elements/blink
2021-04-17 09:43:29.991,1.2911276,0.6033953,0.30669186,1.3219861,1.1438612,0.25173086,0.01932369,1.2792286,0.64516836,0.46260014,0.20099361,0.6272613,0.18400976,0.33781114,-0.25537136,0.38248885,-0.46670905,0.010876304,-0.43330812,-0.12161561,782.49084,793.7729,804.65204,791.75824,769.19415,-0.03851318359375,0.01202392578125,0.98681640625,9.667510986328125,-7.10296630859375,-9.82452392578125,1,2.0,1.0,1.0,2.0,60.00
2021-04-17 09:43:30.492,1.2911276,0.4491426,0.35561803,1.3219861,1.1438612,0.23656902,-0.06163403,1.2792286,0.64516836,0.46598688,0.24692693,0.6272613,0.18400976,0.42050454,-0.13744621,0.38248885,-0.46670905,0.061561257,-0.44821998,-0.12161561,848.97437,796.99634,787.72894,812.71063,859.45056,0.01800537109375,0.05523681640625,1.0023193359375,6.437530517578125,-6.183319091796875,-3.60382080078125,1,2.0,1.0,1.0,2.0,60.00
2021-04-17 09:43:30.673,,,,,,,,,,,,,,,,,,,,,,,,,,,,,,,,,,,,,,/muse/elements/blink
2021-04-17 09:43:31.012,1.2911276,0.4958227,0.7578016,1.3219861,1.1438612,0.2575946,0.3465996,1.2792286,0.64516836,0.36443862,0.5983254,0.6272613,0.18400976,0.4620221,-0.025744064,0.38248885,-0.46670905,0.086709246,-0.454317,-0.12161561,841.31866,806.6667,789.7436,811.9048,950.9158,-0.0015869140625,0.08233642578125,1.00592041015625,5.256195068359375,-3.357086181640625,-4.673004150390625,1,2.0,1.0,1.0,2.0,60.00
2021-04-17 09:43:31.450,,,,,,,,,,,,,,,,,,,,,,,,,,,,,,,,,,,,,,/muse/elements/blink
2021-04-17 09:43:31.522,1.2911276,0.728053,0.9632901,1.3219861,1.1438612,0.29037198,0.60271996,1.2792286,0.64516836,0.37562555,0.7123961,0.6272613,0.18400976,0.5119969,0.012118508,0.38248885,-0.46670905,0.14848278,-0.5213159,-0.12161561,787.72894,811.0989,794.17584,798.20514,653.1502,-0.0406494140625,0.06463623046875,0.990966796875,6.11602783203125,-0.157012939453125,2.669219970703125,1,2.0,1.0,1.0,2.0,60.00
2021-04-17 09:43:31.991,,,,,,,,,,,,,,,,,,,,,,,,,,,,,,,,,,,,,,/muse/elements/blink
2021-04-17 09:43:32.077,1.2911276,0.9118205,1.2083446,1.3219861,1.1438612,0.43925488,0.9862974,1.2792286,0.64516836,0.48009193,0.7930456,0.6272613,0.18400976,0.49247596,-0.01937806,0.38248885,-0.46670905,0.17578958,-0.57321864,-0.12161561,821.5751,736.55676,807.0696,819.5604,750.65936,-0.2508544921875,0.00860595703125,1.0059814453125,0.46356201171875,3.289794921875,-1.398162841796875,1,2.0,1.0,1.0,2.0,60.00
2021-04-17 09:43:32.615,1.2911276,0.9707531,1.0773036,1.3219861,1.1438612,0.556858,0.9048067,1.2792286,0.64516836,0.46327764,0.79120755,0.6272613,0.18400976,0.47332105,-0.11874931,0.38248885,-0.46670905,0.17421423,-0.5274862,-0.12161561,877.1795,820.3663,794.9817,866.7033,1024.249,-0.17388916015625,0.078857421875,1.02630615234375,14.6844482421875,-11.85821533203125,6.44500732421875,1,2.0,1.0,1.0,2.0,60.00
2021-04-17 09:43:32.765,,,,,,,,,,,,,,,,,,,,,,,,,,,,,,,,,,,,,,/muse/elements/blink
2021-04-17 09:43:33.143,1.2911276,0.9953049,0.9380364,1.3219861,1.1438612,0.7300744,0.7632302,1.2792286,0.64516836,0.46327764,0.7688475,0.6272613,0.18400976,0.5015684,-0.16394593,0.38248885,-0.46670905,0.2046805,-0.49804556,-0.12161561,446.84982,721.6484,830.4396,464.57877,608.4249,-0.270751953125,0.05224609375,0.95904541015625,0.3289794921875,10.714263916015625,-3.940277099609375,1,2.0,1.0,1.0,2.0,60.00
2021-04-17 09:43:33.308,,,,,,,,,,,,,,,,,,,,,,,,,,,,,,,,,,,,,,/muse/elements/blink
2021-04-17 09:43:33.656,1.2911276,0.9953049,0.5298578,1.3219861,1.1438612,0.7300744,0.24638484,1.2792286,0.64516836,0.46327764,0.51797795,0.6272613,0.18400976,0.5015684,-0.2285522,0.38248885,-0.46670905,0.2046805,-0.5126194,-0.12161561,774.43225,826.8132,806.26373,792.5641,734.94507,-0.339111328125,0.026611328125,0.94281005859375,3.289794921875,-1.846771240234375,1.727142333984375,1,2.0,1.0,1.0,2.0,60.00
2021-04-17 09:43:34.182,1.2911276,0.9953049,0.6399227,1.3219861,1.1438612,0.7300744,0.40817952,1.2792286,0.64516836,0.46327764,0.5294949,0.6272613,0.18400976,0.5015684,-0.12552021,0.38248885,-0.46670905,0.2046805,-0.5398341,-0.12161561,782.0879,816.337,807.8755,788.5348,700.293,-0.3111572265625,0.06695556640625,0.9605712890625,8.08990478515625,-11.207733154296875,-2.691650390625,1,2.0,1.0,1.0,2.0,60.00
2021-04-17 09:43:34.404,,,,,,,,,,,,,,,,,,,,,,,,,,,,,,,,,,,,,,/muse/elements/blink
2021-04-17 09:43:34.684,1.2911276,0.9953049,0.6007439,1.3219861,1.1438612,0.7300744,0.43235362,1.2792286,0.64516836,0.46327764,0.5208049,0.6272613,0.18400976,0.5015684,-0.08357791,0.38248885,-0.46670905,0.2046805,-0.43267193,-0.12161561,849.7802,754.2857,801.4286,826.4103,918.68134,-0.3245849609375,0.015380859375,0.92767333984375,6.213226318359375,-2.669219970703125,-5.480499267578125,1,2.0,1.0,1.0,2.0,60.00
2021-04-17 09:43:35.205,1.2911276,0.9953049,0.20676458,1.2744131,1.1438612,0.7300744,0.216491,1.4096377,0.64516836,0.46327764,0.37072554,1.2374531,0.18400976,0.5015684,-0.12403544,0.7050971,-0.46670905,0.2046805,-0.3460171,-0.2729718,845.34796,796.99634,789.34064,807.0696,815.12823,-0.1468505859375,0.0462646484375,0.96820068359375,6.796417236328125,-24.202423095703125,3.043060302734375,1,2.0,1.0,1.0,2.0,60.00
2021-04-17 09:43:35.705,1.2911276,0.9953049,-0.06316695,1.1577141,1.1438612,0.7300744,0.10775715,1.290953,0.64516836,0.46327764,0.03180058,1.2374531,0.18400976,0.5015684,-0.17458685,0.61787164,-0.46670905,0.2046805,-0.30210912,-0.25084105,832.0513,822.7839,819.5604,852.1978,721.2454,-0.2716064453125,0.00732421875,0.9462890625,9.091796875,-1.77947998046875,1.697235107421875,1,1.0,1.0,1.0,1.0,60.00
2021-04-17 09:43:35.830,,,,,,,,,,,,,,,,,,,,,,,,,,,,,,,,,,,,,,/muse/elements/blink
2021-04-17 09:43:36.218,1.2911276,0.9953049,0.29141688,1.1577141,1.1438612,0.7300744,0.0943528,1.290953,0.64516836,0.46327764,0.215227,1.2374531,0.18400976,0.5015684,-0.17697838,0.61787164,-0.46670905,0.2046805,-0.29966363,-0.25084105,761.9414,776.8498,801.02563,781.28204,640.65936,-0.3016357421875,0.10577392578125,0.97564697265625,5.93658447265625,-6.841278076171875,9.742279052734375,1,1.0,1.0,1.0,1.0,60.00
2021-04-17 09:43:36.721,1.2911276,0.9953049,0.37436956,0.9976476,1.1438612,0.7300744,0.017629085,1.1271061,0.64516836,0.46327764,0.2109828,1.0484848,0.18400976,0.5015684,-0.2010352,0.5086088,-0.46670905,0.2046805,-0.37691244,-0.22978352,555.64105,769.19415,809.4872,554.43225,780.07324,-0.23577880859375,0.048095703125,0.97686767578125,3.192596435546875,-1.203765869140625,1.435546875,1,1.0,1.0,1.0,1.0,60.00
2021-04-17 09:43:36.951,,,,,,,,,,,,,,,,,,,,,,,,,,,,,,,,,,,,,,/muse/elements/blink
2021-04-17 09:43:37.225,1.2911276,0.9953049,0.47704014,0.9976476,1.1438612,0.7300744,0.20305613,1.1271061,0.64516836,0.46327764,0.45433876,1.0484848,0.18400976,0.5015684,-0.15556166,0.5086088,-0.46670905,0.2046805,-0.42938146,-0.22978352,817.1429,810.696,799.41394,817.5458,691.8315,-0.26611328125,0.039794921875,0.950927734375,4.14215087890625,-3.431854248046875,0.67291259765625,1,1.0,1.0,1.0,1.0,60.00
2021-04-17 09:43:37.749,1.2911276,0.9953049,0.7110416,0.9976476,1.1438612,0.7300744,0.32270774,1.1271061,0.64516836,0.46327764,0.46556985,1.0484848,0.18400976,0.5015684,-0.06790962,0.5086088,-0.46670905,0.2046805,-0.45104852,-0.22978352,837.28937,801.4286,807.0696,824.7985,830.84247,-0.2977294921875,0.05377197265625,0.95355224609375,6.153411865234375,-2.115936279296875,3.446807861328125,1,1.0,1.0,1.0,1.0,70.00
2021-04-17 09:43:38.293,1.2911276,0.5841351,0.8395661,0.9976476,1.1438612,0.21003489,0.3225133,1.1271061,0.64516836,0.27659717,0.45451123,1.0484848,0.18400976,0.359712,0.014343709,0.5086088,-0.46670905,0.035360374,-0.45543396,-0.22978352,778.0586,792.1612,804.65204,781.685,1018.60803,-0.3143310546875,0.0316162109375,0.9498291015625,6.960906982421875,-3.0804443359375,-2.400054931640625,1,1.0,1.0,1.0,1.0,70.00
2021-04-17 09:43:38.578,,,,,,,,,,,,,,,,,,,,,,,,,,,,,,,,,,,,,,/muse/elements/blink
2021-04-17 09:43:38.822,1.2911276,0.4521655,0.8457983,0.9976476,1.1438612,0.21621917,0.25872323,1.1271061,0.64516836,0.42666787,0.4083246,1.0484848,0.18400976,0.3532853,0.020942444,0.5086088,-0.46670905,0.11032599,-0.3695745,-0.22978352,766.77655,792.5641,803.44324,785.31134,656.77655,-0.26715087890625,0.10650634765625,0.95379638671875,7.917938232421875,-11.783447265625,-0.112152099609375,1,2.0,1.0,1.0,2.0,70.00
2021-04-17 09:43:39.341,1.2911276,0.4521655,0.8487646,0.9976476,1.1438612,0.21621917,0.4294796,1.1271061,0.64516836,0.42666787,0.14935146,1.0484848,0.18400976,0.3532853,0.024417143,0.5086088,-0.46670905,0.11032599,-0.35635257,-0.22978352,846.55676,865.09155,798.60803,834.4689,1079.4506,-0.3468017578125,0.01605224609375,0.939697265625,0.8074951171875,-3.0804443359375,-3.910369873046875,1,2.0,1.0,1.0,2.0,70.00
2021-04-17 09:43:39.829,,,,,,,,,,,,,,,,,,,,,,,,,,,,,,,,,,,,,,/muse/elements/blink
2021-04-17 09:43:39.853,1.2911276,0.20424815,0.6947242,0.9976476,1.1438612,0.1835954,0.39063773,1.1271061,0.64516836,0.2243893,0.14269552,1.0484848,0.18400976,0.3359478,-0.00922149,0.5086088,-0.46670905,0.19351709,-0.36009988,-0.22978352,847.3626,813.5165,801.8315,859.45056,641.8681,-0.32208251953125,0.08599853515625,0.94757080078125,4.344024658203125,-6.108551025390625,1.876678466796875,1,2.0,1.0,1.0,2.0,70.00
2021-04-17 09:43:40.396,1.2911276,0.20424815,0.79898024,0.9976476,1.1438612,0.1835954,0.5020205,1.1271061,0.64516836,0.2243893,0.29615587,1.0484848,0.18400976,0.3359478,-0.0492028,0.5086088,-0.46670905,0.19351709,-0.53318644,-0.22978352,828.022,819.5604,807.0696,819.5604,730.10986,-0.31878662109375,0.0721435546875,0.95196533203125,3.955230712890625,-4.2169189453125,-0.306549072265625,1,2.0,1.0,1.0,2.0,70.00
2021-04-17 09:43:40.926,1.2911276,1.0643563,0.5472425,0.9976476,1.1438612,0.7979262,0.2712153,1.1271061,0.64516836,0.5710793,0.31472337,1.0484848,0.18400976,0.6114267,-0.16875038,0.5086088,-0.46670905,0.17448857,-0.5900218,-0.22978352,844.5421,807.0696,792.96704,821.1722,880.40295,-0.26568603515625,0.0518798828125,0.879150390625,0.067291259765625,-2.0037841796875,5.121612548828125,1,2.0,1.0,1.0,2.0,70.00
2021-04-17 09:43:41.461,1.0356048,1.0587773,0.49008563,0.7897742,0.85633445,0.7053359,0.25436297,0.67469215,0.44182953,0.59098727,0.28510746,0.14118893,0.28085864,0.56767035,-0.2520433,0.42524347,-0.26910335,0.16902487,-0.5832875,-0.13224222,801.8315,790.14655,798.60803,802.23444,744.21246,-0.33294677734375,0.09625244140625,0.9569091796875,4.66552734375,-0.25421142578125,5.36834716796875,1,2.0,1.0,1.0,2.0,70.00
2021-04-17 09:43:42.001,1.2426436,1.0587773,-0.35973912,0.987684,0.85037917,0.7053359,-0.33438855,0.64462394,0.60276395,0.59098727,-0.13080819,0.2671179,0.12953375,0.56767035,-0.3771153,0.27332804,-0.35093844,0.16902487,-0.4922163,-0.19938356,848.97437,861.8681,799.41394,825.6044,786.52014,-0.3505859375,0.05194091796875,0.93548583984375,4.882354736328125,-5.495452880859375,0.31402587890625,1,1.0,1.0,1.0,1.0,70.00
2021-04-17 09:43:42.509,1.095255,0.9877982,-0.38950664,0.8513167,0.722132,0.51345354,-0.37005377,0.56207615,0.6462409,0.44961503,-0.16056249,0.30258012,0.09359841,0.524021,-0.37783512,0.22209352,-0.36299708,0.15788868,-0.41112232,-0.16187686,763.5531,794.17584,800.6227,777.6557,664.43225,-0.3447265625,0.0430908203125,0.9393310546875,3.506622314453125,-1.517791748046875,2.998199462890625,1,1.0,1.0,1.0,1.0,70.00
2021-04-17 09:43:43.017,1.053382,0.9877982,-0.30047113,0.8891756,0.67795914,0.51345354,-0.3870039,0.54201543,0.67434335,0.44961503,-0.10441558,0.34110004,0.025347922,0.524021,-0.32076627,0.2088616,-0.37615576,0.15788868,-0.399412,-0.20867077,836.8865,809.0842,796.5934,809.89014,888.46155,-0.34619140625,0.0406494140625,0.934326171875,4.91973876953125,-4.418792724609375,0.515899658203125,1,1.0,1.0,1.0,1.0,70.00
2021-04-17 09:43:43.533,0.78384835,0.9877982,-0.2607936,0.7501868,0.6732872,0.51345354,-0.4555359,0.62863415,0.5669884,0.44961503,-0.059477944,0.5337663,0.10102857,0.524021,-0.2648671,0.29087475,-0.3780374,0.15788868,-0.42661098,-0.20724913,862.674,811.9048,795.38464,828.4249,792.1612,-0.33489990234375,0.0401611328125,0.947021484375,5.00946044921875,-5.016937255859375,0.7476806640625,1,1.0,1.0,1.0,1.0,70.00
2021-04-17 09:43:44.039,0.81507117,0.499977,-0.058556605,0.723729,0.723849,0.32848617,-0.06023411,0.6923137,0.5620701,0.11156346,0.11261118,0.5625865,0.16116211,0.14672989,-0.11786991,0.3678528,-0.25644344,0.006725851,-0.57650876,-0.30595785,852.1978,790.9524,821.5751,846.1539,735.34796,-0.3363037109375,0.0390625,0.93524169921875,5.256195068359375,-4.194488525390625,1.816864013671875,1,1.0,1.0,1.0,1.0,70.00
2021-04-17 09:43:44.582,0.6745365,0.7064074,0.3438613,0.5738654,0.59665096,0.39509457,0.09680956,0.6246494,0.56530625,0.44972607,0.40413693,0.68704396,0.22116087,0.21203738,-0.0054034884,0.3197651,-0.2458394,-0.11682321,-0.58270013,-0.3340484,845.7509,811.0989,796.1905,826.8132,721.2454,-0.345947265625,0.0640869140625,0.9493408203125,4.9346923828125,-5.944061279296875,3.84307861328125,1,1.0,1.0,1.0,1.0,70.00
2021-04-17 09:43:45.120,0.6286745,0.74511397,0.63736904,0.43515447,0.5282895,0.41978875,0.20462342,0.46536198,0.76390445,0.49244192,0.4708417,0.60246015,0.26862067,0.25685033,0.06905166,0.27414066,-0.14342299,-0.12725684,-0.5707212,-0.34533587,724.4689,792.5641,809.89014,747.03296,539.92676,-0.34698486328125,0.02587890625,0.9403076171875,3.626251220703125,-4.2767333984375,-1.891632080078125,1,1.0,1.0,1.0,1.0,70.00
2021-04-17 09:43:45.272,,,,,,,,,,,,,,,,,,,,,,,,,,,,,,,,,,,,,,/muse/elements/blink
2021-04-17 09:43:45.665,0.64757,0.7931829,0.67666733,0.70001346,0.57976407,0.50228584,0.46729085,0.3831256,0.76390445,0.5448148,0.68147355,0.50061715,0.3293697,0.40067902,0.08247115,0.23164031,-0.16862574,-0.12593108,-0.51561123,-0.34435442,824.3956,796.5934,797.8022,817.9487,782.49084,-0.32891845703125,0.04241943359375,0.94439697265625,5.1739501953125,-4.628143310546875,2.28790283203125,1,1.0,1.0,1.0,1.0,70.00
2021-04-17 09:43:46.184,0.87230265,0.61974466,0.5068659,0.70001346,0.70470035,0.34501594,0.46276933,0.3831256,0.76390445,0.43130815,0.67827344,0.50061715,0.36742046,0.4223964,0.006452538,0.23164031,-0.07037769,-0.029264122,-0.54157877,-0.34435442,759.5238,794.9817,803.44324,787.326,597.1429,-0.33929443359375,0.03082275390625,0.93865966796875,4.5758056640625,-4.62066650390625,0.396270751953125,1,1.0,1.0,1.0,1.0,70.00
2021-04-17 09:43:46.695,0.87230265,0.60588145,0.21090819,0.70001346,0.70470035,0.30252522,0.4127381,0.3831256,0.76390445,0.41343588,0.65442187,0.50061715,0.36742046,0.38666433,-0.022657964,0.23164031,-0.07037769,-0.013967035,-0.5942505,-0.34435442,758.315,776.8498,798.20514,776.4469,675.7143,-0.33245849609375,0.0338134765625,0.94757080078125,5.061798095703125,-4.762725830078125,1.18133544921875,1,1.0,1.0,1.0,1.0,70.00
2021-04-17 09:43:47.201,0.48055837,0.4428832,-0.066677056,0.20610514,0.7645902,0.00888455,-0.15147138,0.67701805,0.7319587,0.14256912,0.35819298,0.6451844,0.2857809,0.38332447,-0.031645183,0.38276514,-0.32957095,-0.038890216,-0.61116827,-0.2537704,828.022,778.86444,800.2198,817.9487,996.8498,-0.32452392578125,0.03350830078125,0.94482421875,5.031890869140625,-5.1739501953125,1.1663818359375,1,1.0,1.0,1.0,1.0,70.00
2021-04-17 09:43:47.733,0.36245373,0.2232387,-0.015690845,0.15164608,0.6279709,0.027145568,-0.39424267,0.53604305,0.7319587,0.19600166,0.38500425,0.68934375,0.19670053,0.45125207,0.0075090956,0.33053145,-0.30873674,-0.050310627,-0.5877914,-0.21803996,856.2271,821.5751,803.8461,823.9927,777.6557,-0.33026123046875,0.03570556640625,0.94647216796875,5.09918212890625,-4.366455078125,0.814971923828125,1,1.0,1.0,1.0,1.0,70.00
2021-04-17 09:43:48.097,,,,,,,,,,,,,,,,,,,,,,,,,,,,,,,,,,,,,,/muse/elements/blink
2021-04-17 09:43:48.276,0.21960169,0.1798761,0.0627568,0.035579395,0.4971108,0.017692188,-0.24727078,0.29248655,0.63297707,0.35392034,0.39575717,0.5998972,0.13259938,0.47516248,0.028710503,0.28341272,-0.28010836,0.06571558,-0.50521225,-0.1851755,849.3773,796.99634,802.23444,847.76556,804.65204,-0.332763671875,0.029541015625,0.94281005859375,4.66552734375,-4.3963623046875,0.650482177734375,1,1.0,1.0,1.0,1.0,70.00
2021-04-17 09:43:48.788,0.15403782,0.35243574,0.39583197,0.10960535,0.33448136,0.2833907,0.18332991,-0.021338644,0.38907808,0.65169436,0.40438288,0.3353173,0.061118197,0.45569032,-0.037310604,0.27917978,-0.28158644,0.12135384,-0.5182058,-0.11490968,842.9304,808.68134,800.6227,826.0073,734.94507,-0.32171630859375,0.03070068359375,0.9476318359375,4.26177978515625,-5.2337646484375,-0.112152099609375,1,1.0,1.0,1.0,1.0,70.00
2021-04-17 09:43:49.319,0.19542539,0.36818916,0.3230602,0.14218307,0.38071343,0.24509081,0.20115009,-0.18138169,0.31681648,0.62810767,0.101517476,0.33061633,0.08866606,0.39965057,-0.11010833,0.31623697,-0.30285776,0.08468803,-0.44494843,-0.080003545,787.326,787.326,810.696,796.99634,773.6264,-0.3275146484375,0.032958984375,0.94097900390625,4.329071044921875,-4.867401123046875,1.054229736328125,1,1.0,1.0,1.0,1.0,70.00
2021-04-17 09:43:49.856,0.19542539,0.23118263,0.24102758,-0.5918955,0.38071343,0.17826702,0.117397554,-0.8374076,0.31681648,0.6101398,0.09935507,-0.060154114,0.08866606,0.36956352,-0.15600081,0.0949731,-0.30285776,-0.006095016,-0.4453971,-0.47574115,749.0476,765.16486,805.8608,784.5055,1024.249,-0.32672119140625,0.02777099609375,0.95025634765625,4.42626953125,-4.94964599609375,1.428070068359375,1,1.0,1.0,1.0,1.0,70.00
2021-04-17 09:43:50.371,0.16252597,-0.031735554,-0.3810705,-0.33714715,0.0994556,-0.18666638,-0.28925946,-0.71456695,0.30803832,0.21974273,-0.009049328,0.1717663,0.011700713,0.28515458,-0.12652549,0.17378826,-0.15459047,-0.05114479,-0.44013524,-0.46005556,583.44324,801.4286,815.12823,578.20514,809.0842,-0.3270263671875,0.0269775390625,0.94696044921875,4.912261962890625,-4.403839111328125,0.725250244140625,1,1.0,1.0,1.0,1.0,70.00
2021-04-17 09:43:50.527,,,,,,,,,,,,,,,,,,,,,,,,,,,,,,,,,,,,,,/muse/elements/blink
2021-04-17 09:43:50.879,0.16252597,0.056198917,0.10947286,-0.33714715,0.0994556,0.0735421,0.08127949,-0.71456695,0.30803832,0.40073207,0.14232694,0.1717663,0.011700713,0.3016133,-0.072749324,0.17378826,-0.15459047,0.025509628,-0.53912145,-0.46005556,850.58606,803.0403,798.60803,828.4249,867.1062,-0.32818603515625,0.02825927734375,0.95147705078125,4.53094482421875,-4.433746337890625,1.338348388671875,1,1.0,1.0,1.0,1.0,70.00
2021-04-17 09:43:51.405,0.160589,0.4335327,0.3760381,-0.17764805,-0.07897918,0.18675327,0.30042404,-0.6189206,0.30759802,0.481884,0.17789277,0.16398452,0.064293236,0.28661323,-0.06331881,0.24047337,-0.040663186,-0.044149283,-0.6392334,-0.4449168,832.8571,807.0696,803.0403,815.12823,778.86444,-0.32354736328125,0.0296630859375,0.9471435546875,4.59075927734375,-4.50103759765625,1.55517578125,1,1.0,1.0,1.0,1.0,70.00
2021-04-17 09:43:51.928,0.160589,0.48758492,0.38212466,-0.17764805,-0.07897918,0.24465257,0.28975323,-0.6189206,0.30759802,0.46902823,0.21725371,0.16398452,0.064293236,0.35274377,-0.11900617,0.24047337,-0.040663186,-0.067493536,-0.6983116,-0.4449168,854.61536,811.9048,797.3993,840.9158,790.54944,-0.319580078125,0.03277587890625,0.9434814453125,4.553375244140625,-4.478607177734375,0.471038818359375,1,1.0,1.0,1.0,1.0,70.00
2021-04-17 09:43:52.478,-0.107049555,0.38476533,0.016136978,-0.091515586,-0.052973133,0.009909901,-9.5098064E-4,0.35746378,0.28555393,0.36933213,0.30567816,0.3530136,0.13188605,0.290166,-0.22323366,-0.01692406,-0.31187817,-0.029841753,-0.60344225,-0.32869714,823.9927,797.3993,800.2198,822.7839,749.0476,-0.326171875,0.03314208984375,0.94915771484375,4.7552490234375,-5.24871826171875,0.904693603515625,1,1.0,1.0,1.0,1.0,70.00
2021-04-17 09:43:53.025,0.38076097,0.14454193,-0.23664914,0.4641215,0.045075856,0.03308158,-0.18600394,0.2865754,0.30602288,0.09400647,0.3057428,0.3695448,0.115827985,0.3243231,-0.28162792,-0.018364407,-0.3151711,-0.016686292,-0.49960524,-0.25438568,743.00366,798.60803,800.6227,774.43225,679.34064,-0.32794189453125,0.03143310546875,0.944580078125,4.673004150390625,-4.792633056640625,1.218719482421875,1,1.0,1.0,1.0,1.0,70.00
2021-04-17 09:43:53.169,,,,,,,,,,,,,,,,,,,,,,,,,,,,,,,,,,,,,,/muse/elements/blink
2021-04-17 09:43:53.530,0.7365148,0.0051495912,-0.15687333,0.7201162,0.42088142,-0.016871331,-0.14454313,0.50687563,1.1751722,0.36766553,0.60486114,0.99600405,0.45118484,0.3442797,0.008895156,0.43024254,-0.34375072,-0.04183493,-0.39391184,-0.35812145,865.4945,802.23444,807.8755,840.5128,1021.4286,-0.32745361328125,0.024658203125,0.94573974609375,4.927215576171875,-4.62066650390625,0.515899658203125,1,1.0,1.0,1.0,1.0,70.00
2021-04-17 09:43:54.032,0.78815657,0.042684913,-0.19720127,0.76411283,0.5871189,-0.07911389,-0.17632604,0.5721537,1.3906245,0.42243254,0.737104,1.1513772,0.5096591,0.37322125,0.09039885,0.5567472,-0.3912084,-0.19576539,-0.39741117,-0.42623907,850.18317,811.0989,795.38464,821.5751,834.87177,-0.3282470703125,0.0301513671875,0.95050048828125,4.53094482421875,-5.09918212890625,1.09161376953125,1,1.0,1.0,1.0,1.0,70.00
2021-04-17 09:43:54.555,0.70331854,0.052891493,-0.14890441,0.5615748,0.7039424,-0.19793317,-0.12925006,0.57968163,1.3906245,0.61975807,0.737104,1.1513772,0.5080302,0.33119285,0.12427031,0.5579754,-0.44169918,-0.08921414,-0.39013448,-0.45867044,788.93774,804.65204,788.93774,784.10254,733.73627,-0.325439453125,0.02923583984375,0.94891357421875,4.71038818359375,-4.85992431640625,0.829925537109375,1,1.0,1.0,1.0,1.0,70.00
2021-04-17 09:43:55.098,0.4047301,0.17208682,0.05785886,0.25645685,0.63385665,-0.19235498,-0.07869915,0.45845178,1.3906245,0.624662,0.72769994,1.1513772,0.2776025,0.31745073,0.014612802,0.35622916,-0.40330517,-0.031852,-0.42010468,-0.2946034,848.5714,797.8022,797.3993,828.4249,865.4945,-0.33251953125,0.02362060546875,0.942138671875,5.09918212890625,-5.076751708984375,1.2860107421875,1,1.0,1.0,1.0,1.0,70.00
2021-04-17 09:43:55.635,0.30139762,0.27045676,0.27359682,-0.013913124,0.4904164,-0.11289521,-0.058515307,0.31606576,0.8926264,0.5601136,0.18934275,0.5495918,0.056364488,0.3164348,-0.11445331,0.07744429,-0.41403562,0.07042136,-0.51227385,-0.21173798,828.4249,800.2198,796.5934,803.44324,713.9927,-0.27984619140625,0.03778076171875,0.95458984375,5.60760498046875,-11.118011474609375,10.60211181640625,1,1.0,1.0,1.0,1.0,70.00
2021-04-17 09:43:56.179,1.1421688,0.8575194,0.5718937,0.14694843,0.57820034,0.4487315,0.104227014,0.33522132,0.6290157,0.4714741,-0.09414449,0.35714707,0.12924396,0.31681752,-0.13360684,-0.0068793963,-0.43799478,0.09549412,-0.58233017,-0.19287412,693.0403,811.0989,731.31866,662.8205,581.8315,-0.22998046875,0.05078125,0.96820068359375,7.499237060546875,-9.129180908203125,-10.534820556640625,1,1.0,1.0,1.0,1.0,70.00
2021-04-17 09:43:56.729,1.3241147,1.0383149,0.75278664,0.21959585,0.7012617,0.62325037,0.1903091,0.41815373,0.3361885,0.31532317,-0.13838542,0.2913762,0.2065233,0.26298177,-0.203143,0.0037587387,-0.515983,0.1297193,-0.6339041,-0.2764617,826.0073,742.6007,757.1062,815.5311,901.75824,-0.19464111328125,0.064208984375,0.9854736328125,5.061798095703125,-3.970184326171875,-0.5682373046875,1,1.0,1.0,1.0,1.0,70.00
2021-04-17 09:43:57.280,1.4994911,1.1989833,0.75278664,0.21959585,0.84551865,0.79116577,0.1903091,0.41815373,0.16023502,0.2687089,-0.13838542,0.2913762,0.18645869,0.22709443,-0.203143,0.0037587387,-0.5411742,0.14988104,-0.6339041,-0.2764617,817.1429,796.5934,800.2198,796.5934,785.7143,-0.2066650390625,0.03875732421875,0.97052001953125,-1.757049560546875,-2.953338623046875,5.96649169921875,1,1.0,1.0,1.0,1.0,70.00
2021-04-17 09:43:57.807,0.9867849,1.1989833,0.75278664,0.21959585,0.7129785,0.79116577,0.1903091,0.41815373,0.31246325,0.2687089,-0.13838542,0.2913762,0.20323119,0.22709443,-0.203143,0.0037587387,-0.10249339,0.14988104,-0.6339041,-0.2764617,842.9304,821.978,807.47253,832.8571,840.9158,-0.25579833984375,-0.0352783203125,0.9664306640625,3.222503662109375,2.609405517578125,-7.37213134765625,1,1.0,1.0,1.0,1.0,70.00
2021-04-17 09:43:58.311,0.7459044,1.1989833,-0.24178475,0.77993757,0.51386166,0.79116577,-0.62819064,0.71074146,0.36658162,0.2687089,-0.11899901,0.6656099,0.15532202,0.22709443,-0.18315658,0.20961487,-0.21148793,0.14988104,-0.5410055,-0.2070166,835.6777,829.6337,808.68134,834.4689,707.9487,-0.26678466796875,-0.057861328125,0.96014404296875,4.05242919921875,-4.089813232421875,-1.981353759765625,1,1.0,1.0,1.0,1.0,70.00
2021-04-17 09:43:58.838,0.8935266,1.1989833,-0.25793397,1.040359,0.48304418,0.79116577,-0.43174914,0.7153699,0.51298606,0.2687089,0.01738341,0.8487091,0.12882951,0.22709443,-0.2259848,0.20016436,-0.2143537,0.14988104,-0.47515026,-0.24150133,769.59705,798.20514,802.6374,787.326,794.57874,-0.26373291015625,0.02996826171875,0.96771240234375,6.886138916015625,-6.519775390625,2.175750732421875,1,1.0,1.0,1.0,1.0,70.00
2021-04-17 09:43:59.350,0.8987512,1.1989833,-0.112550475,1.0794922,0.4357643,0.79116577,-0.25025442,0.6695403,0.5606209,0.2687089,0.067640536,0.82447374,0.1153745,0.22709443,-0.11710678,0.18720616,-0.3072773,0.14988104,-0.39398107,-0.2789595,775.64105,805.05493,796.5934,780.87915,595.9341,-0.28759765625,0.05718994140625,0.968505859375,6.287994384765625,-3.96270751953125,-3.8580322265625,1,1.0,1.0,1.0,1.0,70.00
2021-04-17 09:43:59.858,1.2931683,0.76153666,0.052653313,1.2963952,0.8193855,0.28070062,-0.036551815,0.8659111,0.8172775,0.022650642,0.11315494,0.9452773,0.19783297,0.39281416,-0.11798782,0.25177643,-0.21969998,-0.24954957,-0.38560662,-0.2213573,760.7326,786.1172,795.78754,782.49084,698.2784,-0.275634765625,0.02301025390625,0.952392578125,5.8319091796875,-5.263671875,-1.278533935546875,1,1.0,1.0,1.0,1.0,70.00
2021-04-17 09:44:00.368,1.5405927,0.6074809,0.27279225,1.5615662,1.2520819,0.19987799,0.0987171,1.2409405,1.0193301,0.15320012,0.10378431,1.0784099,0.35556114,0.4112274,-0.119622275,0.3323492,-0.2433458,-0.16522151,-0.49410322,-0.11085948,842.9304,799.011,799.011,836.8865,1034.3224,-0.24749755859375,0.00775146484375,0.9739990234375,4.5458984375,-5.21881103515625,-0.13458251953125,1,1.0,1.0,1.0,1.0,70.00
2021-04-17 09:44:00.640,,,,,,,,,,,,,,,,,,,,,,,,,,,,,,,,,,,,,,/muse/elements/blink
2021-04-17 09:44:00.870,1.6227359,0.46844336,0.39335638,1.6948313,1.334791,0.15654594,0.17699629,1.3612242,1.0193301,0.3096426,0.15975523,1.0784099,0.38751978,0.37878767,-0.13976775,0.36467168,-0.2048082,-0.029753089,-0.6339387,-0.07162923,739.7802,803.0403,813.5165,740.58606,700.293,-0.25836181640625,0.01019287109375,0.96832275390625,3.70849609375,-4.5159912109375,0.897216796875,1,1.0,1.0,1.0,1.0,70.00
2021-04-17 09:44:00.940,,,,,,,,,,,,,,,,,,,,,,,,,,,,,,,,,,,,,,/muse/elements/blink
2021-04-17 09:44:01.374,1.6223407,0.5705793,0.785046,1.7119192,1.3502897,0.38546252,0.46310496,1.3879763,1.0162286,0.39722577,0.30811164,1.0672691,0.39184988,0.43833405,-0.0945713,0.37041327,-0.23787494,0.06629341,-0.66476756,-0.08862157,782.0879,800.2198,804.65204,795.78754,665.2381,-0.25946044921875,0.00921630859375,0.97003173828125,4.6356201171875,-4.822540283203125,0.710296630859375,1,1.0,1.0,1.0,1.0,70.00
2021-04-17 09:44:01.889,1.6014742,0.7167712,0.9268719,1.7018791,1.3601338,0.5259095,0.56769454,1.4049772,1.0077232,0.38427117,0.30894628,1.0397693,0.38735285,0.4401627,-0.017735345,0.3629792,-0.26946998,0.14241953,-0.6475351,-0.118679084,773.6264,791.75824,798.20514,787.72894,639.45056,-0.2542724609375,0.00946044921875,0.96563720703125,4.77020263671875,-5.09918212890625,1.3458251953125,1,1.0,1.0,1.0,1.0,70.00
2021-04-17 09:44:02.007,,,,,,,,,,,,,,,,,,,,,,,,,,,,,,,,,,,,,,/muse/elements/blink
2021-04-17 09:44:02.401,1.6014742,0.66010785,0.92356455,1.7018791,1.3601338,0.50759125,0.5236602,1.4049772,1.0077232,0.40478483,0.39334744,1.0397693,0.38735285,0.44486612,-0.031968877,0.3629792,-0.26946998,0.06731395,-0.55509514,-0.118679084,925.5311,813.91943,799.011,919.0842,817.1429,-0.26165771484375,0.00714111328125,0.9649658203125,4.8150634765625,-5.39825439453125,0.844879150390625,1,1.0,1.0,1.0,1.0,70.00
2021-04-17 09:44:02.902,1.6014742,0.5207172,0.68999517,1.7018791,1.3601338,0.123489074,0.28148615,1.4049772,1.0077232,0.22329949,0.4425655,1.0397693,0.38735285,0.3461685,-0.038291134,0.3629792,-0.26946998,0.23907168,-0.53462774,-0.118679084,839.707,798.20514,801.8315,830.4396,992.4176,-0.2557373046875,0.005615234375,0.96978759765625,4.209442138671875,-3.955230712890625,0.919647216796875,1,1.0,1.0,1.0,1.0,70.00
2021-04-17 09:44:03.221,,,,,,,,,,,,,,,,,,,,,,,,,,,,,,,,,,,,,,/muse/elements/blink
2021-04-17 09:44:03.401,1.6014742,0.50328076,0.239781,1.7018791,1.3601338,0.13390458,-0.07494688,1.4049772,1.0077232,0.42914942,0.4390213,1.0397693,0.38735285,0.33565927,-0.06678077,0.3629792,-0.26946998,0.14986636,-0.543515,-0.118679084,775.2381,794.57874,801.02563,780.87915,663.22345,-0.25701904296875,0.01275634765625,0.9715576171875,5.659942626953125,-4.605712890625,2.3626708984375,1,2.0,1.0,1.0,2.0,70.00
2021-04-17 09:44:03.940,1.6014742,0.48391584,-0.074647464,1.7018791,1.3601338,0.0023978779,-0.095149726,1.4049772,1.0077232,0.39607742,0.4390213,1.0397693,0.38735285,0.33614725,-0.057629026,0.3629792,-0.26946998,0.11768669,-0.6280974,-0.118679084,816.337,792.96704,801.8315,808.2784,746.2271,-0.25909423828125,0.0087890625,0.96551513671875,3.745880126953125,-4.1571044921875,2.37762451171875,1,2.0,1.0,1.0,2.0,70.00
2021-04-17 09:44:04.448,1.6014742,0.28874075,-0.41880384,1.7018791,1.3601338,-0.016091555,-0.20581096,1.4049772,1.0077232,0.42466757,-0.066102475,1.0397693,0.38735285,0.4153517,-0.044696018,0.3629792,-0.26946998,-0.07598724,-0.61897624,-0.118679084,846.55676,803.8461,799.81683,837.28937,932.381,-0.25335693359375,0.01251220703125,0.97198486328125,5.4132080078125,-5.061798095703125,3.297271728515625,1,2.0,1.0,1.0,2.0,70.00
2021-04-17 09:44:04.989,0.28579563,0.09721815,-0.40174052,0.14980243,0.23002015,-0.13079345,-0.27595028,0.4378654,0.26899928,0.35845265,-0.058718134,0.39654863,0.08299323,0.42403653,-0.10189832,0.16191304,-0.23268482,-0.0069680214,-0.51565915,-0.16118093,800.6227,801.4286,797.3993,790.54944,679.7436,-0.25933837890625,0.02294921875,0.97137451171875,4.942169189453125,-5.12908935546875,1.973876953125,1,1.0,1.0,1.0,1.0,70.00
2021-04-17 09:44:05.513,0.5317548,0.041415565,-0.04898774,0.6138915,0.13059169,-0.16936001,-0.2681099,0.5253334,0.38098598,0.274829,0.39059561,0.4998845,-0.01869267,0.3966129,-0.07198129,0.13407959,-0.32509634,0.05162425,-0.50425047,-0.23928471,763.5531,782.49084,797.8022,774.43225,664.83514,-0.251953125,0.009765625,0.9700927734375,4.987030029296875,-5.450592041015625,1.3458251953125,1,1.0,1.0,1.0,1.0,70.00
2021-04-17 09:44:06.036,0.66265714,0.34645033,0.3239338,0.78937376,0.23445973,-0.029137004,-0.08688159,0.55922014,0.3860147,0.37750083,0.50603354,0.53341496,-0.04695947,0.30094805,-0.013201152,0.20682006,-0.34116626,0.1030707,-0.45842314,-0.24002053,780.4762,781.28204,803.0403,787.72894,808.68134,-0.248291015625,0.01031494140625,0.9678955078125,5.121612548828125,-3.955230712890625,0.95703125,1,1.0,1.0,1.0,1.0,70.00
2021-04-17 09:44:06.550,0.6869312,0.6274305,0.6992447,0.8249273,0.420439,0.42835566,0.17685892,0.48558885,0.39362696,0.5761021,0.5749374,0.5400684,-0.07123447,0.31760663,0.08524614,0.21181482,-0.3761035,0.056422293,-0.5231151,-0.2694192,835.6777,820.7692,796.99634,812.3077,784.90845,-0.24334716796875,0.0084228515625,0.9718017578125,4.897308349609375,-5.1141357421875,0.8673095703125,1,1.0,1.0,1.0,1.0,70.00
2021-04-17 09:44:07.051,0.51610816,0.8096688,0.847416,0.673389,0.500084,0.5651399,0.33482072,0.3301599,0.36989093,0.5827004,0.5550632,0.49889484,0.06878183,0.39868394,0.10543632,0.219984,-0.30146095,0.04610604,-0.5093307,-0.1512825,871.53845,792.5641,799.41394,871.53845,838.49817,-0.25054931640625,0.00518798828125,0.97314453125,4.598236083984375,-4.807586669921875,1.016845703125,1,1.0,1.0,1.0,1.0,70.00
2021-04-17 09:44:07.215,,,,,,,,,,,,,,,,,,,,,,,,,,,,,,,,,,,,,,/muse/elements/blink
2021-04-17 09:44:07.567,0.26973018,0.7371715,0.78910595,0.4906145,0.50457495,0.61876243,0.41638637,0.23643713,0.25351915,0.60868865,0.65499246,0.47050175,0.09957677,0.45822445,0.061544906,0.16681823,-0.30288497,0.105135866,-0.49946466,-0.102265716,834.87177,816.7399,797.3993,820.3663,884.83514,-0.24884033203125,0.00762939453125,0.97015380859375,4.658050537109375,-4.478607177734375,1.1663818359375,1,1.0,1.0,1.0,1.0,70.00
2021-04-17 09:44:08.080,0.17272429,0.7396235,0.8304248,0.51977926,0.25884756,0.5506057,0.4890785,0.320497,0.17169686,0.5519111,0.64949876,0.40222788,0.20124343,0.46635395,0.067994915,0.14496271,-0.24565858,0.08697873,-0.49036235,-0.034301694,768.3883,794.17584,794.17584,782.8938,645.4945,-0.2484130859375,0.00701904296875,0.9697265625,4.5159912109375,-4.732818603515625,0.7476806640625,1,1.0,1.0,1.0,1.0,70.00
2021-04-17 09:44:08.602,0.19078314,0.6850756,0.81214243,0.51977926,-0.05080946,0.5066241,0.50639385,0.320497,-0.0032756978,0.5586238,0.642009,0.40222788,-0.013022667,0.3954394,0.026944896,0.14496271,-0.22967754,0.067944825,-0.5492801,-0.034301694,776.4469,793.36993,795.78754,793.36993,713.1868,-0.24603271484375,0.00604248046875,0.972412109375,4.17205810546875,-4.88983154296875,0.8074951171875,1,1.0,1.0,1.0,1.0,60.00
2021-04-17 09:44:09.115,0.1231144,0.66218555,0.79672146,0.32801652,0.12113314,0.37178314,0.44537902,0.31661955,0.15589035,0.5586238,0.62102157,0.44843757,-0.048383925,0.38155577,0.019905983,0.17237091,-0.27066672,0.007881734,-0.563674,-0.24098645,823.5897,796.5934,805.8608,823.9927,878.3883,-0.2501220703125,0.004150390625,0.97235107421875,4.284210205078125,-5.15899658203125,0.904693603515625,1,1.0,1.0,1.0,1.0,60.00
2021-04-17 09:44:09.650,0.17848496,0.6629056,0.6123491,0.2484384,0.19283785,0.28142524,0.33837757,0.36881894,0.26880032,0.4205185,0.57205975,0.5090717,-0.048526645,0.33116543,0.028921375,0.17314526,-0.2811173,0.13241051,-0.5682739,-0.30299214,821.978,794.9817,802.6374,810.696,771.2088,-0.24072265625,0.002197265625,0.97601318359375,5.09918212890625,-4.11224365234375,1.114044189453125,1,1.0,1.0,1.0,1.0,60.00
2021-04-17 09:44:10.164,0.34292552,0.72716933,0.5247697,0.20279466,0.2725894,0.30577686,0.33972555,0.3254972,0.293386,0.4114852,0.47104266,0.74627465,-0.027002228,0.28972045,0.016162299,0.121553056,-0.34930283,0.062710814,-0.5461553,-0.26980653,782.49084,788.1319,800.2198,789.34064,710.7692,-0.24041748046875,0.00494384765625,0.97052001953125,4.80010986328125,-4.209442138671875,0.889739990234375,1,1.0,1.0,1.0,1.0,60.00
2021-04-17 09:44:10.670,0.3795005,0.8898085,0.6905134,0.23976459,0.23781587,0.44312075,0.4312782,0.3651212,0.49880552,0.40625423,0.48017392,0.7651768,-0.029261814,0.2294718,0.057922177,0.14099373,-0.3377667,-0.028322358,-0.5982793,-0.26683715,802.23444,803.44324,795.38464,805.4579,729.304,-0.2442626953125,0.00567626953125,0.97430419921875,4.403839111328125,-4.725341796875,1.772003173828125,1,1.0,1.0,1.0,1.0,60.00
2021-04-17 09:44:11.185,0.45629138,0.927537,0.7278301,0.20987102,0.1752196,0.5503353,0.43900236,0.33382073,0.5204329,0.45301,0.43900052,0.73411906,0.03360966,0.27478614,-0.018095063,0.12534533,-0.3461693,-0.18069595,-0.57412964,-0.2704183,759.92676,787.72894,796.99634,782.49084,686.99634,-0.24188232421875,0.00146484375,0.97027587890625,4.568328857421875,-4.725341796875,0.919647216796875,1,1.0,1.0,1.0,1.0,60.00
2021-04-17 09:44:11.687,0.4833061,0.96193814,0.8045796,0.09212382,0.10050551,0.63149536,0.54842246,0.39327928,0.5229612,0.42038974,0.6039348,0.6806118,0.06564938,0.3701213,0.022436077,0.20412455,-0.31592625,-0.13183962,-0.52300686,-0.3460135,840.9158,806.6667,796.99634,822.7839,780.87915,-0.2392578125,9.1552734375E-4,0.969970703125,4.792633056640625,-5.4132080078125,1.1962890625,1,1.0,1.0,1.0,1.0,60.00
2021-04-17 09:44:12.212,0.6109369,0.76847196,0.6901002,0.09682805,0.043700058,0.49050787,0.4948403,0.4360494,0.47287372,0.42038974,0.5878435,0.3303311,0.15696341,0.3970682,-0.04220873,0.24405473,-0.32544872,0.0049234256,-0.53527105,-0.3514566,812.71063,808.2784,798.60803,807.47253,662.01465,-0.24725341796875,0.01043701171875,0.974365234375,5.0244140625,-5.15899658203125,3.90289306640625,1,1.0,1.0,1.0,1.0,60.00
2021-04-17 09:44:12.720,0.58526456,0.4984338,0.497927,0.19836786,-0.00986524,0.17331856,0.358187,0.39835364,0.23499385,0.18433338,0.52531654,0.23806717,0.09363641,0.40420935,-0.12547164,0.32317224,-0.38878822,0.048837475,-0.5703259,-0.3660657,882.01465,815.9341,803.0403,870.7326,806.6667,-0.24603271484375,0.01025390625,0.97479248046875,5.525360107421875,-5.15899658203125,2.64678955078125,1,1.0,1.0,1.0,1.0,60.00
2021-04-17 09:44:13.233,0.9350066,0.35428146,-0.07846243,0.19836786,0.6879154,0.047046464,-0.11310069,0.39835364,0.7411966,0.22544438,0.15960129,0.23806717,-0.011673532,0.36485937,-0.15767258,0.32317224,-0.52632815,0.028562943,-0.6767857,-0.3660657,797.8022,801.8315,797.3993,794.9817,622.9304,-0.240478515625,0.003662109375,0.9697265625,4.687957763671875,-4.762725830078125,-1.263580322265625,1,1.0,1.0,1.0,1.0,60.00
2021-04-17 09:44:13.753,1.1263126,0.29362872,-0.20961185,1.368374,0.69526494,0.0104872715,-0.2668826,0.95353633,0.7737266,0.28168812,0.11267582,0.7235184,0.1303185,0.29944518,-0.120578334,0.3188236,-0.43170986,-0.0729927,-0.6208,-0.37112206,760.7326,777.25275,793.7729,782.8938,707.5458,-0.23651123046875,-0.0015869140625,0.97149658203125,4.628143310546875,-5.016937255859375,0.037384033203125,1,1.0,1.0,1.0,1.0,60.00
2021-04-17 09:44:14.300,1.161851,0.38474885,-0.04731007,1.2922013,0.7767146,0.123243764,-0.19004236,0.9453466,0.8137313,0.30464733,0.36375707,0.7466914,0.20028569,0.19831969,-0.028982503,0.2684305,-0.4092823,-0.13525437,-0.6547474,-0.36369798,776.8498,783.2967,798.60803,788.93774,892.8938,-0.23480224609375,0.00164794921875,0.974609375,4.65057373046875,-5.151519775390625,0.58319091796875,1,1.0,1.0,1.0,1.0,60.00
2021-04-17 09:44:14.704,,,,,,,,,,,,,,,,,,,,,,,,,,,,,,,,,,,,,,/muse/elements/blink
2021-04-17 09:44:14.827,1.1572231,0.61231494,0.3060228,1.1928779,0.74060965,0.35214278,-0.09978037,0.8822933,0.73151094,0.39966074,0.44866878,0.71429837,0.24200457,0.18698667,0.0076698633,0.19817856,-0.3991431,-0.15613247,-0.5534794,-0.37520868,824.7985,820.3663,789.7436,805.4579,778.46155,-0.23583984375,-0.0015869140625,0.97808837890625,4.732818603515625,-4.568328857421875,1.428070068359375,1,1.0,1.0,1.0,1.0,60.00
2021-04-17 09:44:15.336,1.1362314,0.67280424,0.4112662,1.0573617,0.8495341,0.428806,0.06500568,0.8882844,0.66259533,0.4911787,0.4622058,0.67572296,0.2371851,0.24524634,0.09540232,0.15001611,-0.43784603,-0.13716738,-0.5211079,-0.3617579,800.2198,799.81683,797.8022,792.96704,837.6923,-0.2283935546875,-0.00830078125,0.97076416015625,4.38140869140625,-4.987030029296875,1.5850830078125,1,1.0,1.0,1.0,1.0,60.00
2021-04-17 09:44:15.857,1.1865523,0.6403652,0.47741336,1.0771278,0.9025672,0.43566212,0.035064086,0.9651811,0.6428717,0.5175391,0.42031354,0.6720351,0.23999406,0.3022673,0.103579685,0.09019682,-0.45653462,-0.1730063,-0.49904943,-0.34147882,834.87177,810.293,798.60803,832.8571,811.9048,-0.236572265625,0.0037841796875,0.97393798828125,4.71038818359375,-4.29168701171875,1.1962890625,1,1.0,1.0,1.0,1.0,60.00
2021-04-17 09:44:16.361,0.7089155,0.33159715,0.33534878,0.81391335,0.7646706,0.3045619,0.059380062,0.56318206,0.36004242,0.42293203,0.09156181,0.28296348,0.0731841,0.33782643,0.0683818,0.123506494,-0.3897626,-0.20627469,-0.5564209,-0.43969807,815.5311,797.3993,798.60803,804.65204,733.73627,-0.2298583984375,0.0025634765625,0.971923828125,5.2337646484375,-5.420684814453125,0.964508056640625,1,1.0,1.0,1.0,1.0,60.00
2021-04-17 09:44:16.394,,,,,,,,,,,,,,,,,,,,,,,,,,,,,,,,,,,,,,/muse/elements/blink
2021-04-17 09:44:16.869,0.7089155,0.3802805,0.31087446,0.81391335,0.7646706,0.35145038,-0.101984955,0.56318206,0.36004242,0.40581438,-0.07183151,0.28296348,0.0731841,0.296071,-0.018855056,0.123506494,-0.3897626,-0.15831655,-0.49475878,-0.43969807,820.3663,797.8022,800.2198,819.5604,977.9121,-0.23388671875,-0.00115966796875,0.97802734375,4.66552734375,-4.493560791015625,0.5084228515625,1,1.0,1.0,1.0,1.0,60.00
2021-04-17 09:44:17.216,,,,,,,,,,,,,,,,,,,,,,,,,,,,,,,,,,,,,,/muse/elements/blink
2021-04-17 09:44:17.379,0.7688126,0.4686777,0.17021033,0.8591218,0.75190634,0.3886281,-0.19140537,0.63737804,0.28908017,0.39440218,-0.04872838,0.2792013,0.08522231,0.24978143,-0.07897066,0.11047205,-0.4252305,-0.12135126,-0.46270344,-0.4535154,822.381,818.3516,803.0403,812.3077,843.3333,-0.230712890625,-0.00152587890625,0.97607421875,4.897308349609375,-4.747772216796875,1.323394775390625,1,1.0,1.0,1.0,1.0,60.00
2021-04-17 09:44:17.544,,,,,,,,,,,,,,,,,,,,,,,,,,,,,,,,,,,,,,/muse/elements/blink
2021-04-17 09:44:17.742,,,,,,,,,,,,,,,,,,,,,,,,,,,,,,,,,,,,,,/muse/elements/blink
2021-04-17 09:44:17.889,0.7688126,0.5592897,0.15496053,0.8591218,0.75190634,0.4178867,-0.23846292,0.63737804,0.28908017,0.35925812,0.020537645,0.2792013,0.08522231,0.22144231,-0.16129713,0.11047205,-0.4252305,-0.05621294,-0.4252887,-0.4535154,769.59705,787.326,801.02563,784.5055,651.9414,-0.227783203125,-0.0010986328125,0.97607421875,4.78515625,-3.820648193359375,1.786956787109375,1,1.0,1.0,1.0,1.0,60.00
2021-04-17 09:44:18.399,0.7688126,0.45154455,0.22785243,0.8591218,0.75190634,0.30225965,-0.18687512,0.63737804,0.28908017,0.3294379,0.16426848,0.2792013,0.08522231,0.2594916,-0.12263775,0.11047205,-0.4252305,-0.11309638,-0.53284377,-0.4535154,779.67035,795.78754,799.81683,793.36993,667.6557,-0.22833251953125,-0.0069580078125,0.975341796875,4.254302978515625,-4.523468017578125,1.30096435546875,1,1.0,1.0,1.0,1.0,60.00
2021-04-17 09:44:18.909,0.7688126,0.28646043,0.20425472,0.8591218,0.75190634,0.19042777,-0.09138747,0.63737804,0.28908017,0.31598413,0.16426848,0.2792013,0.08522231,0.34660953,-0.21099536,0.11047205,-0.4252305,-0.16326788,-0.53549445,-0.4535154,789.34064,803.0403,798.60803,794.9817,662.8205,-0.2349853515625,-0.001708984375,0.97882080078125,4.329071044921875,-5.203857421875,3.401947021484375,1,2.0,1.0,1.0,2.0,70.00
2021-04-17 09:44:19.439,1.7512665,0.10910852,0.35911658,0.8591218,1.3594255,-0.09194136,-0.07079032,0.63737804,1.284231,0.13464098,0.2598862,0.2792013,0.5603912,0.36754176,-0.24387933,0.11047205,-0.4359457,-0.059411824,-0.5375786,-0.4535154,831.2454,806.26373,808.68134,823.5897,796.99634,-0.21697998046875,0.01129150390625,0.98193359375,4.41131591796875,-8.32916259765625,11.312408447265625,1,1.0,1.0,1.0,1.0,70.00
2021-04-17 09:44:19.980,1.7516645,0.06992058,0.54614633,0.8591218,1.2568372,-0.13837889,0.05940375,0.63737804,1.1092147,0.09159476,0.12239558,0.2792013,0.44425467,0.36769316,-0.34058422,0.11047205,-0.4115825,0.0070149666,-0.4833336,-0.4535154,857.4359,815.5311,806.6667,836.08057,774.0293,-0.19622802734375,-0.01177978515625,0.9814453125,0.112152099609375,-7.4169921875,-6.35528564453125,1,1.0,1.0,1.0,1.0,70.00
2021-04-17 09:44:20.414,,,,,,,,,,,,,,,,,,,,,,,,,,,,,,,,,,,,,,/muse/elements/blink
2021-04-17 09:44:20.486,1.7516645,0.6804035,0.8052778,0.8591218,1.2568372,0.13203917,0.17020679,0.63737804,1.1092147,0.14661591,0.11799531,0.2792013,0.44425467,0.3125963,-0.21856377,0.11047205,-0.4115825,0.16580541,-0.46325937,-0.4535154,786.9231,795.78754,792.96704,790.54944,602.381,-0.10882568359375,0.02764892578125,0.99664306640625,8.441314697265625,-7.85064697265625,-11.28997802734375,1,1.0,1.0,1.0,1.0,70.00
2021-04-17 09:44:20.909,,,,,,,,,,,,,,,,,,,,,,,,,,,,,,,,,,,,,,/muse/elements/blink
2021-04-17 09:44:20.993,1.7516645,0.98663354,0.86391515,0.8591218,1.2568372,0.4258938,0.21897992,0.63737804,1.1092147,0.23429005,0.11618774,0.2792013,0.44425467,0.37303168,-0.16452506,0.11047205,-0.4115825,0.09762409,-0.46191478,-0.4535154,862.27106,780.07324,799.81683,857.03296,1010.14655,-0.09954833984375,0.02752685546875,0.98846435546875,5.405731201171875,-5.091705322265625,2.908477783203125,1,1.0,1.0,1.0,1.0,70.00
2021-04-17 09:44:21.501,1.7516645,0.98663354,0.86391515,0.8591218,1.2568372,0.4258938,0.21897992,0.63737804,1.1092147,0.23429005,0.11618774,0.2792013,0.44425467,0.37303168,-0.16452506,0.11047205,-0.4115825,0.09762409,-0.46191478,-0.4535154,786.52014,795.38464,799.41394,788.1319,710.3663,-0.0980224609375,0.07073974609375,0.99444580078125,8.61328125,-1.495361328125,5.944061279296875,1,2.0,1.0,1.0,2.0,70.00
2021-04-17 09:44:22.043,1.7516645,0.9451607,0.6327179,0.8591218,1.2568372,0.59795123,0.12692645,0.63737804,1.1092147,0.30535606,0.40149608,0.2792013,0.44425467,0.2696003,-0.113088556,0.11047205,-0.4115825,-0.21772413,-0.38249648,-0.4535154,813.5165,815.5311,803.0403,799.81683,722.8571,-0.1634521484375,0.0357666015625,0.978759765625,-0.49346923828125,4.32159423828125,6.482391357421875,1,2.0,1.0,1.0,2.0,70.00
2021-04-17 09:44:22.360,,,,,,,,,,,,,,,,,,,,,,,,,,,,,,,,,,,,,,/muse/elements/blink
2021-04-17 09:44:22.573,1.3146045,1.1119909,1.025173,0.8591218,0.8655034,0.91228664,0.50318307,0.63737804,0.8111566,0.3478319,0.6907701,0.2792013,0.37943444,0.27316827,-0.14171506,0.11047205,-0.32617447,-0.18415582,-0.32345834,-0.4535154,848.5714,815.9341,803.0403,825.6044,842.52747,-0.3123779296875,0.0606689453125,0.94317626953125,10.908660888671875,-2.280426025390625,13.50311279296875,1,1.0,1.0,1.0,1.0,70.00
2021-04-17 09:44:23.095,1.3894486,1.1119909,0.9297257,0.8591218,1.0538017,0.91228664,0.53712,0.63737804,0.8778196,0.3478319,0.68490845,0.2792013,0.531806,0.27316827,-0.11350774,0.11047205,-0.35733175,-0.18415582,-0.3901596,-0.4535154,778.86444,817.5458,800.6227,801.4286,627.76556,-0.33245849609375,0.07470703125,0.9530029296875,5.211334228515625,-4.448699951171875,-3.805694580078125,1,1.0,1.0,1.0,1.0,70.00
2021-04-17 09:44:23.627,1.314572,1.3248583,0.870646,0.8591218,0.98291576,1.1020373,0.5289861,0.63737804,0.8778196,0.33658013,0.67593825,0.2792013,0.47437692,0.3665011,-0.105130605,0.11047205,-0.38046145,-0.19159603,-0.47179297,-0.4535154,804.65204,794.17584,823.9927,806.26373,782.8938,-0.2978515625,0.0428466796875,0.9554443359375,3.671112060546875,-4.246826171875,2.818756103515625,1,1.0,1.0,1.0,1.0,70.00
2021-04-17 09:44:24.149,0.9472685,1.3248583,0.5783575,0.3708834,0.9755416,1.1020373,0.51960415,0.4057182,0.8479469,0.33658013,0.68443125,0.5538839,0.3478067,0.3665011,-0.05609702,0.4751796,-0.252077,-0.19159603,-0.5361956,-0.18843378,770.0,807.47253,799.011,791.3553,654.35895,-0.28570556640625,0.05340576171875,0.96026611328125,1.786956787109375,-3.33465576171875,6.0711669921875,1,1.0,1.0,1.0,1.0,70.00
2021-04-17 09:44:24.677,0.6085717,0.45475796,0.60727787,0.25088215,0.83818394,0.32988724,0.4423836,0.54665715,0.82499653,0.41878805,0.6482799,0.7163177,0.26443794,0.51665854,-0.013066644,0.40594843,-0.21125805,-0.03106145,-0.47630507,-0.2744567,761.9414,786.52014,799.81683,782.0879,772.01465,-0.3125,0.03472900390625,0.955078125,3.506622314453125,-4.26177978515625,1.338348388671875,1,1.0,1.0,1.0,1.0,70.00
2021-04-17 09:44:25.197,0.47891587,0.6116263,0.5347812,0.10979911,0.7615447,0.2831844,0.38308248,0.5028352,0.8255393,0.45569673,0.5858665,0.71765566,0.2796523,0.45715633,-0.015324356,0.38019335,-0.2496313,-0.040036254,-0.4389015,-0.22386469,828.4249,813.5165,807.47253,811.50183,849.7802,-0.29962158203125,0.0277099609375,0.95306396484375,5.585174560546875,-4.059906005859375,-0.276641845703125,1,1.0,1.0,1.0,1.0,70.00
2021-04-17 09:44:25.714,0.2888708,0.521405,0.23890904,-0.08216425,0.4311652,0.14643541,0.008535256,0.34625933,0.78154385,0.27540782,0.3908999,0.65772784,0.2835302,0.41903743,-0.06598128,0.279908,-0.3291447,-0.065729424,-0.43064618,-0.3455993,796.5934,798.20514,802.6374,792.96704,744.61536,-0.323974609375,0.015869140625,0.936767578125,5.465545654296875,-5.203857421875,-5.674896240234375,1,1.0,1.0,1.0,1.0,70.00
2021-04-17 09:44:26.222,0.43553782,0.74083066,0.46006036,0.0038210007,0.2106522,0.44874406,0.1291775,0.08173598,0.4129059,0.57178426,0.30692726,0.56176287,0.2929963,0.37500277,-0.07930377,0.28041768,-0.3500663,-0.09042172,-0.50442326,-0.32991898,797.8022,792.1612,799.41394,790.9524,703.5165,-0.30218505859375,0.04254150390625,0.95574951171875,4.164581298828125,-4.373931884765625,3.768310546875,1,1.0,1.0,1.0,1.0,70.00
2021-04-17 09:44:26.576,,,,,,,,,,,,,,,,,,,,,,,,,,,,,,,,,,,,,,/muse/elements/blink
2021-04-17 09:44:26.765,0.6186834,0.7946513,0.6550696,0.12924759,0.2688839,0.5191331,0.26697385,0.14865223,0.45654806,0.57178426,0.31929815,0.55397964,0.30781075,0.347029,-0.10662551,0.25854075,-0.28138655,-0.14233723,-0.5159258,-0.3650015,793.36993,792.96704,801.8315,823.5897,661.2088,-0.30230712890625,0.0491943359375,0.95660400390625,1.921539306640625,-5.27862548828125,1.7645263671875,1,1.0,1.0,1.0,1.0,70.00
2021-04-17 09:44:27.272,0.82854366,0.927596,0.9418761,0.2201435,0.38038534,0.61265206,0.58902955,0.33003637,0.45654806,0.5850046,0.3149843,0.55397964,0.34414387,0.22144072,-0.089819126,0.2873024,-0.23763295,-0.14996101,-0.50511754,-0.3809593,782.0879,792.96704,799.41394,785.7143,640.2564,-0.30523681640625,0.03326416015625,0.95648193359375,5.3533935546875,-4.164581298828125,2.968292236328125,1,1.0,1.0,1.0,1.0,70.00
2021-04-17 09:44:27.795,0.95076114,0.76730496,0.8081517,0.31732008,0.48577496,0.34317037,0.4909082,0.40881342,0.45176813,0.45875645,0.2724476,0.55397964,0.26087865,0.11007558,-0.14365831,0.30490184,-0.20301253,-0.2185767,-0.43484232,-0.38028637,839.707,803.0403,804.2491,818.7546,973.47986,-0.3211669921875,0.0338134765625,0.94891357421875,5.525360107421875,-3.15521240234375,-0.10467529296875,1,1.0,1.0,1.0,1.0,70.00
2021-04-17 09:44:28.325,0.8759046,0.48994812,0.6214034,0.85132796,0.85924,0.19379446,0.35860378,0.9934136,0.6485999,0.16644053,0.26885268,0.69748473,0.21831463,0.107283995,-0.0765469,0.16342902,-0.5370332,-0.2502156,-0.45277017,-0.22011928,797.3993,813.5165,799.81683,795.38464,701.0989,-0.32464599609375,0.0330810546875,0.9454345703125,4.59075927734375,-4.8150634765625,0.10467529296875,1,1.0,1.0,1.0,1.0,70.00
2021-04-17 09:44:28.839,0.6281221,-0.0039179595,-0.12018838,0.558919,0.57774204,-0.07699686,-0.22231168,0.72767717,0.6510707,0.2205777,-0.026582893,0.71252733,0.20660256,0.16542663,-0.07549875,0.21821311,-0.45236644,-0.22996052,-0.40662378,-0.085745685,863.47986,813.91943,799.81683,828.8278,871.53845,-0.31414794921875,0.0455322265625,0.94964599609375,4.44122314453125,-3.940277099609375,0.95703125,1,1.0,1.0,1.0,1.0,70.00
2021-04-17 09:44:29.357,0.5013182,0.015435652,-0.22293873,0.4797867,0.42371398,-0.09068213,-0.2838179,0.573649,0.6510707,0.17483133,0.034724645,0.7433014,0.15749249,0.21592133,-0.12529057,0.18892094,-0.37199757,-0.22897087,-0.4221228,-0.14153735,823.1868,814.7253,805.8608,812.3077,707.1429,-0.31573486328125,0.0394287109375,0.94830322265625,4.478607177734375,-4.1571044921875,0.478515625,1,1.0,1.0,1.0,1.0,70.00
2021-04-17 09:44:29.914,0.19255991,0.05391666,-0.12916166,0.20658138,0.037754428,-0.19771476,-0.26557484,0.04810053,0.19348256,0.16556145,-8.4773975E-4,0.50982153,0.08299868,0.29598302,-0.1711706,0.17662908,-0.3317119,-0.21773656,-0.4387915,-0.11962154,842.9304,819.15753,797.3993,825.6044,795.78754,-0.32861328125,0.0335693359375,0.94830322265625,4.299163818359375,-6.5496826171875,2.235565185546875,1,1.0,1.0,1.0,1.0,70.00
2021-04-17 09:44:30.429,0.25497347,0.089261,-0.2022423,0.30597165,0.22947696,-0.112802066,-0.40898448,0.027768964,0.5348091,0.35459355,-0.011332718,0.49321213,0.1378428,0.2995191,-0.19762832,0.2546828,-0.31906387,-0.25513768,-0.5247808,-0.26011434,797.8022,810.293,801.8315,798.20514,663.6264,-0.323974609375,0.03546142578125,0.9498291015625,4.687957763671875,-4.314117431640625,0.2093505859375,1,1.0,1.0,1.0,1.0,70.00
2021-04-17 09:44:30.737,,,,,,,,,,,,,,,,,,,,,,,,,,,,,,,,,,,,,,/muse/elements/blink
2021-04-17 09:44:30.945,0.34127966,0.18007737,0.072975196,0.33335495,0.358506,0.18681353,-0.2085414,0.09435793,0.68005455,0.37064788,0.250144,0.32115188,0.2015772,0.28691193,-0.17235431,0.30887002,-0.3540398,-0.24086729,-0.5703523,-0.2726994,758.315,794.57874,798.20514,785.7143,576.1905,-0.32098388671875,0.0291748046875,0.947265625,4.6356201171875,-4.71038818359375,0.49346923828125,1,1.0,1.0,1.0,1.0,70.00
2021-04-17 09:44:31.458,0.43988773,0.4093445,0.4975176,0.37411958,0.46811163,0.3672416,0.22861706,0.24501882,0.68005455,0.3741032,0.37372398,0.27326337,0.3563427,0.3107739,-0.10365584,0.4328717,-0.3557909,-0.20782894,-0.5707587,-0.45508027,799.41394,807.0696,799.011,800.2198,708.7546,-0.32745361328125,0.032958984375,0.95428466796875,4.927215576171875,-4.792633056640625,1.353302001953125,1,1.0,1.0,1.0,1.0,70.00
2021-04-17 09:44:31.965,0.47316146,0.5416529,0.52200806,0.40363437,0.4858234,0.3978906,0.2456683,0.2558188,0.68005455,0.30436146,0.37372398,0.21859373,0.37406477,0.35447234,-0.009052232,0.4317323,-0.36244923,-0.22644557,-0.49003968,-0.46118912,808.2784,811.9048,797.3993,806.26373,723.663,-0.3199462890625,0.0291748046875,0.94610595703125,4.568328857421875,-4.50103759765625,1.039276123046875,1,1.0,1.0,1.0,1.0,70.00
2021-04-17 09:44:32.487,0.37675613,0.5483062,0.39132264,-0.028683448,-0.008296179,0.3544674,0.052570242,-0.36720154,0.116431125,0.34691098,0.3460786,-0.1964928,0.380338,0.36513758,0.02906463,0.2797663,-0.33788213,-0.25855902,-0.4723773,-0.5743859,838.9011,811.9048,797.3993,820.3663,780.87915,-0.31903076171875,0.03411865234375,0.9493408203125,5.196380615234375,-4.852447509765625,1.07666015625,1,1.0,1.0,1.0,1.0,70.00
2021-04-17 09:44:32.995,0.21215785,0.44629973,-0.04427259,-0.024232104,0.1809633,0.20611428,-0.25704992,-0.18805785,0.3022844,0.35631242,-0.062390245,0.30373988,0.2802984,0.29910251,-0.009142968,0.39567766,-0.38857308,-0.14600678,-0.49542204,-0.4728553,782.0879,791.3553,802.23444,788.5348,617.6923,-0.315673828125,0.03875732421875,0.9482421875,5.136566162109375,-5.66741943359375,2.27294921875,1,1.0,1.0,1.0,1.0,70.00
2021-04-17 09:44:33.521,0.16204947,0.17138371,-0.2039509,-0.008571312,0.14464168,0.029942563,-0.23174302,-0.07995153,0.34552267,0.40120348,-0.057294678,0.4639582,0.24863987,0.21614839,-0.11886553,0.31339034,-0.39062738,-0.011373497,-0.5708992,-0.35579705,755.09155,791.3553,797.8022,769.59705,646.30035,-0.3182373046875,0.04693603515625,0.9493408203125,5.510406494140625,-6.661834716796875,1.8841552734375,1,1.0,1.0,1.0,1.0,70.00
2021-04-17 09:44:34.044,-0.13550432,-0.060790975,-0.32316977,-0.089157104,0.11092488,-0.43531498,-0.24265455,0.012130027,0.37761548,0.30992544,-0.057623427,0.49827325,0.14600214,0.2114544,-0.18734477,0.26277667,-0.4769979,0.026109766,-0.48946834,-0.35488933,816.7399,798.60803,802.6374,816.7399,767.98535,-0.32012939453125,0.02691650390625,0.95745849609375,4.88983154296875,-4.568328857421875,2.3028564453125,1,1.0,1.0,1.0,1.0,70.00
2021-04-17 09:44:34.580,-0.17039081,-0.09351225,-0.5703948,-0.11513168,0.14462706,-0.4588162,-0.43145108,0.22740264,0.3548838,0.30967405,-0.22635932,0.57236683,0.09328901,0.22138217,-0.2428149,0.14331393,-0.38817275,-0.030079594,-0.4718958,-0.41791603,760.32965,784.5055,805.05493,782.8938,743.00366,-0.3232421875,0.02728271484375,0.9425048828125,4.5159912109375,-3.895416259765625,-0.07476806640625,1,1.0,1.0,1.0,1.0,70.00
2021-04-17 09:44:35.084,-0.21736687,-0.017830431,-0.5097887,-0.0512128,0.16157185,-0.16918778,-0.51892096,0.2833442,0.36152816,0.19203132,-0.21764359,0.49447662,-0.012628077,0.2665645,-0.31146246,0.11189657,-0.33474472,-0.15662606,-0.46403873,-0.52779573,836.08057,819.9634,802.6374,814.3223,831.6484,-0.32293701171875,0.0296630859375,0.947998046875,4.62066650390625,-4.538421630859375,1.5252685546875,1,1.0,1.0,1.0,1.0,70.00
2021-04-17 09:44:35.587,-0.037777558,-0.007908757,-0.23794939,0.1365076,0.17553225,-0.05795648,-0.4995531,0.24788325,0.3569393,0.2058206,-0.22682506,0.49236345,-0.043808185,0.27213565,-0.29391605,0.08601847,-0.3077325,-0.25054353,-0.5380193,-0.41443107,762.3443,780.87915,796.5934,773.22345,615.6777,-0.32745361328125,0.02752685546875,0.943359375,4.957122802734375,-4.127197265625,1.786956787109375,1,1.0,1.0,1.0,1.0,70.00
2021-04-17 09:44:36.118,-0.027885558,0.027755372,-0.10837507,0.15659745,0.005266874,-0.008298483,-0.5744879,0.10271137,0.2761722,0.1759982,0.028623601,0.4334972,0.06582711,0.30519995,-0.1753033,-0.011666385,-0.4033541,-0.32368034,-0.6225423,-0.36008987,854.61536,809.0842,802.6374,831.2454,870.7326,-0.3228759765625,0.0244140625,0.94659423828125,4.613189697265625,-4.5758056640625,0.97198486328125,1,1.0,1.0,1.0,1.0,70.00
2021-04-17 09:44:36.632,0.010316346,0.089951344,-0.07717442,0.12779558,0.010436596,-0.12577341,-0.48795396,0.11896394,0.2881891,0.27498937,0.0426173,0.53019804,0.1066942,0.29984626,-0.1791054,0.04992653,-0.4824673,-0.35008475,-0.6459281,-0.4265173,827.619,806.6667,790.9524,804.2491,758.315,-0.3270263671875,0.0228271484375,0.94720458984375,4.493560791015625,-4.6356201171875,0.97198486328125,1,1.0,1.0,1.0,1.0,70.00
2021-04-17 09:44:37.184,0.13069665,0.07593576,-0.0025176853,0.099133626,0.05756195,-0.24459733,-0.20272997,0.41349807,0.71001005,0.37009895,0.40527263,0.66538554,0.23800896,0.30642655,-0.0926675,0.16861607,-0.5014771,-0.26851135,-0.67438865,-0.4355536,778.46155,794.57874,797.3993,792.1612,768.3883,-0.324462890625,0.02490234375,0.94189453125,4.90478515625,-4.964599609375,0.560760498046875,1,1.0,1.0,1.0,1.0,70.00
2021-04-17 09:44:37.734,0.18412176,0.039388336,0.056718856,0.15787612,0.25589824,-0.17639749,0.033469465,0.49236533,0.71389747,0.29541257,0.40520766,0.6574256,0.21707994,0.3124572,-0.10803928,0.29425046,-0.49402517,-0.29419777,-0.5799887,-0.41184717,755.09155,798.60803,799.41394,770.0,593.5165,-0.324462890625,0.03173828125,0.946044921875,4.5758056640625,-4.807586669921875,1.158905029296875,1,1.0,1.0,1.0,1.0,70.00
2021-04-17 09:44:38.270,0.32339633,0.06071808,0.07539209,0.45981982,0.46361783,-0.026324088,0.1637338,0.6379304,0.7761487,0.4466926,0.40520766,0.55763316,0.20280829,0.34071913,-0.12548578,0.27001357,-0.43372563,-0.31160793,-0.6340254,-0.29345617,813.5165,790.54944,799.41394,806.26373,843.73627,-0.32855224609375,0.029296875,0.95379638671875,4.852447509765625,-4.852447509765625,1.86920166015625,1,1.0,1.0,1.0,1.0,70.00
2021-04-17 09:44:38.817,0.29889864,0.011286209,-0.119783565,0.49595574,0.58686095,-0.07709359,0.07674531,0.530401,0.56027865,0.21512507,-0.0029193452,0.43993723,0.07184602,0.30790251,-0.18140502,0.14554782,-0.31594247,-0.26817176,-0.5113418,-0.26332164,848.1685,818.3516,804.65204,833.2601,859.0476,-0.325439453125,0.0286865234375,0.95001220703125,4.71038818359375,-4.20196533203125,1.1962890625,1,1.0,1.0,1.0,1.0,70.00
2021-04-17 09:44:39.086,,,,,,,,,,,,,,,,,,,,,,,,,,,,,,,,,,,,,,/muse/elements/blink
2021-04-17 09:44:39.362,0.40126738,0.042259704,-0.20753965,0.6332217,0.7659859,-0.119315736,-0.21227658,0.6519788,1.17868,0.20310469,-0.012194786,1.2323914,0.20868033,0.20275827,-0.13459525,0.104933925,-0.2581814,-0.17433716,-0.5183301,-0.21273057,817.9487,805.4579,801.02563,811.50183,686.5934,-0.32061767578125,0.001953125,0.9462890625,3.985137939453125,-9.19647216796875,-3.342132568359375,1,1.0,1.0,1.0,1.0,70.00
2021-04-17 09:44:39.875,0.5172255,0.31495014,-0.034159184,0.8272609,1.0073024,-0.2017905,-0.12727322,1.0257068,1.2547647,0.038091604,0.2474035,1.2940627,0.3365619,0.17656633,-0.07743371,0.27023154,-0.33301762,-0.21668647,-0.43952954,-0.17880388,792.96704,796.99634,794.17584,796.1905,818.3516,-0.186279296875,0.06927490234375,0.978271484375,0.785064697265625,-7.514190673828125,-0.0299072265625,1,1.0,1.0,1.0,1.0,65.00
2021-04-17 09:44:40.413,0.7193294,0.5554803,0.24412891,1.1298674,1.1940439,0.019402694,0.063391045,1.3445052,1.2547647,0.022364888,0.258197,1.2940627,0.41685146,0.2293794,-0.12359395,0.45898354,-0.3536614,-0.29196635,-0.567018,-0.07960958,827.619,812.3077,797.8022,819.5604,762.74725,-0.1571044921875,0.0654296875,0.98309326171875,2.429962158203125,-4.366455078125,-1.009368896484375,1,1.0,1.0,1.0,1.0,65.00
2021-04-17 09:44:40.946,0.86764604,0.6743896,0.74867874,1.1298674,1.3183703,0.18432027,0.24053925,1.3445052,1.2547647,0.14060369,0.38749847,1.2940627,0.43001178,0.29525602,-0.10419037,0.45898354,-0.41526496,-0.3334293,-0.6294282,-0.07960958,474.652,765.9707,811.9048,465.3846,809.89014,-0.171142578125,0.06378173828125,0.98638916015625,4.658050537109375,-0.515899658203125,1.74957275390625,1,1.0,1.0,1.0,1.0,65.00
2021-04-17 09:44:41.069,,,,,,,,,,,,,,,,,,,,,,,,,,,,,,,,,,,,,,/muse/elements/blink
2021-04-17 09:44:41.499,0.86764604,0.7394457,0.97314394,1.1298674,1.3183703,0.28081354,0.33705872,1.3445052,1.2547647,0.11257533,0.3461142,1.2940627,0.43001178,0.29379672,-0.025896838,0.45898354,-0.41526496,-0.2749681,-0.64888597,-0.07960958,853.8095,821.978,804.65204,835.6777,815.9341,-0.21807861328125,0.05078125,0.97381591796875,3.925323486328125,-1.74957275390625,0.0897216796875,1,1.0,1.0,1.0,1.0,65.00
2021-04-17 09:44:41.815,,,,,,,,,,,,,,,,,,,,,,,,,,,,,,,,,,,,,,/muse/elements/blink
2021-04-17 09:44:42.005,0.86764604,0.74148554,1.0307212,1.1298674,1.3183703,0.32979217,0.35109863,1.3445052,1.2547647,0.09920479,0.35828018,1.2940627,0.43001178,0.24778712,-0.014017721,0.45898354,-0.41526496,-0.22828515,-0.61678857,-0.07960958,835.6777,813.1135,806.26373,836.08057,689.81683,-0.240234375,0.08111572265625,0.9713134765625,4.717864990234375,-3.237457275390625,5.181427001953125,1,1.0,1.0,1.0,1.0,65.00
2021-04-17 09:44:42.509,0.86764604,0.36955464,0.9225511,1.1298674,1.3183703,0.3382133,0.4510594,1.3445052,1.2547647,0.25304654,0.35352716,1.2940627,0.43001178,0.27893278,-0.0062200488,0.45898354,-0.41526496,-0.20627013,-0.5726208,-0.07960958,833.2601,813.5165,799.81683,820.3663,760.32965,-0.1912841796875,0.0467529296875,0.95843505859375,4.306640625,-11.903076171875,-6.796417236328125,1,2.0,1.0,1.0,2.0,65.00
2021-04-17 09:44:42.916,,,,,,,,,,,,,,,,,,,,,,,,,,,,,,,,,,,,,,/muse/elements/blink
2021-04-17 09:44:43.057,1.4764585,0.51554817,0.73192626,1.1298674,1.0497862,0.3266339,0.39128482,1.3445052,0.6689277,0.3866862,0.33635134,1.2940627,0.40068406,0.35198873,0.003771759,0.45898354,-0.621257,-0.075826004,-0.5547937,-0.07960958,745.0183,787.326,813.5165,753.8828,734.94507,-0.15802001953125,0.06219482421875,0.97589111328125,7.19268798828125,-16.04522705078125,-5.0244140625,1,1.0,1.0,1.0,1.0,65.00
2021-04-17 09:44:43.594,1.4764585,0.51554817,0.8078541,1.1298674,1.0497862,0.3266339,0.503867,1.3445052,0.6689277,0.3866862,0.4230327,1.2940627,0.40068406,0.35198873,-0.016696941,0.45898354,-0.621257,-0.075826004,-0.5158155,-0.07960958,859.45056,780.87915,810.696,851.79486,894.90845,-0.20269775390625,0.0704345703125,0.9931640625,-1.383209228515625,-1.77947998046875,-1.375732421875,1,1.0,1.0,1.0,1.0,65.00
2021-04-17 09:44:44.126,1.4792224,0.62461793,0.7787478,1.1298674,1.0425647,0.31473726,0.41629744,1.3445052,0.65384567,0.3043421,0.4077147,1.2940627,0.3902836,0.4145068,0.019028656,0.45898354,-0.6498401,0.024354057,-0.46856275,-0.07960958,812.71063,825.2015,801.02563,813.1135,750.2564,-0.1263427734375,0.04559326171875,0.990966796875,1.07666015625,-1.712188720703125,8.68804931640625,1,1.0,1.0,1.0,1.0,65.00
2021-04-17 09:44:44.453,,,,,,,,,,,,,,,,,,,,,,,,,,,,,,,,,,,,,,/muse/elements/blink
2021-04-17 09:44:44.664,1.4792224,0.62461793,0.81476647,1.1298674,1.0425647,0.31473726,0.48891765,1.3445052,0.65384567,0.3043421,0.49578002,1.2940627,0.3902836,0.4145068,4.4583433E-4,0.45898354,-0.6498401,0.024354057,-0.4761223,-0.07960958,807.0696,793.7729,801.02563,809.0842,702.3077,-0.14501953125,0.063720703125,0.9959716796875,3.940277099609375,-5.106658935546875,11.17034912109375,1,1.0,1.0,1.0,1.0,65.00
2021-04-17 09:44:45.188,1.4792224,0.62461793,0.8042146,1.1298674,1.0425647,0.31473726,0.39827228,1.3445052,0.65384567,0.3043421,0.40318188,1.2940627,0.3902836,0.4145068,-0.018985944,0.45898354,-0.6498401,0.024354057,-0.5371071,-0.07960958,824.3956,806.26373,805.8608,819.5604,829.6337,-0.138916015625,0.0262451171875,0.99237060546875,3.70849609375,-4.179534912109375,-2.7215576171875,1,1.0,1.0,1.0,1.0,65.00
2021-04-17 09:44:45.291,,,,,,,,,,,,,,,,,,,,,,,,,,,,,,,,,,,,,,/muse/elements/blink
2021-04-17 09:44:45.422,,,,,,,,,,,,,,,,,,,,,,,,,,,,,,,,,,,,,,/muse/elements/blink
2021-04-17 09:44:45.694,1.4792224,0.62461793,0.7293497,1.1298674,1.0425647,0.31473726,0.3239479,1.3445052,0.65384567,0.3043421,0.43578902,1.2940627,0.3902836,0.4145068,-0.11680752,0.45898354,-0.6498401,0.024354057,-0.52580994,-0.07960958,832.4542,806.6667,800.2198,821.5751,783.69965,-0.16265869140625,0.02215576171875,0.98004150390625,4.762725830078125,-0.515899658203125,0.396270751953125,1,2.0,1.0,1.0,2.0,65.00
2021-04-17 09:44:46.239,1.4792224,0.525138,0.57480216,1.1298674,1.0425647,0.0625178,0.2104623,1.3445052,0.65384567,0.12739792,0.41700247,1.2940627,0.3902836,0.13345712,-0.16438235,0.45898354,-0.6498401,-0.026866365,-0.48480326,-0.07960958,804.65204,807.47253,801.8315,805.8608,700.696,-0.228759765625,0.02032470703125,0.97412109375,1.79443359375,0.381317138671875,2.31781005859375,1,2.0,1.0,1.0,2.0,65.00
2021-04-17 09:44:46.785,1.4792224,0.4605143,0.27541134,1.087703,1.0425647,0.03455748,0.08177162,1.2168881,0.65384567,0.17505264,0.078333914,0.8780245,0.3902836,0.22592218,-0.08263025,0.5124835,-0.6498401,-0.10548541,-0.39947107,-0.18228403,781.685,803.44324,803.44324,788.5348,607.2161,-0.24969482421875,-0.01092529296875,0.96673583984375,5.8319091796875,-6.661834716796875,7.200164794921875,1,2.0,1.0,1.0,2.0,65.00
2021-04-17 09:44:47.317,1.138787,0.15679692,0.03331902,0.7794933,0.8550426,-0.039703883,-0.0205457,0.93109125,0.8745157,0.20839418,0.108250186,0.8780245,0.45333526,0.32209924,-0.10323948,0.38889742,-0.36476737,-0.13868995,-0.46076435,-0.32160926,793.36993,793.36993,798.20514,791.75824,681.75824,-0.235107421875,0.025634765625,0.97320556640625,5.78704833984375,-6.287994384765625,2.19818115234375,1,1.0,1.0,1.0,1.0,65.00
2021-04-17 09:44:47.854,0.8540964,0.25862306,-0.117049545,0.63181084,0.5653878,0.05516647,-0.15766163,0.78633785,0.8745157,0.04321577,-0.11024068,0.8780245,0.29460403,0.35341805,-0.14900637,0.33231837,-0.41281173,-0.27653578,-0.6117372,-0.33850563,787.72894,799.81683,803.44324,795.38464,684.57874,-0.22216796875,0.01568603515625,0.975341796875,4.844970703125,-5.3533935546875,0.538330078125,1,1.0,1.0,1.0,1.0,65.00
2021-04-17 09:44:48.397,0.48891443,0.21642958,-0.12952924,0.21273582,0.25412187,0.08557307,-0.2396891,0.30486974,0.25706363,0.12633578,-0.072479375,0.44111285,0.13149513,0.30827338,-0.05861718,0.238984,-0.46556124,-0.28069168,-0.6079058,-0.419815,783.2967,790.14655,804.2491,791.75824,688.60803,-0.23822021484375,0.02716064453125,0.9764404296875,8.20953369140625,-6.033782958984375,-13.98162841796875,1,1.0,1.0,1.0,1.0,65.00
2021-04-17 09:44:48.791,,,,,,,,,,,,,,,,,,,,,,,,,,,,,,,,,,,,,,/muse/elements/blink
2021-04-17 09:44:48.950,0.50092864,0.33262676,0.3498577,0.27134562,0.28339618,0.022459693,-0.008698623,0.2659009,0.20442712,0.13173027,0.086952835,0.35511974,0.1467752,0.1867602,-0.007038914,0.22413431,-0.5219316,-0.29567382,-0.586724,-0.31945324,832.4542,817.9487,798.60803,825.2015,772.01465,-0.2257080078125,0.0458984375,0.978759765625,12.84515380859375,-8.71795654296875,-38.341064453125,1,1.0,1.0,1.0,1.0,65.00
2021-04-17 09:44:49.474,0.5752814,0.32292867,0.8212698,0.38065562,0.39649475,-0.12930883,0.37797183,0.34546146,0.111657746,0.120422445,0.17075583,0.26316267,0.14448676,0.17647949,-0.015757738,0.26567397,-0.53597766,-0.22514859,-0.46360943,-0.27545464,770.40295,790.54944,803.0403,791.75824,631.79486,-0.20416259765625,0.04559326171875,0.97723388671875,6.80389404296875,-7.215118408203125,-13.301239013671875,1,1.0,1.0,1.0,1.0,65.00
2021-04-17 09:44:49.989,0.4593664,0.7353004,0.8495916,0.33793223,0.30698738,0.5481619,0.45730555,0.36889124,0.09104656,0.14140213,0.30028847,0.44951066,0.1146967,0.21077064,-0.14052771,0.3700325,-0.50583696,-0.13358617,-0.47273225,-0.29112098,789.7436,799.81683,798.20514,773.6264,731.31866,-0.14208984375,-0.007080078125,0.99249267578125,3.22998046875,-7.843170166015625,-4.77020263671875,1,1.0,1.0,1.0,1.0,70.00
2021-04-17 09:44:50.534,0.40333113,0.6750088,0.7510621,0.231804,0.13018827,0.51403296,0.37417758,0.33751822,0.3937209,0.18005909,0.30777863,0.4218686,-0.058867212,0.23143663,-0.1319237,0.462938,-0.58576185,-0.28505415,-0.50301486,-0.4004344,824.3956,810.293,804.65204,822.381,808.2784,-0.124755859375,-0.01361083984375,0.99139404296875,3.656158447265625,-6.347808837890625,-0.605621337890625,1,1.0,1.0,1.0,1.0,70.00
2021-04-17 09:44:51.041,0.31149575,0.5207898,0.2275861,0.19145593,0.069167994,0.39809164,-0.027025232,0.16291563,0.3937209,0.18133676,0.24615583,0.4218686,-0.11851232,0.20364104,-0.067443006,0.39651418,-0.40685424,-0.3305348,-0.5599998,-0.34179688,796.1905,779.67035,803.8461,803.44324,856.63007,-0.11602783203125,-0.01171875,0.99334716796875,6.38519287109375,-7.25250244140625,5.360870361328125,1,1.0,1.0,1.0,1.0,70.00
2021-04-17 09:44:51.577,0.6054729,0.2504521,0.113292515,0.50361854,0.07879106,0.07940691,-0.23897152,0.24379535,0.4880748,0.019902613,0.084252834,0.72714466,-0.08870392,0.16947219,-0.09181934,0.30181018,-0.38258597,-0.34691355,-0.6327877,-0.35158685,806.6667,809.4872,794.9817,806.6667,679.34064,-0.100341796875,0.0062255859375,1.00030517578125,4.508514404296875,-6.6094970703125,7.050628662109375,1,1.0,1.0,1.0,1.0,70.00
2021-04-17 09:44:52.102,,,,,,,,,,,,,,,,,,,,,,,,,,,,,,,,,,,,,,/muse/elements/blink
2021-04-17 09:44:52.107,0.9605077,0.51627415,0.4610539,0.92876214,0.43741307,-0.13334109,0.02429835,0.6424613,0.65427077,0.06073743,0.24697465,0.8742158,0.0940892,0.18430972,-0.13285331,0.18031614,-0.32245982,-0.239279,-0.64440745,-0.41556683,815.12823,804.2491,796.1905,808.68134,712.7839,-0.08184814453125,0.01763916015625,0.9964599609375,0.994415283203125,-5.674896240234375,-0.34393310546875,1,1.0,1.0,1.0,1.0,70.00
2021-04-17 09:44:52.496,,,,,,,,,,,,,,,,,,,,,,,,,,,,,,,,,,,,,,/muse/elements/blink
2021-04-17 09:44:52.655,1.112618,0.71410245,0.72438216,1.0994984,0.5629317,-0.17416413,0.22293603,0.82029134,0.667201,0.21641633,0.24872193,0.8742158,0.17526034,0.22721685,-0.17882507,0.16292705,-0.37567502,-0.23027097,-0.65213335,-0.45811507,780.07324,805.8608,796.99634,786.1172,694.65204,-0.0775146484375,-0.01031494140625,0.97491455078125,6.437530517578125,-3.267364501953125,-0.83740234375,1,1.0,1.0,1.0,1.0,70.00
2021-04-17 09:44:53.182,1.1245947,0.8021987,0.72942984,1.1433605,0.6471852,-0.054762688,0.17738837,0.8992101,0.64244694,0.24129811,0.2056048,0.86715597,0.23619926,0.23098384,-0.14348619,0.17674832,-0.3805213,-0.3330617,-0.6990666,-0.47770438,807.8755,811.0989,806.26373,806.26373,645.4945,-0.06378173828125,0.0382080078125,1.00872802734375,4.4561767578125,-4.127197265625,0.58319091796875,1,1.0,1.0,1.0,1.0,70.00
2021-04-17 09:44:53.712,1.1086618,0.7490492,0.5790088,1.1433605,0.5730539,0.14773223,0.058259416,0.8992101,0.51436937,0.28343725,0.25584593,0.86715597,0.18220042,0.20137765,-0.04116315,0.17674832,-0.39677054,-0.48006293,-0.75762033,-0.47770438,843.3333,818.3516,801.4286,832.4542,850.18317,-0.0589599609375,0.03594970703125,0.999755859375,4.41131591796875,-7.095489501953125,1.158905029296875,1,1.0,1.0,1.0,1.0,70.00
2021-04-17 09:44:54.225,1.1205716,0.58340824,0.13734399,1.3290462,1.1354637,0.2146283,-0.23524539,1.0755758,0.94238013,0.26731947,0.25450066,0.7563571,0.13884895,0.22414985,-0.11061297,0.23906073,-0.24318913,-0.47077328,-0.77638495,-0.29721323,790.14655,805.4579,799.41394,790.9524,594.3223,-0.06146240234375,0.0440673828125,1.0008544921875,4.613189697265625,-5.001983642578125,-1.7645263671875,1,1.0,1.0,1.0,1.0,70.00
2021-04-17 09:44:54.506,,,,,,,,,,,,,,,,,,,,,,,,,,,,,,,,,,,,,,/muse/elements/blink
2021-04-17 09:44:54.761,1.1205716,0.2064325,0.17912978,1.3290462,1.1354637,0.15714563,-0.40383726,1.0755758,0.94238013,0.28135398,0.27180323,0.7563571,0.13884895,0.24733739,-0.15257727,0.23906073,-0.24318913,-0.48609912,-0.7373003,-0.29721323,768.3883,792.1612,798.20514,768.7912,660.40295,-0.0704345703125,0.04296875,0.998046875,3.768310546875,-5.72723388671875,-0.79254150390625,1,1.0,1.0,1.0,1.0,70.00
2021-04-17 09:44:55.275,1.020281,0.04675496,0.07433957,1.1904826,1.2281114,-0.07821659,-0.26096037,1.1058503,0.8266714,0.2005074,0.13772947,0.7218917,0.15398979,0.26069212,-0.3105229,0.24047984,-0.29978997,-0.34554788,-0.67681336,-0.26343858,796.1905,786.9231,808.2784,795.38464,796.99634,-0.05841064453125,0.04296875,1.00469970703125,5.38330078125,-4.964599609375,-4.02252197265625,1,1.0,1.0,1.0,1.0,70.00
2021-04-17 09:44:55.776,0.9813762,0.5942931,0.60422003,1.1440426,1.2816334,0.08333057,0.2201302,1.1409348,0.8138979,0.39415628,0.32398808,0.72182316,0.1683608,0.26022053,-0.17553581,0.25077978,-0.31631732,-0.34030548,-0.6216375,-0.24931742,691.8315,772.01465,808.2784,678.1319,800.2198,-0.07403564453125,0.0362548828125,1.00030517578125,3.327178955078125,-5.824432373046875,2.415008544921875,1,1.0,1.0,1.0,1.0,70.00
2021-04-17 09:44:55.964,,,,,,,,,,,,,,,,,,,,,,,,,,,,,,,,,,,,,,/muse/elements/blink
2021-04-17 09:44:56.305,0.9813762,0.8937902,0.63733846,1.1440426,1.2816334,0.44183043,0.27670836,1.1409348,0.8138979,0.5176499,0.32104734,0.72182316,0.1683608,0.27003404,-0.11680462,0.25077978,-0.31631732,-0.30649167,-0.6359249,-0.24931742,825.6044,799.81683,801.02563,822.381,753.47986,-0.06109619140625,0.03277587890625,1.00115966796875,4.14215087890625,-6.4898681640625,3.013153076171875,1,1.0,1.0,1.0,1.0,70.00
2021-04-17 09:44:56.828,0.9813762,1.0347135,0.62162334,1.1440426,1.2816334,0.5871961,0.25764075,1.1409348,0.8138979,0.51417017,0.31950337,0.72182316,0.1683608,0.2527203,-0.06885494,0.25077978,-0.31631732,-0.33605036,-0.6195004,-0.24931742,801.8315,802.23444,798.20514,805.8608,673.69965,-0.04327392578125,0.00469970703125,0.9951171875,5.5328369140625,-3.641204833984375,0.755157470703125,1,1.0,1.0,1.0,1.0,70.00
2021-04-17 09:44:57.345,0.9813762,0.93897706,0.2653996,1.1440426,1.2816334,0.5940552,-0.09485197,1.1409348,0.8138979,0.5067293,0.4151515,0.72182316,0.1683608,0.21659406,0.007175931,0.25077978,-0.31631732,-0.35755432,-0.6886771,-0.24931742,777.25275,799.81683,801.8315,782.0879,614.87177,-0.10321044921875,0.06085205078125,0.99029541015625,3.5888671875,-2.49725341796875,3.5888671875,1,2.0,1.0,1.0,2.0,70.00
2021-04-17 09:44:57.880,1.3353717,0.71756476,0.076531425,1.5963156,1.1323768,0.462347,-0.21752419,1.2095876,1.1458042,0.50360614,0.34664145,1.1967034,0.41075426,0.18472537,0.057350483,0.5570905,-0.25083023,-0.3628545,-0.6191576,-0.42041352,825.6044,794.57874,805.05493,817.9487,942.0513,-0.08502197265625,0.04736328125,0.9930419921875,3.8580322265625,-4.50103759765625,0.426177978515625,1,1.0,1.0,1.0,1.0,70.00
2021-04-17 09:44:58.389,1.1966592,0.32894665,0.18201546,1.3198788,1.1768641,0.47412184,-0.3566272,1.0681196,1.1458042,0.30740958,0.3447078,1.1967989,0.3787456,0.1801615,0.079864986,0.34359357,-0.30681044,-0.38075745,-0.5755128,-0.2977347,778.0586,801.02563,801.8315,779.2674,758.71796,-0.1068115234375,0.059326171875,0.98565673828125,6.47491455078125,-2.6318359375,1.712188720703125,1,1.0,1.0,1.0,1.0,70.00
2021-04-17 09:44:58.892,1.0703998,0.32006073,0.27787334,0.9903167,1.1081117,0.42047486,-0.21681811,0.97531325,1.0593733,0.28632653,0.33195603,1.0036327,0.34437427,0.1934249,-8.3158055E-4,0.31399497,-0.29465574,-0.32552353,-0.5780967,-0.30086887,804.65204,797.8022,806.26373,809.4872,663.22345,-0.08966064453125,0.04583740234375,0.99615478515625,5.15899658203125,-7.79083251953125,-3.21502685546875,1,1.0,1.0,1.0,1.0,70.00
2021-04-17 09:44:59.435,1.2715704,0.6068146,0.51778436,1.0841849,1.1428291,0.54713714,0.017824912,1.0598031,1.0210437,0.51467216,0.32321537,0.9875545,0.39497524,0.16644207,0.079617694,0.37303415,-0.24644364,-0.31861198,-0.5998174,-0.25212422,859.85345,823.1868,800.2198,851.79486,833.2601,-0.04840087890625,0.0244140625,0.994873046875,2.452392578125,-12.045135498046875,-0.85235595703125,1,1.0,1.0,1.0,1.0,70.00
2021-04-17 09:44:59.980,1.3931865,0.74005747,0.650311,1.2019315,1.0506276,0.55843496,0.14202942,1.1197112,1.0150087,0.5049974,0.32349154,0.9875545,0.42779827,0.23863174,0.08283892,0.43673274,-0.16483141,-0.33174402,-0.6610677,-0.24755737,776.8498,780.07324,798.20514,783.2967,705.9341,0.02386474609375,3.0517578125E-4,1.00030517578125,4.66552734375,-6.53472900390625,1.9140625,1,1.0,1.0,1.0,1.0,70.00
2021-04-17 09:45:00.484,1.3801565,0.8460195,0.57538956,1.1652902,0.9075633,0.6585953,0.072928354,1.035456,0.8751015,0.4615076,0.2801426,0.9879399,0.20081258,0.26722577,0.027541054,0.26737738,-0.16015975,-0.34234485,-0.6348053,-0.1717465,765.16486,796.5934,799.011,766.3736,703.5165,0.02703857421875,0.02093505859375,0.996826171875,5.18890380859375,-4.11224365234375,2.758941650390625,1,1.0,1.0,1.0,1.0,70.00
2021-04-17 09:45:01.008,0.7655155,0.935939,0.39523292,0.71701545,0.61334586,0.7528394,-0.16827632,0.6412625,0.0020357475,0.45568383,0.108388565,0.5863573,-0.03959878,0.3520836,-0.12066001,0.1618734,-0.19700447,-0.41254857,-0.7515848,-0.2642129,790.54944,796.5934,805.05493,790.54944,754.2857,0.05340576171875,0.03790283203125,1.004638671875,5.42816162109375,-6.62445068359375,3.132781982421875,1,1.0,1.0,1.0,1.0,70.00
2021-04-17 09:45:01.525,,,,,,,,,,,,,,,,,,,,,,,,,,,,,,,,,,,,,,/muse/elements/blink
2021-04-17 09:45:01.532,0.67080665,0.935939,-0.117372386,0.42172092,0.568503,0.7528394,-0.39428326,0.29667172,0.1555872,0.45568383,-0.09428637,0.43972084,0.040277623,0.3520836,-0.21736944,0.17348206,-0.18592218,-0.41254857,-0.6311863,-0.33500665,861.8681,831.6484,794.17584,862.27106,723.2601,0.080810546875,0.02484130859375,0.99884033203125,2.983245849609375,-10.131072998046875,0.35888671875,1,1.0,1.0,1.0,1.0,70.00
2021-04-17 09:45:02.053,0.6373243,0.935939,0.45075166,0.3936397,0.5392646,0.7528394,-0.10107963,0.268672,0.088472806,0.45568383,-0.0610803,0.1849745,0.083650865,0.3520836,-0.1213998,0.16699934,-0.15410565,-0.41254857,-0.5956672,-0.34504586,821.1722,783.69965,806.6667,822.381,787.326,0.1610107421875,-0.01519775390625,0.98779296875,0.800018310546875,-13.0694580078125,2.31781005859375,1,1.0,1.0,1.0,1.0,70.00
2021-04-17 09:45:02.591,0.38175148,0.935939,0.53092664,0.43849415,0.47274405,0.7528394,-0.05721947,0.22158732,0.0847718,0.45568383,-0.04905712,-0.068102494,0.16874948,0.3520836,-0.09283153,0.08616747,-0.17285241,-0.41254857,-0.4703705,-0.39396667,831.2454,887.25275,801.8315,854.21246,864.2857,0.2286376953125,-0.03839111328125,0.9775390625,6.1309814453125,-8.426361083984375,0.770111083984375,1,1.0,1.0,1.0,1.0,70.00
2021-04-17 09:45:03.109,0.38175148,0.935939,0.52736443,0.43849415,0.47274405,0.7528394,-0.044527475,0.22158732,0.0847718,0.45568383,-0.04183738,-0.068102494,0.16874948,0.3520836,-0.10418714,0.08616747,-0.17285241,-0.41254857,-0.47737652,-0.39396667,804.2491,1272.4542,801.02563,803.8461,755.89746,0.27001953125,-0.01055908203125,0.9639892578125,10.48248291015625,-10.42266845703125,0.58319091796875,1,1.0,1.0,1.0,1.0,70.00
2021-04-17 09:45:03.653,0.493704,0.935939,-0.04695615,0.6264235,0.30272138,0.7528394,-0.20646687,0.2572025,0.463164,0.45568383,-0.02013441,0.43194854,0.3362566,0.3520836,-0.17562859,0.3447928,-0.29026178,-0.41254857,-0.51808715,-0.24412185,787.72894,1044.7986,811.0989,773.22345,596.337,0.3116455078125,0.05487060546875,0.95794677734375,7.125396728515625,-6.14593505859375,-1.375732421875,1,1.0,1.0,1.0,1.0,70.00
2021-04-17 09:45:04.205,0.3770308,0.935939,-0.29018745,0.47615746,0.3645164,0.7528394,-0.3043752,0.11628239,0.4952949,0.45568383,0.034487773,0.43421566,0.38034514,0.3520836,-0.1796635,0.2648991,-0.13152622,-0.41254857,-0.59292597,-0.23454912,832.8571,1531.1355,801.02563,839.707,943.663,0.3018798828125,0.05572509765625,0.94805908203125,3.910369873046875,-2.76641845703125,1.801910400390625,1,1.0,1.0,1.0,1.0,70.00
2021-04-17 09:45:04.720,0.37594017,0.935939,-0.09115646,0.30397728,0.32325688,0.7528394,-0.43702573,-0.035530616,0.58486384,0.45568383,0.008691571,0.12140439,0.36037496,0.3520836,-0.19296691,0.22852977,-0.10805324,-0.41254857,-0.6737264,-0.24894358,920.293,1300.6593,805.05493,921.9048,709.9634,0.3087158203125,0.06500244140625,0.95440673828125,4.53094482421875,-4.97955322265625,0.179443359375,1,1.0,1.0,1.0,1.0,70.00
2021-04-17 09:45:04.762,,,,,,,,,,,,,,,,,,,,,,,,,,,,,,,,,,,,,,/muse/elements/blink
2021-04-17 09:45:05.233,0.35606134,0.935939,0.085057385,0.20605566,0.39373228,0.7528394,-0.042151332,-0.04234237,0.49078915,0.45568383,0.43261755,0.012327571,0.34739384,0.3520836,-0.15304774,0.14347473,-0.040852346,-0.41254857,-0.59714764,-0.28145185,802.6374,1181.7949,800.6227,807.47253,763.1502,0.30487060546875,0.0479736328125,0.95233154296875,4.127197265625,-3.760833740234375,1.114044189453125,1,1.0,1.0,1.0,1.0,70.00
2021-04-17 09:45:05.756,0.5267132,0.935939,0.14294922,0.3007825,0.25615928,0.7528394,0.19707577,0.075034976,0.43862924,0.45568383,0.39817694,-0.14113116,0.21377333,0.3520836,-0.14486627,0.18780854,-0.16393633,-0.41254857,-0.5211041,-0.34358007,815.9341,1218.8645,801.02563,826.4103,853.8095,0.29632568359375,0.04278564453125,0.955322265625,4.5159912109375,-4.007568359375,-2.639312744140625,1,1.0,1.0,1.0,1.0,70.00
2021-04-17 09:45:06.272,0.5267132,0.935939,0.08777502,0.3007825,0.25615928,0.7528394,0.24417564,0.075034976,0.43862924,0.45568383,0.3998502,-0.14113116,0.21377333,0.3520836,-0.13516304,0.18780854,-0.16393633,-0.41254857,-0.51128215,-0.34358007,813.5165,1074.2124,804.2491,812.71063,848.5714,0.2926025390625,0.091064453125,0.95654296875,5.375823974609375,-4.32159423828125,-3.6187744140625,1,1.0,1.0,1.0,1.0,70.00
2021-04-17 09:45:06.788,0.38445997,0.935939,-0.086269476,0.37827247,0.81365526,0.7528394,-0.033196114,0.7072174,0.6469947,0.45568383,0.16748518,0.41292602,0.27772015,0.3520836,-0.13744381,0.24780504,-0.11301048,-0.41254857,-0.5407619,0.07808979,832.4542,1223.6996,805.8608,846.55676,883.22345,0.3221435546875,0.09857177734375,0.94976806640625,5.630035400390625,-4.66552734375,1.861724853515625,1,1.0,1.0,1.0,1.0,70.00
2021-04-17 09:45:07.314,0.34850457,0.935939,-0.13333853,0.35237557,0.8238563,0.7528394,-0.29000762,0.685232,0.70301604,0.45568383,0.15818115,0.5927144,0.41841882,0.3520836,-0.067552075,0.20553526,-0.036471136,-0.41254857,-0.52600425,-0.006518006,784.90845,1120.5494,796.5934,773.22345,751.06226,0.34014892578125,0.09881591796875,0.96746826171875,1.487884521484375,4.42626953125,11.028289794921875,1,1.0,1.0,1.0,1.0,70.00
2021-04-17 09:45:07.625,,,,,,,,,,,,,,,,,,,,,,,,,,,,,,,,,,,,,,/muse/elements/blink
2021-04-17 09:45:07.865,0.19667271,0.935939,0.050613005,0.21159908,0.87059647,0.7528394,-0.3130995,0.7103741,0.70735747,0.45568383,0.20608991,0.6032694,0.50575894,0.3520836,-0.018158706,0.14349638,0.0092902705,-0.41254857,-0.48357284,-0.051432185,850.58606,621.31866,861.4652,869.12085,765.16486,0.103759765625,-0.010009765625,0.9847412109375,0.7476806640625,11.49932861328125,27.701568603515625,1,1.0,1.0,1.0,1.0,70.00
2021-04-17 09:45:08.407,0.3015636,0.935939,0.19423142,0.30295265,0.7676786,0.7528394,-0.22703421,0.57743907,0.70559543,0.45568383,0.19133924,0.5604503,0.60470504,0.3520836,0.0071124258,0.110486016,0.05515301,-0.41254857,-0.47145203,-0.27205575,779.2674,691.4286,788.5348,772.01465,635.0183,-0.05877685546875,-0.02911376953125,0.99273681640625,6.317901611328125,6.587066650390625,21.107025146484375,1,1.0,1.0,1.0,1.0,70.00
2021-04-17 09:45:08.956,0.35142764,0.935939,0.3709706,0.33674762,0.61819243,0.7528394,-0.038717378,0.47224793,0.64132595,0.45568383,0.1773577,0.54107094,0.62297934,0.3520836,-0.0783739,0.1102431,0.02724417,-0.41254857,-0.54678446,-0.3474027,823.1868,696.6667,811.50183,820.7692,628.97437,-0.137451171875,-0.0184326171875,0.99481201171875,5.360870361328125,3.63372802734375,9.637603759765625,1,1.0,1.0,1.0,1.0,70.00
2021-04-17 09:45:09.491,0.32756862,0.935939,0.3709706,0.55381376,0.4220347,0.7528394,-0.038717378,0.47500628,0.65883875,0.45568383,0.1773577,0.5826497,0.58960074,0.3520836,-0.0783739,0.36349496,-0.0913671,-0.41254857,-0.54678446,0.07169248,781.685,617.6923,805.4579,784.5055,655.56775,-0.1976318359375,-0.0330810546875,0.9742431640625,2.086029052734375,-0.456085205078125,8.05999755859375,1,1.0,2.0,1.0,1.0,70.00
2021-04-17 09:45:10.032,0.49102172,0.935939,0.51868117,0.62358844,0.46805707,0.7528394,-0.017290793,0.51332825,0.65883875,0.45568383,0.20823167,0.5826497,0.48956555,0.3520836,0.056198787,0.31370822,-0.13899648,-0.41254857,-0.13396984,-0.0677279,781.685,745.42126,803.8461,780.07324,644.2857,-0.178955078125,0.00775146484375,0.98162841796875,6.41510009765625,-6.003875732421875,3.06549072265625,1,1.0,1.0,1.0,1.0,70.00
2021-04-17 09:45:10.544,0.38456556,0.935939,0.42322543,0.47876254,0.41154122,0.7528394,-0.120839775,0.4333617,0.6499867,0.45568383,0.2294109,0.5873067,0.3995198,0.3520836,0.014275799,0.26895198,-0.061806273,-0.41254857,-0.2961514,-0.17125005,776.4469,689.011,805.4579,785.31134,678.5348,-0.17596435546875,0.02716064453125,0.98876953125,4.65057373046875,-5.54779052734375,-0.34393310546875,1,1.0,1.0,1.0,1.0,70.00
2021-04-17 09:45:11.052,0.26660663,0.935939,0.2896489,0.29283553,0.29031497,0.7528394,-0.285543,0.29298803,0.20652013,0.45568383,0.20162952,0.23073499,0.16855977,0.3520836,-0.07118187,0.25954023,-0.10235833,-0.41254857,-0.56826544,-0.42622226,804.65204,742.6007,797.8022,801.02563,757.9121,-0.16619873046875,0.02447509765625,0.98480224609375,4.32159423828125,-4.852447509765625,0.5682373046875,1,1.0,2.0,1.0,1.0,70.00
2021-04-17 09:45:11.564,0.39749295,0.935939,0.17956804,0.47660407,0.21475545,0.7528394,-0.35971713,0.18998489,0.15009594,0.45568383,0.039550632,0.036639936,0.028630223,0.3520836,-0.16629508,0.20565279,-0.13871023,-0.41254857,-0.6369895,-0.31728476,828.022,848.5714,803.8461,819.5604,783.69965,-0.17266845703125,0.02032470703125,0.98699951171875,4.972076416015625,-5.93658447265625,0.770111083984375,1,1.0,1.0,1.0,1.0,70.00
2021-04-17 09:45:12.113,0.61200136,0.935939,0.096816346,0.67466867,0.22622699,0.7528394,-0.4019676,0.23547706,0.1958404,0.45568383,-0.3725957,0.23895362,0.08990709,0.3520836,-0.24736324,0.31112263,-0.3121523,-0.41254857,-0.48608336,-0.19989017,808.68134,812.3077,801.8315,799.41394,842.9304,-0.16943359375,0.01898193359375,0.98858642578125,4.80010986328125,-3.4991455078125,1.1962890625,1,1.0,1.0,1.0,1.0,70.00
2021-04-17 09:45:12.629,0.69743437,0.935939,0.007597704,0.74046147,0.3080045,0.7528394,-0.42672986,0.39779028,0.7607309,0.45568383,-0.19661601,0.8246204,0.2028068,0.3520836,-0.19756427,0.27691132,-0.35003206,-0.41254857,-0.38930717,-0.18349046,776.4469,787.72894,804.65204,791.3553,690.2198,-0.16290283203125,0.01544189453125,0.99127197265625,4.553375244140625,-3.99261474609375,1.2261962890625,1,1.0,1.0,1.0,1.0,70.00
2021-04-17 09:45:13.171,0.5905568,0.935939,-0.009588262,0.59953386,0.36980903,0.7528394,-0.56326634,0.4656375,0.76628155,0.45568383,-0.19436073,0.8576905,0.32762855,0.3520836,-0.12334284,0.34079957,-0.33033425,-0.41254857,-0.41659108,-0.20286556,801.4286,780.4762,803.44324,799.011,731.31866,-0.1693115234375,0.0162353515625,0.9888916015625,4.38140869140625,-2.9608154296875,1.487884521484375,1,1.0,1.0,1.0,1.0,70.00
2021-04-17 09:45:13.709,0.5955781,0.935939,0.013611704,0.5252045,0.54021734,0.7528394,-0.34307784,0.5541884,0.80436444,0.45568383,-0.10092177,0.8576905,0.36584696,0.3520836,-0.074115165,0.2995218,-0.2625021,-0.41254857,-0.4070173,-0.19744839,772.8205,779.67035,807.0696,774.43225,749.85345,-0.2294921875,-9.765625E-4,0.9747314453125,3.050537109375,-3.050537109375,-0.785064697265625,1,1.0,1.0,1.0,1.0,70.00
2021-04-17 09:45:13.915,,,,,,,,,,,,,,,,,,,,,,,,,,,,,,,,,,,,,,/muse/elements/blink
2021-04-17 09:45:14.251,0.61035585,0.935939,0.3075419,0.49018046,0.6012886,0.7528394,-0.15045214,0.5235039,0.6546554,0.45568383,0.07174307,0.669561,0.36444765,0.3520836,-0.15215972,0.31033248,-0.2085195,-0.41254857,-0.45047534,-0.12660854,477.87546,774.0293,784.90845,472.23444,676.52014,-0.2103271484375,-0.0123291015625,0.97259521484375,0.261688232421875,-0.55328369140625,0.471038818359375,1,1.0,1.0,1.0,1.0,70.00
2021-04-17 09:45:14.398,,,,,,,,,,,,,,,,,,,,,,,,,,,,,,,,,,,,,,/muse/elements/blink
2021-04-17 09:45:14.774,0.67455107,0.935939,0.7892572,0.5267644,0.6681655,0.7528394,-0.074851535,0.605703,0.35254443,0.45568383,0.09642743,0.12892838,0.36320522,0.3520836,-0.1868162,0.29030523,-0.13071136,-0.41254857,-0.39617795,-0.11227849,784.10254,731.31866,798.20514,794.9817,752.27106,-0.20635986328125,0.01995849609375,0.9862060546875,2.863616943359375,-1.622467041015625,-0.1495361328125,1,1.0,1.0,1.0,1.0,70.00
2021-04-17 09:45:15.314,0.57372075,0.935939,0.87749386,0.4598905,0.5946638,0.7528394,-0.11828808,0.5830761,0.34216806,0.45568383,0.084915884,0.1285517,0.33472684,0.3520836,-0.3036473,0.26216912,-0.14698121,-0.41254857,-0.39252567,-0.114830054,803.0403,765.16486,800.6227,798.60803,805.4579,-0.19097900390625,0.02471923828125,0.985595703125,3.745880126953125,-7.409515380859375,-2.011260986328125,1,1.0,1.0,1.0,1.0,70.00
2021-04-17 09:45:15.854,0.57372075,0.935939,0.7541932,0.4598905,0.5946638,0.7528394,-0.32857144,0.5830761,0.34216806,0.45568383,-0.19865529,0.1285517,0.33472684,0.3520836,-0.30001205,0.26216912,-0.14698121,-0.41254857,-0.46415022,-0.114830054,796.5934,767.1795,796.1905,794.57874,799.81683,-0.21978759765625,0.0052490234375,0.97698974609375,4.90478515625,-4.463653564453125,-0.171966552734375,1,1.0,1.0,1.0,1.0,70.00
2021-04-17 09:45:16.391,,,,,,,,,,,,,,,,,,,,,,,,,,,,,,,,,,,,,,/muse/elements/blink
2021-04-17 09:45:16.398,0.2630777,0.935939,0.11730904,0.36737502,0.05921811,0.7528394,-0.6140856,0.057259504,0.5165997,0.45568383,-0.28954682,0.027973518,-0.09452377,0.3520836,-0.31837592,0.042376556,-0.44994187,-0.41254857,-0.51159674,-0.21496242,788.93774,801.4286,805.8608,792.1612,641.4652,-0.14654541015625,0.02215576171875,0.99322509765625,5.0543212890625,-6.871185302734375,2.392578125,1,1.0,1.0,1.0,1.0,70.00
2021-04-17 09:45:16.861,,,,,,,,,,,,,,,,,,,,,,,,,,,,,,,,,,,,,,/muse/elements/blink
2021-04-17 09:45:16.900,0.2630777,0.935939,0.16671932,0.36737502,0.05921811,0.7528394,-0.7919264,0.057259504,0.5165997,0.45568383,0.017244695,0.027973518,-0.09452377,0.3520836,-0.24316755,0.042376556,-0.44994187,-0.41254857,-0.49902076,-0.21496242,844.94507,761.9414,796.5934,833.2601,844.5421,-0.16973876953125,0.0084228515625,0.98858642578125,3.18511962890625,-4.47113037109375,1.218719482421875,1,1.0,1.0,1.0,1.0,70.00
2021-04-17 09:45:17.442,0.1720287,0.935939,0.43896383,0.2856783,0.08813641,0.7528394,-0.070226885,-0.01546022,0.5145713,0.45568383,0.16536152,-0.085884675,-0.10745203,0.3520836,-0.15326509,0.053022787,-0.44483426,-0.41254857,-0.3921738,-0.2158884,823.5897,824.3956,797.8022,817.5458,874.7619,-0.18115234375,-0.00469970703125,0.9837646484375,4.269256591796875,-4.1571044921875,-2.504730224609375,1,1.0,1.0,1.0,1.0,70.00
2021-04-17 09:45:17.968,0.1720287,0.935939,0.43934882,0.2856783,0.08813641,0.7528394,0.036744338,-0.01546022,0.5145713,0.45568383,0.17068402,-0.085884675,-0.10745203,0.3520836,-0.10132624,0.053022787,-0.44483426,-0.41254857,-0.36163005,-0.2158884,811.50183,829.6337,802.6374,803.44324,668.0586,-0.17816162109375,-0.0084228515625,0.98553466796875,4.269256591796875,-5.0543212890625,-0.456085205078125,1,1.0,1.0,1.0,1.0,70.00
2021-04-17 09:45:18.480,-0.21545884,0.935939,0.25098878,0.25457594,-0.0603909,0.7528394,0.10955345,0.105614804,0.18673964,0.45568383,0.058237173,0.26434186,0.02509135,0.3520836,-0.047335804,0.37813973,-0.41308945,-0.41254857,-0.37460566,-0.44474494,786.1172,773.22345,799.41394,791.3553,784.90845,-0.18084716796875,-0.00836181640625,0.983642578125,4.0673828125,-5.450592041015625,0.471038818359375,1,1.0,1.0,1.0,1.0,70.00
2021-04-17 09:45:18.993,-0.13102126,0.935939,-0.35136187,0.20797123,0.12890296,0.7528394,-0.13768607,0.06438975,0.3097747,0.45568383,-0.010405058,0.27972525,0.03525966,0.3520836,-0.109069295,0.30395928,-0.45797443,-0.41254857,-0.4913384,-0.5145924,789.34064,820.7692,798.60803,793.7729,757.50916,-0.16485595703125,-0.0081787109375,0.98583984375,4.448699951171875,-3.566436767578125,2.863616943359375,1,1.0,1.0,1.0,1.0,70.00
2021-04-17 09:45:19.535,-0.058249716,0.935939,-0.3352515,0.13383247,0.16927406,0.7528394,-0.13043715,0.03344324,0.39337575,0.45568383,0.048848003,0.24645925,0.14126992,0.3520836,-0.065121375,0.3417456,-0.38700753,-0.41254857,-0.5135415,-0.41086414,823.1868,835.2747,803.8461,819.5604,765.56775,-0.17083740234375,-0.00616455078125,0.9866943359375,4.762725830078125,-5.45806884765625,-0.829925537109375,1,1.0,1.0,1.0,1.0,70.00
2021-04-17 09:45:20.039,0.057426985,0.2348979,-0.30583376,0.12812062,0.22717914,0.16888823,-0.16801636,0.0138176475,0.38090557,0.15317559,0.027851975,0.2384708,0.1619918,0.97093403,-0.07323719,0.3469233,-0.29926404,0.42067915,-0.4303002,-0.352796,791.3553,806.26373,794.17584,788.1319,796.1905,-0.1793212890625,-0.00506591796875,0.98040771484375,6.512298583984375,-4.844970703125,-7.53662109375,1,1.0,1.0,1.0,1.0,70.00
2021-04-17 09:45:20.582,0.11122471,0.2445712,0.26360005,0.103274345,0.23769876,0.16698079,-0.14133063,0.001738779,0.2078853,0.24863712,0.16266106,0.2254708,0.22385202,0.9682205,0.001554217,0.41737995,-0.22896129,0.41275978,-0.33290946,-0.26161665,817.1429,827.619,800.6227,833.2601,657.5824,-0.11285400390625,0.00799560546875,0.9755859375,10.36285400390625,-9.37591552734375,-29.167022705078125,1,1.0,1.0,1.0,1.0,70.00
2021-04-17 09:45:21.099,1.3415581,0.0946225,0.626249,1.3170581,1.2141939,0.0731692,0.17189765,1.0312959,1.1786085,0.2230979,0.41547275,0.9157343,0.24314488,0.9597547,0.018126374,0.5334675,-0.2350133,0.3688159,-0.35637024,-0.25773817,816.7399,813.5165,807.47253,820.7692,778.0586,-0.0274658203125,-0.021728515625,0.999267578125,4.344024658203125,-12.45635986328125,-16.381683349609375,1,1.0,1.0,1.0,1.0,70.00
2021-04-17 09:45:21.615,1.563015,-0.018276514,0.7123507,1.4382788,1.6067332,-0.012930655,0.2490962,1.4367613,1.1998646,0.16988516,0.45053348,1.0022404,0.32995668,0.9531114,-0.03404895,0.63085777,-0.16675045,0.3391854,-0.50870216,-0.13960722,784.5055,844.5421,803.44324,773.22345,622.9304,0.06378173828125,-0.0386962890625,0.99102783203125,1.697235107421875,-13.091888427734375,-3.521575927734375,1,1.0,1.0,1.0,1.0,70.00
2021-04-17 09:45:22.164,1.4062482,-0.018276514,0.627527,1.2983905,1.4603194,-0.012930655,0.28445745,1.2990799,1.1998646,0.16988516,0.43051875,1.0027003,0.26782602,0.9531114,-0.17047241,0.6131673,-0.18324186,0.3391854,-0.7040325,-0.17676423,691.02563,896.1172,807.8755,678.1319,670.07324,0.104248046875,-0.10003662109375,0.99786376953125,3.828125,-7.813262939453125,2.40753173828125,1,1.0,1.0,1.0,1.0,70.00
2021-04-17 09:45:22.359,,,,,,,,,,,,,,,,,,,,,,,,,,,,,,,,,,,,,,/muse/elements/blink
2021-04-17 09:45:22.683,1.0291514,-0.018276514,0.42448792,0.8373416,1.2449142,-0.012930655,0.2798276,1.1347554,0.90073013,0.16988516,0.35159957,0.93273467,0.20274332,0.9531114,-0.25055665,0.55362415,-0.14810546,0.3391854,-0.6663216,-0.17341803,801.02563,912.23444,804.65204,780.4762,703.1135,0.12835693359375,-0.08746337890625,0.99346923828125,4.972076416015625,-3.887939453125,1.48040771484375,1,1.0,1.0,1.0,1.0,70.00
2021-04-17 09:45:23.196,0.30595505,-0.018276514,0.5180908,0.2594578,0.56389296,-0.012930655,0.4526412,0.27096453,0.38137394,0.16988516,0.26518604,0.46277067,0.14016697,0.9531114,-0.12375378,0.5676977,-0.22827357,0.3391854,-0.58411336,-0.25373295,799.011,859.85345,803.0403,796.5934,723.2601,0.1197509765625,-0.08843994140625,0.99774169921875,5.435638427734375,-4.8748779296875,4.2767333984375,1,1.0,1.0,1.0,1.0,70.00
2021-04-17 09:45:23.724,0.30595505,-0.018276514,0.47766873,0.2594578,0.56389296,-0.012930655,0.39737713,0.27096453,0.38137394,0.16988516,0.26883295,0.46277067,0.14016697,0.9531114,-0.026512759,0.5676977,-0.22827357,0.3391854,-0.572519,-0.25373295,803.44324,849.7802,798.60803,801.02563,695.05493,0.11004638671875,-0.08197021484375,0.9935302734375,4.284210205078125,-4.65057373046875,3.431854248046875,1,1.0,1.0,1.0,1.0,70.00
2021-04-17 09:45:24.229,0.13563578,-0.018276514,0.3347456,0.17898978,-0.019375546,-0.012930655,0.29632735,0.18032725,0.100587,0.16988516,0.30712324,0.24278253,0.19772415,0.9531114,-0.03768493,0.2919366,-0.4041234,0.3391854,-0.6826943,-0.113148354,815.5311,854.61536,804.2491,812.71063,708.3516,0.11163330078125,-0.08367919921875,0.99786376953125,4.77020263671875,-5.420684814453125,2.1234130859375,1,1.0,1.0,1.0,1.0,70.00
2021-04-17 09:45:24.737,0.42767927,-0.018276514,0.02499279,0.32461917,-0.0067411046,-0.012930655,0.1224249,0.45607567,0.26948574,0.16988516,0.17830896,0.38149053,0.18017629,0.9531114,-0.038091548,0.29856333,-0.39378777,0.3391854,-0.690953,-0.20441346,809.4872,857.4359,803.8461,814.3223,697.8755,0.1123046875,-0.1064453125,0.99578857421875,3.81317138671875,-3.94775390625,8.426361083984375,1,1.0,1.0,1.0,1.0,70.00
2021-04-17 09:45:25.243,0.33846998,-0.018276514,0.07290432,0.34489605,-0.14414428,-0.012930655,0.10617419,0.4076151,0.25703165,0.16988516,0.15368815,0.38149053,0.15378776,0.9531114,-0.114188865,0.24544553,-0.3771476,0.3391854,-0.6839548,-0.14508355,817.9487,807.47253,805.8608,824.3956,910.2198,0.10968017578125,-0.089599609375,0.9970703125,5.9814453125,-5.076751708984375,1.15142822265625,1,1.0,1.0,1.0,1.0,70.00
2021-04-17 09:45:25.794,0.33873683,-0.018276514,0.024800254,0.31622326,-0.17370832,-0.012930655,-0.065982156,0.35170972,0.36270282,0.16988516,0.059125844,0.42336652,0.10075985,0.9531114,-0.13504304,0.2844416,-0.37859726,0.3391854,-0.62674797,-0.14118981,783.69965,766.77655,808.2784,787.72894,790.14655,0.10870361328125,-0.1058349609375,0.983154296875,5.435638427734375,-2.52716064453125,9.390869140625,1,1.0,1.0,1.0,1.0,70.00
2021-04-17 09:45:26.305,0.59771025,-0.018276514,0.07525306,0.4647304,0.07528695,-0.012930655,-0.35321486,0.15198123,0.46124864,0.16988516,0.09455129,0.35728696,0.21124914,0.9531114,-0.10241799,0.28838965,-0.3840777,0.3391854,-0.53029925,-0.015366464,815.5311,819.5604,807.0696,821.5751,772.8205,0.03900146484375,-0.08380126953125,0.99078369140625,6.243133544921875,4.523468017578125,17.921905517578125,1,1.0,1.0,1.0,1.0,70.00
2021-04-17 09:45:26.855,0.7444723,-0.018276514,0.5665984,0.755755,0.20146309,-0.012930655,-0.068581246,0.41406575,0.45941144,0.16988516,0.12617461,0.6683614,0.26450294,0.9531114,-0.056805026,0.31151897,-0.39403564,0.3391854,-0.4620059,-0.045948915,829.2308,825.6044,799.011,815.9341,815.12823,-0.0791015625,-0.04510498046875,0.9888916015625,6.41510009765625,-1.248626708984375,20.09765625,1,1.0,1.0,1.0,1.0,70.00
2021-04-17 09:45:27.411,1.0384058,-0.018276514,0.7740293,0.91869473,0.41132516,-0.012930655,0.12617813,0.7307612,0.45755744,0.16988516,0.096047446,0.7108649,0.3124915,0.9531114,-0.024418943,0.2664448,-0.4075192,0.3391854,-0.44473314,-0.08877042,624.94507,786.52014,798.20514,610.0366,842.9304,-0.14239501953125,-0.02496337890625,0.9957275390625,4.628143310546875,-1.136474609375,6.706695556640625,1,1.0,1.0,1.0,1.0,70.00
2021-04-17 09:45:27.551,,,,,,,,,,,,,,,,,,,,,,,,,,,,,,,,,,,,,,/muse/elements/blink
2021-04-17 09:45:27.953,1.0384058,-0.018276514,0.9215292,0.9520499,0.41132516,-0.012930655,0.4426921,0.8452142,0.45755744,0.16988516,0.19763671,0.6918157,0.3124915,0.9531114,-0.10580887,0.24187343,-0.4075192,0.3391854,-0.41727233,-0.12632234,834.0659,841.31866,799.41394,827.619,825.6044,-0.14703369140625,-0.02435302734375,0.99749755859375,4.127197265625,-4.792633056640625,7.932891845703125,1,1.0,1.0,1.0,1.0,70.00
2021-04-17 09:45:28.471,1.0384058,-0.018276514,0.82795906,0.81509703,0.41132516,-0.012930655,0.406701,0.8754401,0.45755744,0.16988516,0.20292842,0.6450662,0.3124915,0.9531114,-0.11118661,0.302008,-0.4075192,0.3391854,-0.5259035,-0.19024451,784.10254,809.89014,803.0403,785.31134,650.32965,-0.15863037109375,-0.021484375,0.98675537109375,7.177734375,-5.8917236328125,1.51031494140625,1,1.0,1.0,1.0,1.0,70.00
2021-04-17 09:45:28.984,1.0384058,-0.018276514,0.7117699,0.81509703,0.41132516,-0.012930655,0.36635894,0.8754401,0.45755744,0.16988516,0.20379418,0.6450662,0.3124915,0.9531114,-0.14383228,0.302008,-0.4075192,0.3391854,-0.54946727,-0.19024451,809.89014,810.293,804.65204,804.2491,818.7546,-0.178955078125,-0.01751708984375,0.988037109375,4.0374755859375,-3.2000732421875,-0.201873779296875,1,1.0,1.0,1.0,1.0,70.00
2021-04-17 09:45:29.534,0.6824393,-0.018276514,0.46969616,0.6853104,-0.02687114,-0.012930655,0.20603697,0.07240742,0.15074116,0.16988516,0.10955937,0.39634338,-0.0891319,0.9531114,-0.22608079,0.18818809,-0.4250737,0.3391854,-0.6069746,-0.35251632,779.67035,803.44324,798.20514,785.7143,608.022,-0.162109375,-0.02435302734375,0.99859619140625,5.016937255859375,-5.241241455078125,2.564544677734375,1,1.0,1.0,1.0,1.0,70.00
2021-04-17 09:45:30.079,0.55026454,-0.018276514,-0.25028554,0.52566636,0.015392707,-0.012930655,0.12611723,0.1495963,0.17346375,0.16988516,0.043141395,0.39732468,-0.05164236,0.9531114,-0.2754754,0.18741232,-0.42442185,0.3391854,-0.5339929,-0.24639136,795.78754,784.90845,807.0696,807.0696,703.1135,-0.1546630859375,-0.02301025390625,0.99981689453125,4.66552734375,-4.56085205078125,0.964508056640625,1,1.0,1.0,1.0,1.0,70.00
2021-04-17 09:45:30.622,0.20591153,-0.12271201,-0.32507426,0.28546038,0.19419262,0.014818689,0.061187625,0.3483516,0.35827893,0.1915345,0.13427708,0.41522226,0.12833081,1.0174726,-0.17431799,0.18443784,-0.4252974,0.5598706,-0.44448113,-0.18927146,788.1319,792.1612,804.2491,793.36993,649.5238,-0.14178466796875,-0.03033447265625,0.99188232421875,4.59075927734375,-4.822540283203125,0.351409912109375,1,1.0,1.0,1.0,1.0,70.00
2021-04-17 09:45:31.173,-0.050927605,-0.14392677,-0.15420583,0.3771861,0.30319282,0.027017413,-0.009265415,0.4358401,0.38967687,0.25670364,0.059342027,0.37201148,0.22570504,1.0095749,0.0184965,0.14675632,-0.46277136,0.53995323,-0.40562904,-0.115015626,785.31134,784.90845,798.20514,782.8938,657.98535,-0.15521240234375,-0.0377197265625,0.98004150390625,4.71038818359375,-4.673004150390625,2.729034423828125,1,1.0,1.0,1.0,1.0,70.00
2021-04-17 09:45:31.721,0.07551365,-0.108665235,-0.102545425,0.3807273,0.3604446,0.03218323,-0.052424937,0.44853565,0.38530928,0.28785244,0.06611243,0.32086566,0.21411747,0.99382764,0.069777764,0.13217035,-0.4392491,0.54386175,-0.4339719,-0.110365845,795.38464,814.3223,799.011,796.99634,689.41394,-0.15521240234375,-0.03936767578125,0.984619140625,4.119720458984375,-3.93280029296875,-0.16448974609375,1,1.0,1.0,1.0,1.0,70.00
2021-04-17 09:45:32.100,,,,,,,,,,,,,,,,,,,,,,,,,,,,,,,,,,,,,,/muse/elements/blink
2021-04-17 09:45:32.254,0.20766652,0.11264463,-0.101333946,0.3579427,0.26776424,-0.005326748,-0.19561215,0.30476564,0.32042876,0.24567765,0.0497193,0.3606916,0.19703262,0.9796811,0.095763944,0.17111272,-0.44071296,0.4962529,-0.41131118,-0.09949785,787.326,808.68134,802.6374,787.72894,633.00366,-0.14849853515625,-0.04461669921875,0.98590087890625,3.6785888671875,-6.691741943359375,2.87109375,1,1.0,1.0,1.0,1.0,70.00
2021-04-17 09:45:32.790,0.28697923,0.2867976,0.012745894,0.18207638,0.2702903,0.13765551,-0.25901332,0.24166425,0.2490182,0.2531908,0.13414258,0.24748701,0.14067441,1.0045303,0.00667649,0.14323919,-0.39963973,0.5998857,-0.4101011,-0.17227243,815.12823,786.52014,784.90845,811.0989,813.91943,-0.1488037109375,-0.04278564453125,0.99005126953125,4.0374755859375,-2.803802490234375,0.411224365234375,1,1.0,1.0,1.0,1.0,70.00
2021-04-17 09:45:32.890,,,,,,,,,,,,,,,,,,,,,,,,,,,,,,,,,,,,,,/muse/elements/blink
2021-04-17 09:45:33.317,0.23673938,0.2867976,0.6716244,0.21979435,0.12607086,0.13765551,0.49887222,-0.028111473,0.13823147,0.2531908,0.4447703,0.21337843,0.11074559,1.0045303,-0.026756551,0.24031231,-0.4168605,0.5998857,-0.45214176,-0.20892288,794.17584,819.5604,806.6667,792.1612,738.97437,-0.14996337890625,-0.04730224609375,0.98846435546875,4.32159423828125,-3.775787353515625,1.457977294921875,1,1.0,1.0,1.0,1.0,70.00
2021-04-17 09:45:33.840,0.23673938,0.2867976,0.70221704,0.21979435,0.12607086,0.13765551,0.54477894,-0.028111473,0.13823147,0.2531908,0.4447703,0.21337843,0.11074559,1.0045303,-0.15018113,0.24031231,-0.4168605,0.5998857,-0.44926772,-0.20892288,819.5604,809.4872,793.7729,816.337,823.1868,-0.16534423828125,-0.0341796875,0.97967529296875,5.286102294921875,-4.628143310546875,1.981353759765625,1,1.0,1.0,1.0,1.0,70.00
2021-04-17 09:45:34.356,0.23673938,0.08016291,0.7250098,0.21979435,0.12607086,-0.07744253,0.5472596,-0.028111473,0.13823147,0.23761077,0.41968614,0.21337843,0.11074559,1.1503068,-0.08863231,0.24031231,-0.4168605,0.4162988,-0.45433515,-0.20892288,810.696,827.619,801.02563,817.5458,754.68866,-0.16143798828125,-0.04010009765625,0.99163818359375,4.90478515625,-0.306549072265625,0.91217041015625,1,1.0,1.0,1.0,1.0,70.00
2021-04-17 09:45:34.894,0.24451719,0.08769754,0.64425313,0.4310959,0.2104216,-0.14708309,0.1629873,0.28332135,-0.023736713,0.32414156,0.012668526,0.17950428,0.2208781,1.1302695,-0.05071191,-0.012215654,-0.5192401,0.34859303,-0.4145543,-0.3465456,794.17584,800.2198,801.8315,788.93774,640.2564,-0.18182373046875,0.00250244140625,0.98602294921875,5.749664306640625,-7.07305908203125,3.222503662109375,1,1.0,1.0,1.0,1.0,70.00
2021-04-17 09:45:35.421,0.17006388,0.108705975,0.61185014,0.28490207,0.33113125,-0.14722952,0.10509471,0.56328356,0.35298353,0.32414156,-0.04794466,0.35659897,0.164824,1.1326095,-0.0026339777,0.07723796,-0.42806923,0.33825353,-0.45951137,-0.38691035,801.02563,783.69965,794.9817,802.6374,764.7619,-0.1658935546875,0.0123291015625,0.99090576171875,4.14215087890625,-4.478607177734375,-0.6878662109375,1,1.0,1.0,1.0,1.0,70.00
2021-04-17 09:45:35.965,0.14614788,0.096935645,0.44373322,0.09023691,0.43119577,-0.25354713,0.037834153,0.64296496,0.37201416,0.2412144,0.058878396,0.33376473,0.116464175,1.1038485,-0.095789604,0.15020254,-0.30884176,0.2457338,-0.4369914,-0.27999264,776.4469,807.8755,798.20514,782.8938,637.8388,-0.16796875,0.013671875,0.9930419921875,4.732818603515625,-6.26556396484375,1.54022216796875,1,1.0,1.0,1.0,1.0,70.00
2021-04-17 09:45:36.470,0.080919236,0.096935645,-0.010448661,-0.048715826,0.47325316,-0.25354713,-0.12491967,0.5722658,0.40903652,0.2412144,0.1406412,0.29886007,0.06412707,1.1038485,-0.12662701,0.12387122,-0.3015504,0.2457338,-0.40448752,-0.26569355,798.20514,790.54944,799.81683,797.8022,707.5458,-0.1898193359375,7.9345703125E-4,0.98236083984375,4.78515625,-2.01873779296875,-0.171966552734375,1,1.0,1.0,1.0,1.0,70.00
2021-04-17 09:45:37.007,0.2279233,0.096935645,-0.08020792,-0.1479987,0.44259766,-0.25354713,-0.23788054,0.3647962,0.4196015,0.2412144,0.13042197,0.25986058,0.16731578,1.1038485,-0.082932964,0.110320576,-0.29042774,0.2457338,-0.44390705,-0.17146805,818.3516,826.8132,803.8461,816.7399,877.98535,-0.1864013671875,0.00360107421875,0.9869384765625,5.802001953125,-4.015045166015625,-0.31402587890625,1,1.0,1.0,1.0,1.0,70.00
2021-04-17 09:45:37.518,0.24593303,0.09885424,-0.42655367,-0.10410974,0.27852476,0.25419766,-0.4179686,0.07564075,0.54140097,0.25603977,0.08195276,0.42162627,0.17800885,1.0116388,-0.049805004,0.057979908,-0.30635253,0.4933036,-0.53945404,-0.09815868,806.26373,839.707,802.6374,805.05493,739.7802,-0.1907958984375,-0.00439453125,0.989501953125,4.97955322265625,-3.2598876953125,2.250518798828125,1,1.0,1.0,1.0,1.0,70.00
2021-04-17 09:45:38.034,0.23750858,0.076857336,-0.562699,-0.2245239,0.21520935,0.12756522,-0.47788537,0.078720406,0.5418207,0.2647159,-0.14782092,0.4296469,0.14668147,1.0520631,-0.076773964,0.18729086,-0.41132042,0.45907107,-0.6041936,-0.09308982,792.5641,792.5641,804.2491,787.326,636.2271,-0.1859130859375,-6.103515625E-5,0.9891357421875,4.673004150390625,-5.345916748046875,-0.07476806640625,1,1.0,1.0,1.0,1.0,70.00
2021-04-17 09:45:38.576,0.19778511,0.009787272,-0.41020608,0.03096292,0.20002383,0.040367834,-0.42296407,0.14839451,0.5263594,0.35637316,-0.40747887,0.50029075,0.038094796,1.0466664,-0.13493286,0.20345196,-0.38491482,0.37068075,-0.58649385,-0.13558462,784.10254,801.8315,803.0403,789.34064,730.10986,-0.18182373046875,0.00311279296875,0.978515625,4.05242919921875,-4.0972900390625,2.295379638671875,1,1.0,1.0,1.0,1.0,70.00
2021-04-17 09:45:39.087,0.29956648,0.056567125,-0.22334826,0.517258,0.22142841,-0.085466176,-0.48017195,0.21172877,0.46173826,0.35251686,-0.19590688,0.45820794,0.0036955061,1.0492352,-0.13293228,0.1744313,-0.32892004,0.35940358,-0.49040836,-0.3350607,608.8278,775.2381,808.2784,615.6777,647.50916,-0.18145751953125,-0.005859375,0.986328125,5.1141357421875,-5.914154052734375,1.278533935546875,1,1.0,1.0,1.0,1.0,70.00
2021-04-17 09:45:39.343,,,,,,,,,,,,,,,,,,,,,,,,,,,,,,,,,,,,,,/muse/elements/blink
2021-04-17 09:45:39.630,0.38397515,0.049473066,0.14121255,0.65613383,0.20143677,-0.010938185,-0.2305465,0.21640354,0.42154565,0.35251686,0.3480448,0.45820794,0.024995713,1.0110564,-0.110366836,0.08136991,-0.24377203,0.35653576,-0.42547283,-0.35257116,819.5604,822.381,794.9817,817.5458,860.65936,-0.15045166015625,0.01153564453125,0.99432373046875,6.273040771484375,-8.7030029296875,1.30096435546875,1,1.0,1.0,1.0,1.0,70.00
2021-04-17 09:45:40.135,0.47482306,0.07375939,0.6729295,0.86932385,-0.19792838,0.15632172,0.04926857,0.176812,0.40215328,0.4634748,0.42372593,0.3258445,-0.04106741,1.0060716,-0.088851735,-0.06154825,-0.19181526,0.5664628,-0.44862464,-0.5017533,830.0366,863.8828,796.99634,810.293,790.14655,-0.13189697265625,0.01690673828125,0.9996337890625,3.9776611328125,-4.8150634765625,1.727142333984375,1,1.0,1.0,1.0,1.0,70.00
2021-04-17 09:45:40.623,,,,,,,,,,,,,,,,,,,,,,,,,,,,,,,,,,,,,,/muse/elements/blink
2021-04-17 09:45:40.641,0.47482306,0.049131498,0.7096477,0.86932385,-0.19792838,0.26387924,0.12712553,0.176812,0.40215328,0.33617964,0.43202633,0.3258445,-0.04106741,1.0083977,-0.07029924,-0.06154825,-0.19181526,0.57447726,-0.42853227,-0.5017533,863.47986,799.011,802.6374,859.85345,910.2198,-0.1724853515625,-0.00335693359375,0.98492431640625,3.237457275390625,-0.770111083984375,0.919647216796875,1,1.0,1.0,1.0,1.0,70.00
2021-04-17 09:45:41.167,0.47482306,0.049131498,0.6289804,0.86932385,-0.19792838,0.26387924,0.047457602,0.176812,0.40215328,0.33617964,0.5906962,0.3258445,-0.04106741,1.0083977,0.016008388,-0.06154825,-0.19181526,0.57447726,-0.42786416,-0.5017533,791.3553,806.6667,798.20514,784.90845,640.2564,-0.17193603515625,-0.00189208984375,0.9796142578125,4.329071044921875,-4.583282470703125,0.34393310546875,1,1.0,1.0,1.0,1.0,70.00
2021-04-17 09:45:41.670,0.47482306,0.049131498,0.31036958,0.86932385,-0.19792838,0.26387924,-0.052613936,0.176812,0.40215328,0.33617964,0.4845323,0.3258445,-0.04106741,1.0083977,-7.6319295E-4,-0.06154825,-0.19181526,0.57447726,-0.39490008,-0.5017533,780.4762,784.10254,806.6667,778.86444,709.5604,-0.16937255859375,-0.00244140625,0.98907470703125,5.39825439453125,-4.6356201171875,1.592559814453125,1,1.0,1.0,1.0,1.0,65.00
2021-04-17 09:45:42.193,0.8851728,0.049131498,0.35986614,0.86932385,0.74165756,0.26387924,0.0011810471,0.176812,0.15684368,0.33617964,0.47487262,0.3258445,-0.13549763,1.0083977,-0.035519652,-0.06154825,-0.3844899,0.57447726,-0.3581733,-0.5017533,821.978,810.293,799.41394,815.12823,818.7546,-0.17889404296875,-0.004150390625,0.984130859375,3.5888671875,-4.059906005859375,2.265472412109375,1,2.0,1.0,1.0,2.0,65.00
2021-04-17 09:45:42.738,0.7215259,0.4843704,0.23550126,0.47864798,0.6636741,0.15270251,-0.09345947,0.36719954,0.23260346,0.3362511,0.26743942,0.5156634,-0.074649535,0.9910621,0.006278252,0.06797061,-0.24539511,0.43419576,-0.21301591,-0.19788687,825.6044,842.9304,803.8461,814.3223,756.30035,-0.17437744140625,-0.0086669921875,0.98809814453125,5.2935791015625,-5.076751708984375,2.1234130859375,1,1.0,1.0,1.0,1.0,65.00
2021-04-17 09:45:43.255,0.5861046,0.4119589,0.07946379,0.37652245,0.56122303,0.10708919,-0.062437892,0.31269276,0.36600205,0.3362511,0.20340022,0.5576057,-0.018061893,1.0045563,0.010551609,0.11929171,-0.16499749,0.427591,-0.18207578,-0.21959674,783.2967,782.0879,801.8315,791.75824,713.1868,-0.167236328125,-0.01214599609375,0.99041748046875,3.835601806640625,-4.553375244140625,1.5252685546875,1,1.0,1.0,1.0,1.0,65.00
2021-04-17 09:45:43.757,0.34420642,0.23794957,-0.26289943,0.28267932,0.39212632,0.010302088,-0.094601326,0.15770106,0.36600205,0.31072733,0.18595454,0.4164699,0.042797226,1.0337224,0.025185244,0.16735092,-0.15791926,0.36193556,-0.23903087,-0.28187877,790.54944,793.36993,802.6374,796.1905,745.82416,-0.177978515625,-0.0108642578125,0.98419189453125,4.284210205078125,-4.91973876953125,1.256103515625,1,1.0,1.0,1.0,1.0,65.00
2021-04-17 09:45:44.293,0.117327355,-0.09791252,-0.49644855,0.15891452,0.13183399,-0.19206019,-0.076307036,0.02268564,0.24956046,0.29357302,0.14746927,0.3737179,0.113623664,1.0206983,-0.09488962,0.19378303,-0.2516421,0.32231045,-0.38611314,-0.26036704,783.69965,803.44324,808.68134,802.6374,664.83514,-0.17669677734375,-0.010009765625,0.97662353515625,3.446807861328125,-3.222503662109375,1.51031494140625,1,1.0,1.0,1.0,1.0,65.00
2021-04-17 09:45:44.827,-0.08934978,-0.18991512,-0.52970296,0.040635575,0.10197217,-0.12882805,-0.13858135,-0.10596466,0.09143317,0.2782413,0.05852783,0.22783135,0.11649081,0.9876178,-0.08270939,0.18936253,-0.2922728,0.37653673,-0.4310971,-0.2551227,789.7436,776.4469,792.1612,790.54944,770.80585,-0.19329833984375,-0.0103759765625,0.9849853515625,4.127197265625,-2.88604736328125,0.007476806640625,1,1.0,1.0,1.0,1.0,65.00
2021-04-17 09:45:45.369,-0.26234776,-0.24673966,-0.5227965,-0.11505167,0.10790208,0.057321064,-0.24139912,-0.09555876,0.11699875,0.3529563,-0.037912183,0.4053609,0.05028307,0.9458245,-0.101393454,0.21880952,-0.24932937,0.453139,-0.4788635,-0.24656004,778.86444,811.9048,799.81683,791.75824,631.39197,-0.19775390625,-0.0181884765625,0.981201171875,4.673004150390625,-4.897308349609375,1.772003173828125,1,1.0,1.0,1.0,1.0,65.00
2021-04-17 09:45:45.884,-0.37074068,-0.052745175,-0.51181775,-0.062535964,0.03114892,0.10247445,-0.39434445,0.012403424,0.11957036,0.39993712,0.022677133,0.4053609,-0.0157708,0.9201871,-0.08932995,0.1879061,-0.20174886,0.41559064,-0.55981565,-0.21906863,794.57874,778.86444,794.17584,794.9817,789.7436,-0.18914794921875,-0.0150146484375,0.98773193359375,5.06927490234375,-5.151519775390625,1.308441162109375,1,1.0,1.0,1.0,1.0,65.00
2021-04-17 09:45:46.390,-0.26410946,-0.010716077,-0.6735556,-0.13171211,-0.15702868,0.011450281,-0.5857268,0.07076986,0.07355324,0.42809382,0.09307436,0.33558154,-0.050299123,0.947817,-0.078263335,0.14271931,-0.2730503,0.35910684,-0.45838773,-0.2540298,821.5751,827.2161,802.6374,821.5751,827.619,-0.18902587890625,-0.0216064453125,0.988525390625,3.887939453125,-4.523468017578125,-0.216827392578125,1,1.0,1.0,1.0,1.0,65.00
2021-04-17 09:45:46.916,0.04509039,-0.006914448,-0.5707073,0.13853888,-0.21750493,-0.06430887,-0.46054536,0.17810577,-0.004524016,0.3938915,-0.06083629,0.20724978,-0.027125575,0.94706744,-0.10020804,0.07762991,-0.33385235,0.45988768,-0.36307028,-0.25561932,818.3516,832.0513,801.02563,815.5311,707.1429,-0.19293212890625,-0.03936767578125,0.968994140625,4.78515625,-2.3626708984375,3.9776611328125,1,1.0,1.0,1.0,1.0,65.00
2021-04-17 09:45:47.469,0.22656061,-0.108193375,-0.40552264,0.23215018,0.0055861073,-0.07557921,-0.21873035,0.18244627,0.13469237,0.359346,-0.06602237,0.21120533,-0.015790693,0.93227303,-0.12079117,0.17377642,-0.43656063,0.45709744,-0.28265852,-0.25915772,822.7839,829.2308,801.02563,815.9341,756.30035,-0.2159423828125,0.02264404296875,0.968994140625,7.245025634765625,-4.59075927734375,5.061798095703125,1,1.0,1.0,1.0,1.0,65.00
2021-04-17 09:45:47.977,0.3533222,-0.0065001217,-0.22645454,0.32133606,0.13332744,0.06407722,-0.13345657,0.355453,0.111964144,0.3120632,-0.27375185,0.21920356,-0.0043730116,0.9306662,-0.1492003,0.18159905,-0.46942222,0.46904108,-0.303304,-0.28515288,797.8022,807.8755,806.6667,798.20514,717.2161,-0.2135009765625,0.01739501953125,0.979736328125,3.349609375,-6.1309814453125,-1.143951416015625,1,1.0,1.0,1.0,1.0,65.00
2021-04-17 09:45:48.518,0.3209128,0.083185144,-0.16724935,0.34098712,0.14806417,0.09414873,-0.10018092,0.37121192,0.11422628,0.3120632,-0.15052675,0.20559122,0.015829952,0.939483,-0.07458534,0.15892498,-0.42754707,0.26821178,-0.41955617,-0.30703133,778.46155,773.6264,800.2198,791.3553,863.0769,-0.17694091796875,0.007080078125,0.9813232421875,4.463653564453125,-5.8319091796875,1.936492919921875,1,1.0,1.0,1.0,1.0,65.00
2021-04-17 09:45:49.030,0.25922886,0.20448536,-0.24551448,0.35437098,0.10517738,0.25736773,-0.1182736,0.46382532,0.10219518,0.31117496,-0.14765862,0.20546794,0.0348743,0.9841207,-0.0870316,0.14462489,-0.3474348,0.17109218,-0.5680718,-0.35025015,804.65204,824.3956,811.9048,804.2491,753.47986,-0.18927001953125,0.0113525390625,0.9891357421875,3.970184326171875,-4.26177978515625,-0.022430419921875,1,1.0,1.0,1.0,1.0,65.00
2021-04-17 09:45:49.574,0.16470677,0.29424694,-0.36278507,0.32338077,-0.022547958,-0.33347294,-0.11192404,0.30307138,0.084548496,0.10554503,0.023209525,0.31218746,0.024133833,1.0338545,-0.07581346,0.18187685,-0.28386626,0.39382273,-0.7101211,-0.3876838,800.6227,839.304,799.81683,796.1905,773.6264,-0.19769287109375,-0.0145263671875,0.97711181640625,2.788848876953125,-4.134674072265625,-0.381317138671875,1,1.0,1.0,1.0,1.0,65.00
2021-04-17 09:45:50.092,0.1793554,0.2964974,-0.01962056,0.12047555,-0.0424461,0.16588563,-0.2228075,0.17648333,0.46143273,0.34563902,0.0100342855,0.4503192,0.0052735955,1.0114503,-0.18274266,0.1852325,-0.28437674,0.41477463,-0.47845125,-0.35467282,836.08057,812.71063,795.38464,837.28937,933.5897,-0.16973876953125,-0.0445556640625,0.983642578125,6.26556396484375,-8.95721435546875,-24.232330322265625,1,1.0,1.0,1.0,1.0,65.00
2021-04-17 09:45:50.614,0.190745,0.31052235,0.8648485,-0.0033978967,-0.099645406,0.24033056,-0.12187823,-0.08389346,0.45703033,0.3416917,0.1417081,0.40567312,-0.021865258,0.99565285,-0.03987757,0.123376094,-0.27786145,0.37558994,-0.43128148,-0.33518445,776.04395,810.696,802.23444,778.0586,747.8388,-0.08563232421875,-0.1063232421875,1.00030517578125,0.35888671875,-18.25836181640625,-25.780029296875,1,1.0,1.0,1.0,1.0,65.00
