TimeStamp,Delta_TP9,Delta_AF7,Delta_AF8,Delta_TP10,Theta_TP9,Theta_AF7,Theta_AF8,Theta_TP10,Alpha_TP9,Alpha_AF7,Alpha_AF8,Alpha_TP10,Beta_TP9,Beta_AF7,Beta_AF8,Beta_TP10,Gamma_TP9,Gamma_AF7,Gamma_AF8,Gamma_TP10,RAW_TP9,RAW_AF7,RAW_AF8,RAW_TP10,AUX_RIGHT,Accelerometer_X,Accelerometer_Y,Accelerometer_Z,Gyro_X,Gyro_Y,Gyro_Z,HeadBandOn,HSI_TP9,HSI_AF7,HSI_AF8,HSI_TP10,Battery,Elements
2021-04-14 09:57:18.218,1.5394465,0.1003792,-0.14382686,1.382595,1.1947963,0.0723289,-0.3204282,1.1353432,1.0966288,0.2254529,0.17645414,1.0568657,0.45758918,-0.21566908,-0.08360771,0.37824464,-0.4708284,-0.6013405,-0.76395345,-0.2697225,876.3736,804.2491,802.23444,832.8571,935.2015,-0.13330078125,-0.0244140625,0.9932861328125,4.463653564453125,-4.299163818359375,2.115936279296875,1,1.0,1.0,1.0,1.0,80.00
2021-04-14 09:57:18.722,1.5394465,-0.11350721,-0.10501754,1.6442263,1.1947963,-0.04393332,-0.2680995,1.3046043,1.0966288,0.1411479,0.17555715,0.87549454,0.45758918,-0.27888706,-0.17513342,0.4318734,-0.4708284,-0.55695224,-0.72284573,-0.07189353,847.3626,803.0403,800.6227,823.1868,904.17584,-0.13018798828125,-0.0250244140625,0.99468994140625,4.074859619140625,-3.192596435546875,1.016845703125,1,1.0,1.0,1.0,1.0,80.00
2021-04-14 09:57:19.019,,,,,,,,,,,,,,,,,,,,,,,,,,,,,,,,,,,,,,/muse/elements/blink
2021-04-14 09:57:19.232,1.5394465,-0.14838092,-0.14855611,1.5545567,1.1947963,-0.06860046,-0.315324,1.225917,1.0966288,-0.020253267,-0.021720387,0.87549454,0.45758918,-0.30260295,-0.19422576,0.3911479,-0.4708284,-0.6013702,-0.71725184,-0.10156834,744.21246,798.60803,800.2198,772.8205,526.63007,-0.1348876953125,-0.0155029296875,0.99774169921875,4.9945068359375,-4.628143310546875,2.220611572265625,1,1.0,1.0,1.0,1.0,80.00
2021-04-14 09:57:19.613,,,,,,,,,,,,,,,,,,,,,,,,,,,,,,,,,,,,,,/muse/elements/blink
2021-04-14 09:57:19.745,1.5394465,0.004800863,-0.20967823,1.5315669,1.1947963,-0.056235388,-0.25946352,1.2080085,1.0966288,-0.11572988,-0.07999995,0.873803,0.45758918,-0.33095157,-0.23171987,0.3653456,-0.4708284,-0.5434686,-0.7154115,-0.12178184,765.56775,773.6264,845.34796,814.3223,752.27106,-0.13787841796875,-0.020751953125,0.99810791015625,2.40753173828125,-7.0880126953125,3.820648193359375,1,1.0,1.0,1.0,1.0,80.00
2021-04-14 09:57:20.246,1.5118455,0.61467224,0.7980925,1.5315669,1.0533549,0.43824384,0.47217846,1.2080085,1.1396996,0.44045153,0.7073969,0.873803,0.5466778,-0.12173827,-0.15088768,0.3653456,-0.14513792,-0.47308612,-0.71106493,-0.12178184,841.31866,809.4872,806.6667,837.28937,845.34796,-0.1614990234375,-0.02484130859375,0.99932861328125,5.93658447265625,0.022430419921875,-1.24114990234375,1,1.0,1.0,1.0,1.0,80.00
2021-04-14 09:57:20.747,1.5118455,0.8008732,1.0460404,1.5315669,1.0533549,0.5429287,0.6670707,1.2080085,1.1396996,0.44107813,0.7149243,0.873803,0.5466778,-0.07399493,-0.11985861,0.3653456,-0.14513792,-0.45622262,-0.6771785,-0.12178184,906.99634,807.8755,796.1905,847.3626,1004.90845,-0.1397705078125,-0.03204345703125,0.98638916015625,6.32537841796875,-3.162689208984375,-21.87713623046875,1,1.0,1.0,1.0,1.0,80.00
2021-04-14 09:57:20.824,,,,,,,,,,,,,,,,,,,,,,,,,,,,,,,,,,,,,,/muse/elements/blink
2021-04-14 09:57:21.200,,,,,,,,,,,,,,,,,,,,,,,,,,,,,,,,,,,,,,/muse/elements/blink
2021-04-14 09:57:21.248,1.5118455,1.0167183,1.4149712,1.5315669,1.0533549,0.83530813,1.0671923,1.2080085,1.1396996,0.47445583,0.7257455,0.873803,0.5466778,-0.0042496203,-0.054331116,0.3653456,-0.14513792,-0.5146974,-0.67818564,-0.12178184,795.78754,801.02563,795.38464,786.1172,626.1539,-0.17431640625,-0.02447509765625,0.98822021484375,4.015045166015625,-3.45428466796875,-2.370147705078125,1,1.0,1.0,1.0,1.0,80.00
2021-04-14 09:57:21.788,1.5118455,0.96046734,1.3497136,1.5315669,1.0533549,0.85327214,1.0802854,1.2080085,1.1396996,0.529159,0.6618444,0.873803,0.5466778,-0.100783475,-0.07346238,0.3653456,-0.14513792,-0.59118617,-0.54743546,-0.12178184,813.91943,802.23444,805.05493,806.26373,913.0403,-0.1439208984375,-0.02569580078125,0.99591064453125,3.147735595703125,-3.84307861328125,4.50103759765625,1,1.0,1.0,1.0,1.0,80.00
2021-04-14 09:57:22.315,0.09903397,0.8627199,1.1691138,0.30788678,0.2515842,0.804384,0.94094694,0.36154643,0.33837935,0.55352956,0.60363704,0.52778083,0.104641944,-0.10551742,-0.05825342,0.28029534,-0.3276443,-0.51748884,-0.40674126,-0.16265264,759.12085,806.6667,804.2491,778.86444,678.93774,-0.25457763671875,-0.00439453125,0.96038818359375,8.53851318359375,6.228179931640625,7.177734375,1,1.0,1.0,1.0,1.0,80.00
2021-04-14 09:57:22.833,0.2589249,0.5822247,0.44130477,0.4432288,0.08534995,0.4806539,0.38064644,0.17127542,0.3682374,0.57944024,0.5351467,0.5694197,0.119853854,-0.11617605,-0.08013405,0.18903834,-0.21242395,-0.5060567,-0.30100736,-0.18526784,799.81683,801.4286,803.44324,801.8315,737.76556,-0.4180908203125,0.05059814453125,0.930419921875,12.32177734375,3.596343994140625,-1.00189208984375,1,1.0,1.0,1.0,1.0,80.00
2021-04-14 09:57:23.335,0.7377281,0.34956202,0.05570029,0.76687145,0.65401703,-0.04578368,-0.36080748,0.6318537,1.0170709,0.32967222,0.06018476,0.9780749,0.30360693,-0.16986562,-0.0043299412,0.29099116,-0.2998973,-0.4513443,-0.3233858,-0.17372362,862.27106,810.696,803.0403,838.0952,942.0513,-0.390380859375,0.05859375,0.9237060546875,3.289794921875,-3.626251220703125,1.024322509765625,1,1.0,1.0,1.0,1.0,80.00
2021-04-14 09:57:23.837,,,,,,,,,,,,,,,,,,,,,,,,,,,,,,,,,,,,,,/muse/elements/blink
2021-04-14 09:57:23.844,0.96935993,0.3267698,0.20806532,0.95826274,0.8966172,-0.052697755,-0.23012915,0.8373224,1.017618,0.38048118,0.14983046,0.9767832,0.421977,-0.13258371,-0.014358638,0.34731025,-0.27167794,-0.38191193,-0.39264643,-0.17759697,826.0073,805.4579,795.78754,852.6007,582.6374,-0.385498046875,0.0369873046875,0.9224853515625,3.327178955078125,-6.377716064453125,0.95703125,1,1.0,1.0,1.0,1.0,80.00
2021-04-14 09:57:24.389,1.1571255,0.20221321,0.70493996,1.1194382,1.1128176,0.02291341,0.30329624,1.0489658,1.017618,0.12378573,0.15198687,0.9767832,0.55174136,-0.17555748,0.009821365,0.46490017,-0.40071297,-0.33126864,-0.49909025,-0.1595145,732.52747,803.0403,793.7729,770.40295,561.685,-0.367919921875,0.0206298828125,0.9271240234375,3.865509033203125,-4.725341796875,0.710296630859375,1,1.0,1.0,1.0,1.0,80.00
2021-04-14 09:57:24.894,1.3324524,0.2728694,0.7810455,1.2641486,1.2884607,0.14400376,0.38382232,1.2194955,1.017618,0.043574963,0.12588777,0.9767832,0.66854393,-0.026161082,-0.031809807,0.5685788,-0.3103929,-0.23719157,-0.5036713,-0.10608845,759.92676,802.6374,803.8461,793.7729,708.3516,-0.38348388671875,0.02044677734375,0.92486572265625,2.534637451171875,-3.431854248046875,-0.770111083984375,1,1.0,1.0,1.0,1.0,80.00
2021-04-14 09:57:25.234,,,,,,,,,,,,,,,,,,,,,,,,,,,,,,,,,,,,,,/muse/elements/blink
2021-04-14 09:57:25.419,1.3324524,0.29446033,0.6365893,1.2641486,1.2884607,0.19604689,0.29839078,1.2194955,1.017618,0.036080193,-0.15017147,0.9767832,0.66854393,0.011219389,-0.05038205,0.5685788,-0.3103929,-0.21757288,-0.47560865,-0.10608845,853.4066,815.9341,793.36993,823.9927,989.19415,-0.3958740234375,0.01971435546875,0.920654296875,4.62066650390625,-4.6356201171875,-1.614990234375,1,1.0,1.0,1.0,1.0,80.00
2021-04-14 09:57:25.929,1.3324524,0.6724096,0.48899117,1.2859362,1.2884607,-0.068011604,0.21250203,0.91944635,1.017618,0.18449676,0.40338057,1.0216656,0.66854393,-0.020204676,-0.051173877,0.71877694,-0.3103929,-0.53571314,-0.45969006,-0.23599805,872.3443,804.65204,798.20514,836.8865,822.7839,-0.39471435546875,0.012451171875,0.9227294921875,5.42816162109375,-4.314117431640625,-0.059814453125,1,1.0,1.0,1.0,1.0,80.00
2021-04-14 09:57:26.333,,,,,,,,,,,,,,,,,,,,,,,,,,,,,,,,,,,,,,/muse/elements/blink
2021-04-14 09:57:26.461,1.3324524,0.59400725,0.59198105,1.2859362,1.2884607,-0.16562957,0.26464725,0.91944635,1.017618,0.20227045,0.4089469,1.0216656,0.66854393,0.03755755,-0.09252698,0.71877694,-0.3103929,-0.5612824,-0.43596625,-0.23599805,794.57874,803.8461,801.4286,788.93774,635.0183,-0.38275146484375,0.0135498046875,0.92694091796875,5.570220947265625,-5.60760498046875,0.755157470703125,1,1.0,1.0,1.0,1.0,80.00
2021-04-14 09:57:26.967,0.995758,0.5613072,0.54681313,1.2203172,0.9725631,-0.051723067,0.21418875,1.0153112,1.1450182,0.1670369,0.41737807,1.2236615,0.55063367,-0.023463016,-0.08097744,0.64470226,-0.17589055,-0.54568607,-0.38342485,-0.15041591,737.3626,799.81683,804.2491,767.5824,489.1575,-0.37860107421875,0.02362060546875,0.931884765625,4.912261962890625,-4.957122802734375,1.143951416015625,1,1.0,1.0,1.0,1.0,80.00
2021-04-14 09:57:27.486,0.75826216,0.27208063,0.27460828,1.0695621,0.68966377,-0.18217926,0.040638708,0.9552403,1.1450182,0.111841224,0.35787207,1.2056987,0.35748735,-0.068094686,-0.020360587,0.48583335,-0.23169687,-0.5154041,-0.3246825,-0.14262347,778.0586,800.2198,812.71063,809.0842,696.6667,-0.37530517578125,0.0279541015625,0.93121337890625,4.8748779296875,-5.106658935546875,2.64678955078125,1,1.0,1.0,1.0,1.0,80.00
2021-04-14 09:57:27.987,0.7885889,0.17719686,-0.21514758,1.0977364,0.63088286,-0.021384604,-0.10882393,0.93956095,1.1450182,0.11908479,0.30739686,1.2056987,0.3194886,-0.1519573,0.0754662,0.56707406,-0.21792397,-0.37781924,-0.2901595,-0.17310551,846.1539,801.4286,801.8315,825.2015,1003.2967,-0.3673095703125,0.02252197265625,0.9302978515625,5.06927490234375,-5.323486328125,1.12152099609375,1,1.0,1.0,1.0,1.0,80.00
2021-04-14 09:57:28.499,0.6681813,0.06322044,-0.26092735,1.0229017,0.34759033,0.04930442,-0.12540434,0.78278005,0.67597675,0.15966275,0.04851713,0.64420754,0.26855636,-0.059784777,0.078337416,0.5972623,-0.27764827,-0.3195304,-0.3402786,-0.1844152,743.8095,805.8608,808.2784,771.6117,548.7912,-0.36029052734375,0.028564453125,0.93597412109375,4.88983154296875,-5.899200439453125,2.056121826171875,1,1.0,1.0,1.0,1.0,80.00
2021-04-14 09:57:29.014,0.6358445,0.09878235,-0.4203752,0.9103248,0.37438118,0.022120753,-0.2222553,0.71438485,0.65878785,0.15043838,0.07369493,0.64420754,0.31501636,-0.019014956,0.004798307,0.5273179,-0.2755727,-0.3267427,-0.4197488,-0.2423044,791.3553,804.2491,799.011,801.4286,675.31134,-0.34381103515625,0.0335693359375,0.9390869140625,4.478607177734375,-3.701019287109375,1.33087158203125,1,1.0,1.0,1.0,1.0,75.00
2021-04-14 09:57:29.517,0.4927666,-0.041850757,-0.5458854,0.69661075,0.24304105,-0.13466923,-0.23016892,0.44475448,0.648606,0.06252078,-0.016023539,0.55660963,0.2727949,-0.010092648,-0.07711177,0.341343,-0.28881976,-0.43018052,-0.40967774,-0.26121798,728.0952,794.17584,801.8315,770.0,582.6374,-0.350830078125,0.0341796875,0.93780517578125,4.77020263671875,-4.732818603515625,1.054229736328125,1,1.0,1.0,1.0,1.0,75.00
2021-04-14 09:57:30.062,0.23914656,-0.14351021,-0.400854,0.4139596,-0.026973426,-0.39980242,-0.12838642,0.0632564,0.49362108,0.021929994,-0.011394451,0.39975712,0.14379562,-0.06273627,-0.05346726,0.028880673,-0.2559791,-0.48559675,-0.37405673,-0.37705353,767.98535,803.0403,799.41394,781.28204,796.99634,-0.34246826171875,0.0345458984375,0.94158935546875,4.194488525390625,-3.820648193359375,1.248626708984375,1,1.0,1.0,1.0,1.0,75.00
2021-04-14 09:57:30.566,0.26728687,-0.14562878,-0.29654193,0.48427805,-0.0016328478,-0.40807927,-0.12838873,-0.023059903,0.36345533,0.0061035454,-0.070189804,0.29407778,0.1461737,-0.115078904,-0.016751457,0.047056817,-0.26671028,-0.52057475,-0.35818607,-0.3022732,815.5311,802.6374,806.6667,806.26373,700.293,-0.35125732421875,0.03619384765625,0.94146728515625,4.254302978515625,-3.895416259765625,0.964508056640625,1,1.0,1.0,1.0,1.0,75.00
2021-04-14 09:57:31.093,0.10256082,-0.13205403,-0.0723436,0.30360743,0.1688968,-0.27077758,-0.19778408,-0.030364737,0.48160288,-0.013195468,-0.022167863,0.19943854,0.17055565,-0.23198798,-0.05073996,0.14594014,-0.30169472,-0.5619556,-0.42052868,-0.34401757,860.2564,800.2198,791.75824,834.0659,878.3883,-0.3485107421875,0.03192138671875,0.93743896484375,4.777679443359375,-4.418792724609375,1.256103515625,1,1.0,1.0,1.0,1.0,75.00
2021-04-14 09:57:31.610,0.22845338,0.0022903914,-0.0400166,0.30553254,0.47899947,-0.18558735,-0.331388,0.3335232,0.9929373,0.21009465,0.04520223,1.0974935,0.23793761,-0.22519554,-0.17183098,0.29841515,-0.31767765,-0.56091547,-0.41836655,-0.27074167,866.7033,805.4579,805.8608,829.2308,1048.4249,-0.35430908203125,0.03179931640625,0.94000244140625,3.8580322265625,-5.959014892578125,1.128997802734375,1,1.0,1.0,1.0,1.0,75.00
2021-04-14 09:57:32.120,0.5367718,0.10790222,-0.029512633,0.53747684,0.67776966,-0.13554604,-0.2833918,0.5956802,1.0142344,0.17629084,0.048588585,1.1115117,0.3273849,-0.15347573,-0.23605803,0.37980518,-0.26757136,-0.4698883,-0.38354775,-0.3231694,741.79486,807.0696,799.41394,769.19415,531.06226,-0.344970703125,0.025390625,0.94073486328125,3.99261474609375,-4.777679443359375,1.1065673828125,1,1.0,1.0,1.0,1.0,75.00
2021-04-14 09:57:32.623,0.57328475,0.06393952,-0.13522902,0.69856864,0.65634185,-0.26365238,-0.20407502,0.65695906,1.0132452,0.18798903,-0.022869363,1.1115117,0.35859585,-0.048873346,-0.19699518,0.40212125,-0.27846965,-0.50837386,-0.378879,-0.31010395,780.4762,811.50183,803.8461,792.1612,736.55676,-0.34661865234375,0.0330810546875,0.94561767578125,4.14215087890625,-4.74029541015625,0.530853271484375,1,1.0,1.0,1.0,1.0,75.00
2021-04-14 09:57:33.156,0.5530699,-0.12630434,-0.2256359,0.7193517,0.5243771,-0.36061504,-0.15538606,0.54047394,0.9895412,0.03752772,0.007695028,1.059842,0.30485913,-0.05011308,-0.22483164,0.25943342,-0.31587592,-0.584101,-0.43412626,-0.43595323,853.00366,798.20514,801.8315,833.2601,1100.403,-0.340576171875,0.0279541015625,0.93878173828125,4.05242919921875,-3.985137939453125,0.545806884765625,1,1.0,1.0,1.0,1.0,75.00
2021-04-14 09:57:33.695,0.2311729,-0.3509391,-0.20087072,0.48017052,0.19806421,-0.39158535,-0.12658523,0.22823185,0.50297207,-0.021255778,0.07278905,0.367755,0.19001919,-0.085733555,-0.25057098,0.12144116,-0.43145055,-0.61528665,-0.3883727,-0.38335356,862.27106,806.6667,799.81683,833.2601,795.78754,-0.341064453125,0.03192138671875,0.94378662109375,4.65057373046875,-4.209442138671875,1.60003662109375,1,1.0,1.0,1.0,1.0,75.00
2021-04-14 09:57:34.200,0.112520546,-0.3073236,-0.33257154,0.28008586,0.12603007,-0.37379208,-0.07968698,0.35567105,0.4552403,0.0021447102,0.12147233,0.41006687,0.18289794,-0.025662111,-0.2573524,0.041456178,-0.49194056,-0.51499474,-0.39110982,-0.35403192,777.6557,808.68134,801.02563,786.1172,549.59705,-0.339111328125,0.0289306640625,0.94219970703125,3.828125,-4.3365478515625,1.6748046875,1,1.0,1.0,1.0,1.0,75.00
2021-04-14 09:57:34.742,0.08192581,-0.36508116,-0.3437827,0.09220111,0.18875897,-0.23216021,-0.1470616,0.24189767,0.064300805,0.054590907,0.12903593,0.32041517,0.13951492,-0.004633114,-0.19595586,0.10472824,-0.43463472,-0.46088856,-0.399302,-0.2551508,842.1245,801.8315,805.4579,820.3663,738.5714,-0.34515380859375,0.030517578125,0.94482421875,4.478607177734375,-3.96270751953125,-1.757049560546875,1,1.0,1.0,1.0,1.0,75.00
2021-04-14 09:57:35.044,,,,,,,,,,,,,,,,,,,,,,,,,,,,,,,,,,,,,,/muse/elements/blink
2021-04-14 09:57:35.278,0.56945896,-0.32228926,-0.008796272,0.17340833,0.7594344,-0.1370186,-0.04541165,0.22799157,1.277665,0.059970777,0.12679057,0.28522754,0.15417226,-0.003747888,-0.08367753,0.14335716,-0.39319015,-0.456,-0.44978148,-0.2332266,762.3443,807.0696,801.02563,780.4762,501.24542,-0.34979248046875,0.0213623046875,0.93939208984375,4.53094482421875,-4.65057373046875,1.039276123046875,1,1.0,1.0,1.0,1.0,75.00
2021-04-14 09:57:35.825,0.95732087,-3.5516522E-4,0.29754516,0.32068843,1.2351155,-0.13047038,0.06649807,-0.23836896,1.3258741,0.073393494,0.15046392,-0.0109120235,0.08805715,-0.034760278,-0.019244751,0.23423149,-0.40573344,-0.5052646,-0.494598,-0.16654885,829.6337,811.50183,812.71063,830.84247,713.5897,-0.35260009765625,0.018310546875,0.94110107421875,4.478607177734375,-4.299163818359375,0.919647216796875,1,1.0,1.0,1.0,1.0,75.00
2021-04-14 09:57:36.329,0.9425962,0.04645936,0.30287296,0.28274798,1.2296581,-0.21273723,0.022304812,0.30766645,1.3258741,0.06261664,0.14835383,0.5522701,0.17383468,-0.044200107,0.009718699,0.045512043,-0.591825,-0.5914439,-0.41622612,-0.40675166,813.5165,805.4579,806.6667,809.0842,834.0659,-0.35125732421875,0.02392578125,0.9404296875,4.50103759765625,-3.506622314453125,1.173858642578125,1,1.0,1.0,1.0,1.0,75.00
2021-04-14 09:57:36.621,,,,,,,,,,,,,,,,,,,,,,,,,,,,,,,,,,,,,,/muse/elements/blink
2021-04-14 09:57:36.872,0.8179783,0.1681045,0.415158,0.28330377,1.1129107,0.012722323,0.16381504,0.28616983,1.3020699,0.275474,0.36507675,0.57886434,0.15420328,-0.016680837,0.008772426,0.061782423,-0.5698166,-0.61551917,-0.3842022,-0.34860197,760.32965,809.4872,799.011,781.28204,640.2564,-0.3529052734375,0.02197265625,0.93743896484375,4.486083984375,-4.059906005859375,0.37384033203125,1,1.0,1.0,1.0,1.0,75.00
2021-04-14 09:57:37.393,0.03996081,0.49190575,0.8638428,0.28330377,0.16051863,0.35073736,0.5569334,0.28616983,0.37305096,0.41551876,0.40144578,0.57886434,0.18689623,-0.041637234,-0.017815774,0.061782423,-0.5851578,-0.5824607,-0.36374703,-0.34860197,839.304,812.3077,804.65204,819.9634,935.2015,-0.35284423828125,0.021484375,0.92974853515625,4.3365478515625,-4.104766845703125,1.136474609375,1,1.0,1.0,1.0,1.0,75.00
2021-04-14 09:57:37.846,,,,,,,,,,,,,,,,,,,,,,,,,,,,,,,,,,,,,,/muse/elements/blink
2021-04-14 09:57:37.935,0.018536424,0.5467989,0.9258554,0.3150316,0.06167364,0.40181136,0.5751969,0.28996357,0.3525218,0.41551876,0.42318064,0.5676331,0.27179465,-0.08628172,0.02128243,0.06928235,-0.5737592,-0.5718508,-0.42341417,-0.31919014,880.0,811.9048,798.60803,853.00366,905.38464,-0.23455810546875,0.04644775390625,0.9754638671875,7.484283447265625,-10.4974365234375,7.19268798828125,1,1.0,1.0,1.0,1.0,75.00
2021-04-14 09:57:38.471,0.018536424,0.6751157,0.8148999,0.3150316,0.06167364,0.3030444,0.3567825,0.28996357,0.3525218,0.34361827,0.45833886,0.5676331,0.27179465,-0.08701203,-0.0321734,0.06928235,-0.5737592,-0.60217947,-0.5469105,-0.31919014,841.31866,794.9817,812.71063,817.5458,964.61536,-0.22222900390625,0.00701904296875,0.97918701171875,1.652374267578125,-1.757049560546875,-0.112152099609375,1,1.0,1.0,1.0,1.0,75.00
2021-04-14 09:57:38.649,,,,,,,,,,,,,,,,,,,,,,,,,,,,,,,,,,,,,,/muse/elements/blink
2021-04-14 09:57:38.984,0.018536424,0.76505446,0.37889695,0.3150316,0.06167364,0.19750522,-0.2909637,0.28996357,0.3525218,0.24655077,0.2983089,0.5676331,0.27179465,1.3883997E-4,-0.06637921,0.06928235,-0.5737592,-0.62154293,-0.59948915,-0.31919014,854.61536,805.8608,798.60803,836.4835,996.8498,-0.24029541015625,0.02374267578125,0.973876953125,4.553375244140625,-2.579498291015625,-1.614990234375,1,1.0,1.0,1.0,1.0,80.00
2021-04-14 09:57:39.382,,,,,,,,,,,,,,,,,,,,,,,,,,,,,,,,,,,,,,/muse/elements/blink
2021-04-14 09:57:39.518,0.018536424,0.94730735,0.3212439,0.3150316,0.06167364,0.2389925,-0.11983212,0.28996357,0.3525218,0.23661697,0.32071385,0.5676331,0.27179465,0.08557966,-0.0537007,0.06928235,-0.5737592,-0.6318544,-0.5481598,-0.31919014,807.47253,801.02563,807.47253,821.978,561.28204,-0.29425048828125,0.03466796875,0.9595947265625,5.63751220703125,3.30474853515625,3.349609375,1,2.0,1.0,1.0,2.0,80.00
2021-04-14 09:57:40.033,0.018536424,1.2337283,0.5241784,0.3150316,0.06167364,0.59820676,0.30331448,0.28996357,0.3525218,0.56819135,0.33403802,0.5676331,0.27179465,0.083339654,-0.020999363,0.06928235,-0.5737592,-0.5424336,-0.46559602,-0.31919014,841.31866,800.6227,804.2491,824.7985,765.56775,-0.33624267578125,0.0291748046875,0.93878173828125,7.648773193359375,1.428070068359375,2.609405517578125,1,2.0,1.0,1.0,2.0,80.00
2021-04-14 09:57:40.553,0.018536424,1.1041139,0.45401904,0.3150316,0.06167364,0.53674644,0.2865979,0.28996357,0.3525218,0.5597366,0.14081445,0.5676331,0.27179465,-0.017433945,-0.04058089,0.06928235,-0.5737592,-0.4616891,-0.3450389,-0.31919014,765.16486,811.0989,808.2784,788.1319,518.97437,-0.3321533203125,0.05279541015625,0.93328857421875,1.57012939453125,-9.443206787109375,2.0635986328125,1,2.0,1.0,1.0,2.0,80.00
2021-04-14 09:57:41.064,0.058246057,0.88243437,0.34235406,0.0783241,0.28402805,0.3549173,0.17060737,0.09614313,0.5152676,0.49814793,0.021654889,0.35761073,0.21747945,-0.09372306,-0.12901667,0.017283013,-0.41739482,-0.48586127,-0.38317764,-0.35012293,746.63007,800.6227,806.26373,785.31134,607.2161,-0.304443359375,0.02978515625,0.9517822265625,0.396270751953125,-10.9759521484375,-0.40374755859375,1,1.0,1.0,1.0,1.0,80.00
2021-04-14 09:57:41.295,,,,,,,,,,,,,,,,,,,,,,,,,,,,,,,,,,,,,,/muse/elements/blink
2021-04-14 09:57:41.568,0.058246057,0.2327291,0.036107622,0.0783241,0.28402805,-0.015279226,-0.27147263,0.09614313,0.5152676,0.23177905,-0.03692907,0.35761073,0.21747945,-0.10966597,-0.1293456,0.017283013,-0.41739482,-0.5253646,-0.4522356,-0.35012293,773.6264,807.8755,796.99634,776.8498,873.1502,-0.26910400390625,0.02972412109375,0.9610595703125,4.029998779296875,-3.8580322265625,-1.906585693359375,1,1.0,1.0,1.0,1.0,80.00
2021-04-14 09:57:41.834,,,,,,,,,,,,,,,,,,,,,,,,,,,,,,,,,,,,,,/muse/elements/blink
2021-04-14 09:57:42.070,0.058246057,0.43321267,0.148417,0.0783241,0.28402805,0.1258245,-0.35977972,0.09614313,0.5152676,0.41461962,0.045679413,0.35761073,0.21747945,-0.15822922,-0.16602363,0.017283013,-0.41739482,-0.5301121,-0.5605856,-0.35012293,784.5055,809.0842,798.20514,806.26373,495.6044,-0.33087158203125,0.0452880859375,0.946533203125,6.213226318359375,3.72344970703125,5.24871826171875,1,1.0,1.0,1.0,1.0,80.00
2021-04-14 09:57:42.583,0.10874272,0.7164927,0.2386314,0.18682422,0.34807113,0.43154675,-0.31440264,0.022602048,0.50881076,0.5990726,0.028394766,0.24857518,0.2357489,-0.178177,-0.18649313,0.031030439,-0.44831148,-0.43005663,-0.50955766,-0.3305378,735.7509,801.4286,802.6374,763.5531,650.32965,-0.35302734375,0.05194091796875,0.94024658203125,3.94775390625,-2.19818115234375,0.800018310546875,1,1.0,1.0,1.0,1.0,80.00
2021-04-14 09:57:43.092,0.10874272,0.6364701,0.099196464,0.18682422,0.34807113,0.36104304,-0.17432864,0.022602048,0.50881076,0.5853994,0.094937295,0.24857518,0.2357489,-0.21100943,-0.20733902,0.031030439,-0.44831148,-0.4377963,-0.46646562,-0.3305378,793.36993,800.6227,793.7729,805.4579,881.2088,-0.34539794921875,0.063720703125,0.9405517578125,5.7122802734375,-5.929107666015625,0.538330078125,1,1.0,1.0,1.0,1.0,80.00
2021-04-14 09:57:43.600,0.15783033,0.370439,-0.07871685,0.34673354,0.39797935,0.15672393,-0.08413623,0.6364942,0.63146186,0.5650701,-0.009324135,0.94107795,0.27811542,-0.19633672,-0.12722717,0.49876022,-0.45002005,-0.42310688,-0.43585902,-0.17212455,853.4066,801.4286,790.9524,824.3956,916.6667,-0.3358154296875,0.05499267578125,0.94122314453125,3.828125,-6.661834716796875,1.039276123046875,1,1.0,1.0,1.0,1.0,80.00
2021-04-14 09:57:44.115,0.19896527,-0.44730014,-0.16736858,0.4062107,0.28312516,-0.38366342,0.07623758,0.6548453,0.64837456,-0.1299194,0.0892923,0.9809042,0.28807986,-0.06772206,-0.027862394,0.54864293,-0.38247976,-0.4836724,-0.46510714,-0.20486419,845.34796,805.05493,799.011,819.15753,774.0293,-0.35101318359375,0.05316162109375,0.94000244140625,4.8748779296875,-3.81317138671875,1.278533935546875,1,1.0,1.0,1.0,1.0,80.00
2021-04-14 09:57:44.660,0.2687273,-0.61443275,-0.21757506,0.4858721,0.36618415,-0.4490102,-0.0015827451,0.63751274,0.65978396,-0.19724278,0.09051516,0.9809042,0.24535231,-0.055605862,0.045056663,0.47377622,-0.37318343,-0.52063394,-0.44520396,-0.20019612,767.98535,809.4872,798.20514,784.90845,523.00366,-0.3602294921875,0.03466796875,0.93829345703125,1.532745361328125,-5.84686279296875,-2.43743896484375,1,1.0,1.0,1.0,1.0,80.00
2021-04-14 09:57:45.205,0.36092076,-0.47525522,-0.16464636,0.5180474,0.43684274,-0.30979234,0.055677637,0.645755,0.6456386,-0.13033651,0.025223887,0.96067756,0.17963381,-0.04583509,0.049139664,0.3590265,-0.381326,-0.55778515,-0.48579264,-0.25887075,726.4835,795.78754,813.91943,710.3663,737.76556,-0.35992431640625,0.01123046875,0.93707275390625,5.345916748046875,-2.67669677734375,2.04864501953125,1,1.0,1.0,1.0,1.0,80.00
2021-04-14 09:57:45.336,,,,,,,,,,,,,,,,,,,,,,,,,,,,,,,,,,,,,,/muse/elements/blink
2021-04-14 09:57:45.741,0.4118892,0.4903709,-0.0049225152,0.5434243,0.56097966,0.23553379,-0.052599173,0.62806356,0.57571244,-0.17233765,-0.14903453,0.6289562,0.09332657,-0.10316944,0.052278023,0.12538038,-0.4320582,-0.5335964,-0.50020134,-0.2651934,806.26373,809.89014,799.011,800.2198,830.4396,-0.37579345703125,-0.00982666015625,0.92572021484375,4.83001708984375,-3.4991455078125,0.16448974609375,1,1.0,1.0,1.0,1.0,80.00
2021-04-14 09:57:46.050,,,,,,,,,,,,,,,,,,,,,,,,,,,,,,,,,,,,,,/muse/elements/blink
2021-04-14 09:57:46.253,0.44034788,0.7374881,0.20685309,0.4734843,0.60945714,0.44351572,0.04069081,0.7112447,0.5552587,-0.25723475,-0.23384309,0.6262931,0.09430237,-0.0807902,0.031824756,0.024743838,-0.51065075,-0.4498252,-0.62886786,-0.35061353,807.47253,811.9048,803.44324,828.8278,621.31866,-0.37847900390625,0.00970458984375,0.924072265625,4.59075927734375,-3.970184326171875,2.280426025390625,1,1.0,1.0,1.0,1.0,80.00
2021-04-14 09:57:46.783,0.44034788,0.9633997,0.27843451,0.4734843,0.60945714,0.6340576,0.017261053,0.7112447,0.5552587,-0.29813725,-0.238995,0.6262931,0.09430237,-0.06679519,0.051751778,0.024743838,-0.51065075,-0.39409894,-0.64792264,-0.35061353,634.61536,778.86444,812.3077,666.04395,540.7326,-0.3907470703125,0.004638671875,0.92083740234375,4.80010986328125,-3.551483154296875,0.874786376953125,1,1.0,1.0,1.0,1.0,80.00
2021-04-14 09:57:46.837,,,,,,,,,,,,,,,,,,,,,,,,,,,,,,,,,,,,,,/muse/elements/blink
2021-04-14 09:57:47.306,0.44034788,0.9633997,0.27843451,0.4734843,0.60945714,0.6340576,0.017261053,0.7112447,0.5552587,-0.29813725,-0.238995,0.6262931,0.09430237,-0.06679519,0.051751778,0.024743838,-0.51065075,-0.39409894,-0.64792264,-0.35061353,776.04395,813.5165,805.4579,791.3553,608.4249,-0.39410400390625,0.02203369140625,0.9219970703125,5.046844482421875,-4.486083984375,1.62994384765625,1,1.0,1.0,1.0,1.0,80.00
2021-04-14 09:57:47.848,0.44034788,0.9633997,0.27843451,0.4734843,0.60945714,0.6340576,0.017261053,0.7112447,0.5552587,-0.29813725,-0.238995,0.6262931,0.09430237,-0.06679519,0.051751778,0.024743838,-0.51065075,-0.39409894,-0.64792264,-0.35061353,817.9487,809.89014,801.4286,799.011,718.8278,-0.39031982421875,0.01165771484375,0.92767333984375,4.239349365234375,-5.465545654296875,0.426177978515625,1,2.0,1.0,1.0,2.0,80.00
2021-04-14 09:57:48.399,0.44034788,-0.20819269,-0.54650575,0.4734843,0.60945714,-0.03159113,-0.38276753,0.7112447,0.5552587,0.23907122,-0.5996245,0.6262931,0.09430237,0.013099226,-0.12592168,0.024743838,-0.51065075,-0.35381234,-0.4866723,-0.35061353,778.0586,806.26373,803.44324,788.93774,753.47986,-0.36822509765625,0.01324462890625,0.9332275390625,4.5758056640625,-5.18890380859375,2.295379638671875,1,2.0,1.0,1.0,2.0,80.00
2021-04-14 09:57:48.931,0.30481187,-0.102256134,-0.6085603,-0.012139215,0.5582287,-0.13482013,-0.4368777,0.12501755,0.39647928,0.27261448,-0.10072087,0.4855412,0.16641203,-0.13414277,-0.087222405,0.14788222,-0.43555647,-0.42308962,-0.52034277,-0.4440065,740.58606,794.57874,799.011,771.2088,826.0073,-0.37969970703125,-0.005859375,0.92364501953125,3.730926513671875,-4.747772216796875,-2.7215576171875,1,1.0,1.0,1.0,1.0,80.00
2021-04-14 09:57:49.437,0.16785577,-0.13883285,-0.41908565,0.06902729,0.433172,-0.17389642,-0.35480922,0.13571714,0.42912337,0.27261448,0.007684809,0.63035023,0.11900296,-0.14706591,-0.117141135,0.10523518,-0.4410186,-0.4963112,-0.5579065,-0.36120847,818.7546,811.0989,810.293,814.3223,849.7802,-0.37261962890625,0.03411865234375,0.9310302734375,6.482391357421875,-8.246917724609375,6.258087158203125,1,1.0,1.0,1.0,1.0,75.00
2021-04-14 09:57:49.965,0.44615972,-0.13153821,-0.35060546,0.3963072,0.66626215,-0.30293375,-0.4168464,0.6757042,0.8962499,0.25026762,0.069823615,0.9937671,0.1609168,-0.25795904,-0.1323132,0.13917282,-0.37508968,-0.55920315,-0.513396,-0.3423833,871.53845,800.2198,805.05493,842.52747,894.10254,-0.36614990234375,0.010498046875,0.934814453125,4.029998779296875,-4.366455078125,2.624359130859375,1,1.0,1.0,1.0,1.0,75.00
2021-04-14 09:57:50.474,0.76338965,0.43168533,0.39526886,0.5152237,0.77283686,-0.038780786,-0.039261565,0.7787113,0.8806743,0.40484124,0.26148286,0.97950554,0.1931614,-0.19694981,-0.19049369,0.21389648,-0.32772535,-0.6164411,-0.46722138,-0.24904852,732.9304,800.6227,801.4286,769.19415,585.05493,-0.3670654296875,0.01409912109375,0.93389892578125,4.553375244140625,-4.127197265625,1.15142822265625,1,1.0,1.0,1.0,1.0,75.00
2021-04-14 09:57:50.982,1.0117892,0.831281,0.7846227,0.5071757,0.8586185,0.2184661,0.25001878,0.81259525,0.8700836,0.4722221,0.3341376,0.93616986,0.19907479,-0.22132266,-0.16851193,0.24498728,-0.2749285,-0.5378711,-0.403916,-0.15940498,760.7326,806.26373,806.6667,790.14655,538.315,-0.37677001953125,0.0157470703125,0.92626953125,4.658050537109375,-3.21502685546875,0.538330078125,1,1.0,1.0,1.0,1.0,75.00
2021-04-14 09:57:51.504,0.9180342,0.82980704,0.7851775,0.23162995,0.61779076,0.22859956,0.2935211,0.43117556,0.6949013,0.46525165,0.3341376,0.5558039,0.1783088,-0.17263095,-0.038980294,0.17513785,-0.3353046,-0.5302178,-0.40922356,-0.1436277,731.31866,796.5934,793.36993,760.32965,616.4835,-0.3834228515625,0.0120849609375,0.9337158203125,4.26177978515625,-4.613189697265625,-0.007476806640625,1,1.0,1.0,1.0,1.0,75.00
2021-04-14 09:57:52.058,0.70149213,0.69496655,0.6108055,0.19006427,0.35764098,0.2870478,0.21683407,0.21922308,0.65158087,0.46548972,0.42082986,0.46273905,0.20171441,-0.10825536,0.06588142,0.092412084,-0.40500554,-0.48803067,-0.38496426,-0.21110733,807.47253,802.23444,799.81683,801.4286,841.31866,-0.39007568359375,0.0145263671875,0.92730712890625,3.491668701171875,-4.5758056640625,-1.79443359375,1,1.0,1.0,1.0,1.0,75.00
2021-04-14 09:57:52.583,0.73071,0.7603693,0.5788669,0.26861167,0.2601237,0.48739338,0.26056278,0.12179103,0.23557255,0.49456832,0.4812719,0.25139758,0.17756964,-0.055445738,0.16240329,0.12588406,-0.42909548,-0.49203834,-0.37501064,-0.3135646,869.12085,811.0989,795.38464,833.663,950.5128,-0.35028076171875,0.06475830078125,0.95159912109375,6.871185302734375,-4.867401123046875,8.127288818359375,1,1.0,1.0,1.0,1.0,75.00
2021-04-14 09:57:53.086,0.801208,0.76288915,0.5828499,0.24943918,0.27251515,0.4850561,0.21543133,0.071039915,0.18621637,0.49456832,0.4812719,0.23471345,0.15884714,-0.10214421,0.14516051,0.19874616,-0.38542175,-0.48770192,-0.3747011,-0.33494112,909.81683,799.81683,795.38464,895.31134,882.01465,-0.3553466796875,0.01312255859375,0.9312744140625,7.357177734375,0.007476806640625,5.30853271484375,1,1.0,1.0,1.0,1.0,75.00
2021-04-14 09:57:53.149,,,,,,,,,,,,,,,,,,,,,,,,,,,,,,,,,,,,,,/muse/elements/blink
2021-04-14 09:57:53.629,0.84379876,0.6849346,0.6348394,0.18386059,0.27364483,0.33551016,0.38217926,0.13658793,-0.030073134,0.4820836,0.54818976,0.19503216,0.03708832,-0.027570596,0.07402171,0.23456223,-0.38154462,-0.43787608,-0.3108033,-0.31489274,752.674,804.65204,799.81683,784.90845,593.5165,-0.36993408203125,0.06414794921875,0.933837890625,6.228179931640625,-4.074859619140625,3.81317138671875,1,1.0,1.0,1.0,1.0,75.00
2021-04-14 09:57:54.140,0.19004555,0.17489198,0.42330605,-0.14243144,-0.11121698,-0.21849327,0.28981495,0.032925438,-0.41034573,-0.047794875,0.5210723,0.009601023,0.11144163,-0.00947281,-0.018583644,0.2777714,-0.3799989,-0.45077816,-0.27921507,-0.2925308,743.00366,801.8315,806.26373,770.80585,569.34064,-0.37042236328125,0.06610107421875,0.9249267578125,4.837493896484375,-5.166473388671875,1.854248046875,1,1.0,1.0,1.0,1.0,75.00
2021-04-14 09:57:54.662,0.19004555,0.21727663,0.4119541,-0.14243144,-0.11121698,-0.16200112,0.33133477,0.032925438,-0.41034573,0.07614906,0.5195821,0.009601023,0.11144163,0.0711644,0.030937415,0.2777714,-0.3799989,-0.39662516,-0.25152603,-0.2925308,823.9927,813.91943,794.17584,807.47253,909.011,-0.36505126953125,0.0587158203125,0.931396484375,4.05242919921875,-4.17205810546875,0.650482177734375,1,1.0,1.0,1.0,1.0,75.00
2021-04-14 09:57:55.206,0.6337878,0.1449304,0.06579359,0.27945113,0.7177958,0.037348628,0.03326716,0.35349795,0.5934972,0.18731047,0.16133709,0.51699823,0.07241805,0.061111845,0.08521415,0.23426257,-0.5712204,-0.3968562,-0.19080757,-0.23571232,869.12085,802.23444,802.23444,832.8571,1002.0879,-0.3597412109375,0.05413818359375,0.93487548828125,1.74957275390625,-8.17962646484375,-4.673004150390625,1,1.0,1.0,1.0,1.0,75.00
2021-04-14 09:57:55.720,0.5040504,0.18987949,-0.08512999,0.2906464,0.7618769,0.10825639,-0.13127893,0.53464425,0.6171112,0.21884006,0.008938286,0.56908077,0.13326174,0.095105834,0.13075109,0.25151917,-0.45603943,-0.3598812,-0.16510119,-0.2748407,854.21246,810.696,802.23444,835.2747,937.2161,-0.3477783203125,0.03607177734375,0.9466552734375,4.59075927734375,-2.983245849609375,-0.530853271484375,1,1.0,1.0,1.0,1.0,75.00
2021-04-14 09:57:56.234,0.63207847,0.1498191,-0.047803566,0.5247886,0.7910403,0.07408218,-0.14850445,0.6693963,0.60795116,0.24668686,0.13560708,0.59500676,0.17027028,0.001971006,0.08807327,0.20178983,-0.36634573,-0.37597227,-0.18609494,-0.3077514,871.9414,807.0696,805.4579,841.7216,1004.90845,-0.35723876953125,0.01348876953125,0.93743896484375,4.403839111328125,-3.2000732421875,0.2392578125,1,1.0,1.0,1.0,1.0,75.00
2021-04-14 09:57:56.742,0.7867671,-0.024858925,-0.28179255,0.6957717,0.6466906,-0.19203278,-0.18393457,0.6528034,0.5287711,0.1732433,0.06439343,0.6039901,0.2114706,-0.13770859,0.038120512,0.18340613,-0.3564675,-0.43350846,-0.21164596,-0.29049882,854.61536,806.26373,803.44324,822.381,922.71063,-0.35601806640625,0.01416015625,0.93939208984375,4.964599609375,-3.267364501953125,-0.19439697265625,1,1.0,1.0,1.0,1.0,75.00
2021-04-14 09:57:57.264,0.86051506,-0.072197184,-0.31297207,0.70781577,0.5336283,-0.08851602,-0.03876738,0.53705883,0.37966663,-0.007366087,0.07375643,0.5225887,0.190369,-0.13093533,-0.028432695,0.12146259,-0.37978622,-0.47723758,-0.2680102,-0.28442326,745.0183,798.20514,802.6374,776.8498,581.4286,-0.3634033203125,0.04541015625,0.9371337890625,6.691741943359375,-3.36456298828125,0.897216796875,1,1.0,1.0,1.0,1.0,75.00
2021-04-14 09:57:57.806,0.75063676,-0.22052188,-0.19178516,0.6621408,0.43780133,-0.030351844,-0.0761694,0.2878697,0.70224035,-0.016605658,-0.034564696,0.63824356,0.2676105,-0.04655647,-0.09832988,0.20440431,-0.387522,-0.559958,-0.31754357,-0.19826841,875.16486,799.41394,797.8022,836.8865,939.2308,-0.38519287109375,0.02276611328125,0.9219970703125,8.411407470703125,-0.10467529296875,-2.534637451171875,1,1.0,1.0,1.0,1.0,75.00
2021-04-14 09:57:58.347,0.41871437,-0.31524292,-0.22076249,0.4635715,0.45372275,0.024125772,-0.1454419,0.06028416,0.6663258,0.012846432,-9.360145E-4,0.62541217,0.17838849,-0.037202068,-0.12739807,0.18080057,-0.38062337,-0.4622944,-0.50764275,-0.22833341,750.2564,800.2198,801.8315,768.3883,539.92676,-0.41058349609375,-6.103515625E-4,0.91448974609375,-1.92901611328125,-1.2860107421875,0.306549072265625,1,1.0,1.0,1.0,1.0,75.00
2021-04-14 09:57:58.864,0.42217082,-0.06618975,-0.14077477,0.50926435,0.4987626,-0.08543181,-0.16578953,0.14581344,0.66900253,0.028973743,0.023310501,0.6715101,0.12452526,-0.15056095,-0.16097471,0.1699483,-0.39923555,-0.46424785,-0.42127144,-0.17783137,770.80585,799.81683,800.6227,780.87915,707.9487,-0.371337890625,-0.01190185546875,0.9276123046875,2.803802490234375,-2.489776611328125,0.3887939453125,1,1.0,1.0,1.0,1.0,75.00
2021-04-14 09:57:59.394,0.5190485,0.3071332,-0.17170738,0.57199544,0.4760788,-0.16072798,-0.14779648,0.13033396,0.49203905,0.14589776,-0.020934505,0.4241146,0.0049954965,-0.15142645,-0.17938378,0.20700496,-0.43797466,-0.46006167,-0.3943234,-0.24406484,852.1978,813.91943,805.8608,831.6484,841.31866,-0.356689453125,-0.00927734375,0.9281005859375,4.164581298828125,-4.56085205078125,0.43365478515625,1,1.0,1.0,1.0,1.0,75.00
2021-04-14 09:57:59.775,,,,,,,,,,,,,,,,,,,,,,,,,,,,,,,,,,,,,,/muse/elements/blink
2021-04-14 09:57:59.929,0.6043974,0.45677197,0.23779577,0.6429298,0.4977472,0.030196259,0.09939972,0.16173255,0.4933437,0.24681777,0.08341204,0.35921845,0.055330105,-0.17321159,-0.19413123,0.28318918,-0.4298537,-0.5196777,-0.3565369,-0.24552272,817.9487,806.26373,797.8022,821.1722,801.02563,-0.3675537109375,-0.00775146484375,0.936279296875,3.850555419921875,-4.687957763671875,-0.186920166015625,1,1.0,1.0,1.0,1.0,70.00
2021-04-14 09:58:00.472,0.58584446,1.0307754,0.6730023,0.7087096,0.43848574,0.74334097,0.47779953,-0.019509675,0.30667076,0.37348577,0.34885457,0.11904019,0.10509357,-0.039726175,-0.18161646,0.40505067,-0.47128463,-0.41629443,-0.38361204,-0.34083796,805.05493,803.44324,800.2198,796.1905,599.5604,-0.35931396484375,-0.0152587890625,0.9344482421875,4.119720458984375,-3.970184326171875,-0.037384033203125,1,1.0,1.0,1.0,1.0,70.00
2021-04-14 09:58:00.999,0.46012318,0.9993032,0.7110235,0.5274756,0.39300105,0.74488515,0.49535906,-0.13701157,0.2881656,0.3788841,0.4013906,0.06948669,0.17136234,-0.060238853,-0.19771016,0.45815825,-0.46464267,-0.39406687,-0.4081691,-0.46664736,812.71063,805.05493,803.44324,803.0403,871.13556,-0.3643798828125,-0.0078125,0.92901611328125,5.1739501953125,-4.852447509765625,2.041168212890625,1,1.0,1.0,1.0,1.0,70.00
2021-04-14 09:58:01.523,0.04520201,0.8994215,-0.02540748,0.46935537,0.14389396,0.6446277,-0.4886824,0.06923405,0.19409952,0.33677918,0.041670427,0.1708216,-0.11759167,-0.06767797,-0.2281293,-0.04682885,-0.3140172,-0.4436695,-0.4281556,-0.52118856,858.24176,804.65204,801.4286,839.707,896.9231,-0.37213134765625,-0.015380859375,0.92755126953125,4.673004150390625,-3.446807861328125,0.34393310546875,1,1.0,1.0,1.0,1.0,70.00
2021-04-14 09:58:02.043,0.025695695,-0.3339643,-0.045649163,0.42567387,0.023767637,-0.2805247,-0.54524004,0.1911761,0.19409952,-0.009879046,0.062123165,0.21288128,-0.084931396,-0.09155025,-0.18602096,-0.07559672,-0.24388202,-0.48467138,-0.37359056,-0.34377238,830.84247,805.4579,803.0403,818.7546,697.0696,-0.37261962890625,-0.0133056640625,0.9327392578125,4.605712890625,-3.54400634765625,1.547698974609375,1,1.0,1.0,1.0,1.0,70.00
2021-04-14 09:58:02.585,0.37777552,-0.39553118,-0.10872385,0.3906292,0.06584152,-0.4424518,-0.312532,0.14109549,0.19781107,-0.16355334,0.032244906,0.22014533,0.09146315,-0.09506289,-0.21600474,0.11755062,-0.036427286,-0.45777017,-0.43800747,-0.041238416,756.7033,799.81683,801.02563,772.01465,555.64105,-0.380615234375,-0.01153564453125,0.924560546875,4.5458984375,-4.269256591796875,0.844879150390625,1,1.0,1.0,1.0,1.0,70.00
2021-04-14 09:58:03.107,0.41151887,-0.32885975,-0.32590622,0.24829035,0.0037077933,-0.65937275,-0.23344186,0.15684743,0.18096365,-0.28768915,-0.29397562,0.4342106,0.1544907,-0.04414929,-0.18623315,0.22854567,-0.03244939,-0.43114045,-0.47746828,0.011821712,810.293,800.2198,801.02563,803.0403,645.4945,-0.37445068359375,-0.01361083984375,0.92987060546875,4.2767333984375,-4.448699951171875,0.829925537109375,1,1.0,1.0,1.0,1.0,70.00
2021-04-14 09:58:03.617,0.37819076,-0.25137618,-0.45571998,0.060276683,0.057196785,-0.59121305,-0.27418742,0.22050294,0.18096365,-0.29165873,-0.26998183,0.4320382,0.12190864,-0.05771173,-0.17642745,0.2645198,-0.10486559,-0.48499325,-0.5156041,-0.04975055,752.27106,802.6374,803.0403,773.22345,619.304,-0.376708984375,-0.01416015625,0.9327392578125,4.015045166015625,-5.3533935546875,1.24114990234375,1,1.0,1.0,1.0,1.0,70.00
2021-04-14 09:58:04.162,0.014908362,-0.3702448,-0.54244184,-0.056082275,-0.051962838,-0.5579313,-0.5082944,0.26044402,0.18096365,-0.33850127,-0.18866642,0.44192702,0.020492889,-0.08374361,-0.1846566,0.14288859,-0.34245774,-0.50092435,-0.43191594,-0.28460753,863.47986,805.05493,801.8315,830.0366,988.7912,-0.37353515625,-0.01446533203125,0.93145751953125,4.598236083984375,-4.254302978515625,0.665435791015625,1,1.0,1.0,1.0,1.0,70.00
2021-04-14 09:58:04.707,-0.050287645,-0.5431908,-0.5880059,0.13780706,-0.009743286,-0.5255795,-0.45032457,0.2831038,0.23422015,-0.43010587,-0.06998393,0.47470897,-0.0019243824,-0.23240164,-0.2438146,0.03696327,-0.42539462,-0.51096016,-0.32447788,-0.2686943,825.6044,803.0403,802.23444,805.4579,888.46155,-0.3765869140625,-0.01593017578125,0.93145751953125,4.246826171875,-5.33843994140625,0.94207763671875,1,1.0,1.0,1.0,1.0,70.00
2021-04-14 09:58:05.223,0.019542469,-0.507537,-0.49130893,0.23081203,0.3213836,-0.4693653,-0.22281262,0.38839605,0.4675939,-0.37078893,0.2486481,0.5783859,0.15448996,-0.30888644,-0.15680304,0.18614225,-0.41562954,-0.4987436,-0.24651712,-0.22229816,766.3736,799.011,809.4872,786.1172,694.2491,-0.38116455078125,-0.0157470703125,0.9268798828125,4.05242919921875,-4.4561767578125,1.36077880859375,1,1.0,1.0,1.0,1.0,70.00
2021-04-14 09:58:05.749,0.2256628,-0.07447216,0.039213646,0.30938232,0.48670617,-0.20234065,-0.20300627,0.4073672,0.53207326,0.2020597,0.328455,0.57350516,0.2802968,-0.24764,-0.081245035,0.31289372,-0.41344637,-0.4251141,-0.1977327,-0.1870615,842.1245,801.8315,800.2198,825.6044,913.8461,-0.37725830078125,-0.01617431640625,0.93218994140625,4.029998779296875,-4.844970703125,1.188812255859375,1,1.0,1.0,1.0,1.0,70.00
2021-04-14 09:58:06.287,0.21217844,0.02749632,0.12012572,0.28753752,0.4602326,-0.15116972,-0.25968975,0.4022689,0.5309292,0.24434084,0.328455,0.51563334,0.37123108,-0.18664034,-0.057488844,0.3445342,-0.39817762,-0.41466364,-0.2716415,-0.27213883,795.38464,809.0842,799.81683,801.8315,770.40295,-0.37689208984375,-0.019775390625,0.93603515625,4.68048095703125,-4.26177978515625,0.844879150390625,1,1.0,1.0,1.0,1.0,70.00
2021-04-14 09:58:06.831,0.24549547,-0.045960087,0.06568697,0.2888916,0.25392252,-0.14038584,-0.52705646,0.2372944,0.47902492,0.25406837,0.23031886,0.2819484,0.35153046,-0.18717377,-0.08339755,0.2725186,-0.34160486,-0.47263458,-0.32333788,-0.33426222,865.4945,802.23444,798.20514,838.9011,932.7839,-0.37298583984375,-0.0167236328125,0.9296875,4.5159912109375,-4.5159912109375,0.605621337890625,1,1.0,1.0,1.0,1.0,70.00
2021-04-14 09:58:07.374,0.16606164,-0.48839733,-0.51649964,0.24261259,0.045072798,-0.38938415,-0.57076615,0.14870226,0.4671201,0.041523732,-0.21488121,0.18818109,0.25025323,-0.20451942,-0.049929738,0.18095124,-0.3577564,-0.6133666,-0.4122212,-0.438549,818.3516,803.44324,801.4286,802.6374,882.4176,-0.3782958984375,-0.02593994140625,0.93511962890625,3.072967529296875,-2.9608154296875,0.725250244140625,1,1.0,1.0,1.0,1.0,70.00
2021-04-14 09:58:07.917,0.22951962,-0.51615155,-0.42398444,0.34648412,0.058576886,-0.3990698,-0.46808675,0.27113068,0.45311832,-0.050716393,-0.28661594,0.026295394,0.20974255,-0.14018446,-0.025545845,0.32436576,-0.16433151,-0.57770616,-0.35889047,-0.26837954,863.0769,801.02563,791.3553,828.022,927.9487,-0.392822265625,-0.010498046875,0.92059326171875,4.658050537109375,-7.46185302734375,4.7552490234375,1,1.0,1.0,1.0,1.0,70.00
2021-04-14 09:58:08.395,,,,,,,,,,,,,,,,,,,,,,,,,,,,,,,,,,,,,,/muse/elements/blink
2021-04-14 09:58:08.460,0.17746037,0.24413851,-0.28890976,0.3685104,0.07401879,-0.0977964,-0.39989778,0.28317553,0.6051216,0.11616695,-0.29393882,0.07490743,0.28387216,-0.04358255,-0.03807435,0.3944279,-0.08753484,-0.59687436,-0.37228206,-0.13823569,936.0073,812.3077,786.1172,917.47253,706.7399,-0.373291015625,-1.220703125E-4,0.9267578125,4.42626953125,-4.11224365234375,1.891632080078125,1,1.0,1.0,1.0,1.0,70.00
2021-04-14 09:58:09.002,0.20249918,0.78678083,-0.13142711,0.38637623,-0.04546393,0.3487968,-0.29678035,0.40932688,0.58601,0.29340267,-0.36404705,0.029872434,0.4034191,-4.486199E-4,-0.032505386,0.53876203,0.06468876,-0.64378536,-0.32265648,0.00818427,871.9414,809.89014,806.26373,838.49817,888.0586,-0.3712158203125,0.003173828125,0.93572998046875,4.912261962890625,-3.93280029296875,0.426177978515625,1,1.0,1.0,1.0,1.0,70.00
2021-04-14 09:58:09.506,-0.028314037,0.9793523,-0.14966454,0.09113506,-0.20822032,0.5300964,-0.35227618,0.32264733,0.45337024,0.29340267,-0.32396337,0.026206166,0.45013267,0.03034802,-0.11673704,0.52496254,0.10188577,-0.71765256,-0.34407315,0.13916114,796.5934,801.8315,801.02563,790.14655,611.2454,-0.36907958984375,-0.00244140625,0.93328857421875,4.478607177734375,-3.177642822265625,0.829925537109375,1,1.0,1.0,1.0,1.0,70.00
2021-04-14 09:58:09.709,,,,,,,,,,,,,,,,,,,,,,,,,,,,,,,,,,,,,,/muse/elements/blink
2021-04-14 09:58:10.050,-0.028314037,0.6001422,0.41971228,0.8802086,-0.20822032,0.3918462,-0.17583555,0.9412289,0.45337024,0.40703252,0.09121137,0.85022545,0.45013267,0.087734476,0.14294147,0.8126413,0.10188577,-0.57760465,-0.65610534,-0.068337135,750.2564,794.57874,805.4579,776.8498,544.35895,-0.38433837890625,-0.00128173828125,0.92205810546875,4.000091552734375,-5.001983642578125,2.729034423828125,1,1.0,1.0,1.0,1.0,80.00
2021-04-14 09:58:10.349,,,,,,,,,,,,,,,,,,,,,,,,,,,,,,,,,,,,,,/muse/elements/blink
2021-04-14 09:58:10.559,-0.028314037,0.6001422,0.41971228,0.8802086,-0.20822032,0.3918462,-0.17583555,0.9412289,0.45337024,0.40703252,0.09121137,0.85022545,0.45013267,0.087734476,0.14294147,0.8126413,0.10188577,-0.57760465,-0.65610534,-0.068337135,783.69965,803.0403,807.8755,792.1612,605.6044,-0.3824462890625,6.103515625E-5,0.92633056640625,4.02252197265625,-4.306640625,2.654266357421875,1,1.0,1.0,1.0,1.0,80.00
2021-04-14 09:58:11.103,-0.028314037,0.67200327,0.52513635,0.8802086,-0.20822032,0.40973347,-0.15095496,0.9412289,0.45337024,0.40703252,0.09121137,0.85022545,0.45013267,0.06463833,0.19454464,0.8126413,0.10188577,-0.5976567,-0.6360558,-0.068337135,740.58606,802.23444,800.2198,770.40295,538.71796,-0.38348388671875,-4.2724609375E-4,0.923583984375,4.6356201171875,-5.121612548828125,1.398162841796875,1,1.0,1.0,1.0,1.0,80.00
2021-04-14 09:58:11.655,-0.028314037,-0.4235905,0.5598747,0.8802086,-0.20822032,-0.26329154,-0.16133016,0.9412289,0.45337024,0.117928974,0.09121137,0.85022545,0.45013267,-0.02731512,0.2236282,0.8126413,0.10188577,-0.21239384,-0.6065269,-0.068337135,751.8681,804.2491,803.0403,782.0879,651.13556,-0.38629150390625,0.00299072265625,0.92474365234375,4.32159423828125,-3.970184326171875,1.03179931640625,1,1.0,1.0,1.0,1.0,80.00
2021-04-14 09:58:12.195,-0.0402598,-0.5350578,0.06639055,0.39266717,0.3649471,-0.31335726,0.06897689,0.4448422,0.6271248,0.12091649,-0.0695609,0.37471077,0.10842524,-0.10178249,0.07642579,0.20373341,-0.19771306,-0.23019512,-0.08525145,-0.33676437,750.2564,803.0403,815.5311,779.2674,568.1319,-0.38568115234375,0.00543212890625,0.92791748046875,4.68048095703125,-5.345916748046875,2.145843505859375,1,1.0,1.0,1.0,1.0,80.00
2021-04-14 09:58:12.739,0.08651022,-0.17779367,0.20064105,0.23036668,0.2800534,-0.2375954,0.048086602,0.3421186,0.65889066,0.23353535,-0.03861417,0.44515494,0.15354384,0.03701012,0.13496242,0.27645662,-0.17766958,-0.27613887,-0.087348096,-0.13588774,753.0769,803.8461,801.4286,782.49084,572.96704,-0.3896484375,0.0048828125,0.92230224609375,4.314117431640625,-4.1571044921875,0.70281982421875,1,1.0,1.0,1.0,1.0,80.00
2021-04-14 09:58:13.241,,,,,,,,,,,,,,,,,,,,,,,,,,,,,,,,,,,,,,/muse/elements/blink
2021-04-14 09:58:13.247,0.38560894,0.5336583,0.7822017,0.05156769,0.18763198,0.09748327,0.36725873,0.25739154,0.5540164,0.52307135,0.3517003,0.5903034,0.16034468,0.06742186,0.2126587,0.2628952,-0.14750665,-0.4061497,-0.12225573,-0.0895712,864.68866,809.0842,788.5348,879.59705,531.8681,-0.388671875,0.00433349609375,0.9176025390625,4.97955322265625,-5.540313720703125,0.10467529296875,1,1.0,1.0,1.0,1.0,80.00
2021-04-14 09:58:13.752,0.51450056,0.6889494,0.92676914,-0.14294305,0.1264913,0.41774827,0.5797971,0.1767071,0.42022425,0.69838583,0.41412157,0.5903034,0.15925881,0.10802802,0.1900158,0.307922,-0.1359735,-0.48772737,-0.13070741,-0.010427628,843.3333,809.4872,805.4579,824.7985,971.06226,-0.3853759765625,8.544921875E-4,0.92047119140625,6.02630615234375,-3.828125,-4.927215576171875,1,1.0,1.0,1.0,1.0,80.00
2021-04-14 09:58:14.294,0.70815253,0.6905781,0.9034235,-0.09326259,0.07320469,0.4401335,0.5904324,0.17762609,0.26773664,0.69838583,0.41384354,0.58386713,0.08080953,-0.0139176175,0.09214366,0.23106807,-0.092900746,-0.51135796,-0.2120535,-0.060375776,777.25275,810.696,800.6227,791.75824,782.0879,-0.37353515625,0.014892578125,0.93316650390625,4.538421630859375,-9.01702880859375,2.03369140625,1,1.0,1.0,1.0,1.0,80.00
2021-04-14 09:58:14.807,0.70815253,0.39533216,0.6007826,-0.09326259,0.07320469,0.33611876,0.4149019,0.17762609,0.26773664,0.5313121,0.38666695,0.58386713,0.08080953,-0.055157363,-0.041366503,0.23106807,-0.092900746,-0.45641217,-0.26096585,-0.060375776,801.4286,807.8755,800.2198,803.0403,641.06226,-0.366455078125,0.0279541015625,0.93548583984375,5.615081787109375,-6.990814208984375,1.42059326171875,1,1.0,1.0,1.0,1.0,80.00
2021-04-14 09:58:15.328,0.35503164,0.19833478,0.21665381,0.3424735,0.19682951,-0.10516131,-0.21367016,0.17766571,0.3780826,0.16670527,0.0980176,0.31049657,0.18459639,-0.08440839,0.03299122,0.40761116,-0.5699633,-0.42102474,-0.3405058,-0.15925245,850.58606,806.6667,801.02563,821.5751,807.8755,-0.39404296875,0.00946044921875,0.9244384765625,4.643096923828125,-3.46923828125,0.575714111328125,1,1.0,1.0,1.0,1.0,80.00
2021-04-14 09:58:15.854,0.80371255,0.10279925,0.13727237,0.8224125,0.4241562,-0.17861113,-0.2804167,0.40182185,0.8213634,-0.028454982,-0.018229658,0.6986015,0.28771707,-0.07323501,0.02080107,0.40756547,-0.36694303,-0.44619808,-0.41821995,-0.14020562,675.31134,797.8022,805.05493,698.2784,780.07324,-0.39532470703125,0.01043701171875,0.91961669921875,3.880462646484375,-4.598236083984375,-0.73272705078125,1,1.0,1.0,1.0,1.0,80.00
2021-04-14 09:58:16.067,,,,,,,,,,,,,,,,,,,,,,,,,,,,,,,,,,,,,,/muse/elements/blink
2021-04-14 09:58:16.387,0.88159406,0.6889817,0.1224243,0.89515877,0.48804322,0.20242459,-0.20044996,0.45408332,0.8213634,0.3476085,-2.9697167E-4,0.6986015,0.31509545,-0.062315356,0.046927452,0.4132111,-0.334322,-0.4854854,-0.4700176,-0.12354313,741.79486,801.4286,799.81683,768.7912,707.1429,-0.3875732421875,0.008056640625,0.9144287109375,4.42626953125,-4.448699951171875,0.82244873046875,1,1.0,1.0,1.0,1.0,80.00
2021-04-14 09:58:16.931,1.1556966,0.83380526,-0.27008155,1.1746309,0.68542427,0.328041,-0.4352957,0.6566519,0.80091614,0.3476085,-0.3870939,0.6986015,0.43663245,-0.07904597,0.014596665,0.40405345,-0.14169414,-0.57696193,-0.6005493,-0.12499909,747.03296,807.47253,807.8755,769.19415,613.663,-0.38995361328125,0.01025390625,0.9246826171875,4.089813232421875,-3.925323486328125,1.92901611328125,1,1.0,1.0,1.0,1.0,80.00
2021-04-14 09:58:17.436,1.1556966,0.8532167,-0.28200924,1.1746309,0.68542427,0.34922454,-0.5761715,0.6566519,0.80091614,0.35129774,-0.055291977,0.6986015,0.43663245,-0.1873052,0.05584114,0.40405345,-0.14169414,-0.550467,-0.16928212,-0.12499909,751.8681,798.60803,803.8461,773.6264,751.4652,-0.3865966796875,0.0057373046875,0.92578125,4.000091552734375,-5.18890380859375,0.291595458984375,1,1.0,1.0,1.0,1.0,80.00
2021-04-14 09:58:17.953,-0.015075868,0.14692643,0.14084141,0.22343753,0.21374187,-0.03338169,-0.57122636,0.23458405,0.13827294,0.3553853,0.14932661,0.5250765,0.107439056,-0.12717915,0.16433106,0.0013810343,-0.43254474,-0.545818,-0.26786962,-0.13994591,831.6484,803.44324,802.6374,818.3516,787.326,-0.38720703125,0.01141357421875,0.92706298828125,4.732818603515625,-4.209442138671875,0.620574951171875,1,1.0,1.0,1.0,1.0,80.00
2021-04-14 09:58:18.462,-0.029234095,0.117378205,0.10628624,0.23107906,0.14141521,0.041244917,-0.53986263,0.14246795,0.18063042,0.38363898,0.14932661,0.67177266,-0.027676681,-0.07730678,0.13813159,0.048121095,-0.4348859,-0.56641525,-0.28953466,-0.27957994,762.74725,804.65204,809.4872,790.14655,673.69965,-0.37969970703125,0.00689697265625,0.92333984375,4.433746337890625,-5.81695556640625,1.33087158203125,1,1.0,1.0,1.0,1.0,80.00
2021-04-14 09:58:18.970,0.041207787,0.059409842,0.07030518,0.2940538,0.064624555,0.024062147,-0.47361478,0.15024701,0.18808186,0.3227465,0.13984981,0.68281746,-0.09832818,0.012062816,0.114034355,0.2060143,-0.38452566,-0.529913,-0.37374392,-0.36814162,818.3516,810.293,809.0842,825.6044,716.8132,-0.3787841796875,0.00421142578125,0.9256591796875,4.254302978515625,-3.45428466796875,0.49346923828125,1,1.0,1.0,1.0,1.0,80.00
2021-04-14 09:58:19.510,-7.557053E-4,-0.24830839,-0.26655588,0.2070419,-0.044313584,-0.10613008,-0.40936732,0.11602421,0.5102616,0.3323153,0.093297675,0.55745155,-0.09048313,-0.0034144768,-0.024997009,0.25397307,-0.30910948,-0.56775355,-0.34471995,-0.41164777,805.05493,800.6227,808.68134,802.23444,837.28937,-0.37799072265625,-0.0028076171875,0.92706298828125,4.0972900390625,-4.927215576171875,0.83740234375,1,1.0,1.0,1.0,1.0,80.00
2021-04-14 09:58:20.018,0.08191209,-0.31920177,-0.528571,0.13901107,0.022752931,-0.23752283,-0.319105,0.1806261,0.54102105,0.05730534,0.08781701,0.6028637,-0.003599152,-0.08944356,-0.14551307,0.2599844,-0.30780882,-0.5431132,-0.33212024,-0.37290978,751.4652,804.65204,798.60803,775.2381,668.86444,-0.376220703125,0.0076904296875,0.9278564453125,4.4561767578125,-4.478607177734375,1.12152099609375,1,1.0,1.0,1.0,1.0,80.00
2021-04-14 09:58:20.406,,,,,,,,,,,,,,,,,,,,,,,,,,,,,,,,,,,,,,/muse/elements/blink
2021-04-14 09:58:20.554,0.043997098,0.26721883,0.28656265,0.043476783,0.122055516,0.039172273,0.0761608,0.23082931,0.5670473,0.33141825,0.20731889,0.39803618,0.08538866,-0.20955974,-0.15001911,0.17309341,-0.32643637,-0.5595714,-0.3552779,-0.30903727,855.82416,809.4872,799.81683,838.49817,966.2271,-0.38165283203125,0.01007080078125,0.9306640625,4.508514404296875,-3.985137939453125,1.472930908203125,1,1.0,1.0,1.0,1.0,75.00
2021-04-14 09:58:21.061,0.17967008,0.8057685,0.9212208,0.1359783,0.19270355,0.4625409,0.628855,0.24720523,0.429934,0.4991613,0.24375948,0.395035,0.05623778,-0.12398501,-0.16316795,0.15472026,-0.43370157,-0.5272844,-0.4306657,-0.39852837,863.0769,808.68134,807.8755,823.1868,834.0659,-0.37939453125,0.00726318359375,0.92987060546875,4.403839111328125,-4.62066650390625,0.844879150390625,1,1.0,1.0,1.0,1.0,75.00
2021-04-14 09:58:21.589,0.20136464,0.7936739,0.93618983,0.23353556,0.21805826,0.42933628,0.63034755,0.294618,0.33369827,0.50132656,0.21624069,0.38322607,0.064754836,-0.02942621,-0.13635764,0.19468243,-0.4198217,-0.6030838,-0.53641766,-0.37013686,805.4579,800.6227,802.6374,806.6667,638.6447,-0.37554931640625,0.00482177734375,0.92779541015625,4.4561767578125,-4.20196533203125,0.889739990234375,1,1.0,1.0,1.0,1.0,75.00
2021-04-14 09:58:22.096,0.6664636,0.61650765,0.7679537,0.6590147,0.43081334,0.24504411,0.46592373,0.4463082,0.13634299,0.4705813,0.1263799,0.30930486,0.15899478,-0.03544417,-0.22567846,0.18335226,-0.40424982,-0.611281,-0.46098274,-0.19435732,732.9304,805.8608,801.4286,765.16486,572.5641,-0.37579345703125,0.01025390625,0.927978515625,4.26177978515625,-4.29168701171875,0.919647216796875,1,1.0,1.0,1.0,1.0,75.00
2021-04-14 09:58:22.609,0.55253917,-0.12895046,-0.072689265,0.4647704,0.2683588,-0.34078616,-0.17459519,0.26718614,0.18622248,-0.23760012,-0.1300634,0.34399953,0.090812325,-0.21969026,-0.17079695,0.0933327,-0.4928784,-0.59622973,-0.46781182,-0.14871953,765.56775,803.44324,804.65204,777.6557,712.7839,-0.37567138671875,0.00616455078125,0.93389892578125,4.71038818359375,-4.6356201171875,1.637420654296875,1,1.0,1.0,1.0,1.0,75.00
2021-04-14 09:58:23.132,0.44704387,0.03494359,-0.08317651,0.37285954,0.21194708,-0.12746894,-0.12633482,0.13552949,0.23938085,-0.1923375,-0.12460257,0.32099506,0.19489251,-0.33450946,-0.06676772,0.16756421,-0.45843324,-0.5505632,-0.51648647,-0.18629602,744.61536,807.47253,802.23444,780.07324,628.5714,-0.38720703125,0.00738525390625,0.9268798828125,4.628143310546875,-5.18890380859375,0.657958984375,1,1.0,1.0,1.0,1.0,75.00
2021-04-14 09:58:23.637,0.149724,-0.043508876,0.02496218,0.111686714,0.04183702,-0.2128471,-0.13058272,-0.07189794,0.6064909,-0.10518616,0.023206996,0.5012716,0.17727447,-0.3409263,0.0041898354,0.16836958,-0.4183737,-0.6216947,-0.6307168,-0.22768055,796.5934,803.8461,796.99634,793.7729,778.46155,-0.387939453125,0.0042724609375,0.92803955078125,4.2767333984375,-4.149627685546875,0.73272705078125,1,1.0,1.0,1.0,1.0,75.00
2021-04-14 09:58:23.733,,,,,,,,,,,,,,,,,,,,,,,,,,,,,,,,,,,,,,/muse/elements/blink
2021-04-14 09:58:24.149,0.37778318,0.38765934,0.37668583,0.54322606,0.4920032,-0.09815277,0.07108819,0.62040883,0.9147598,0.13874403,0.37818885,0.9734972,0.3095439,-0.1293765,0.10628142,0.42435828,-0.36852467,-0.6200736,-0.55555815,-0.27262276,799.011,788.93774,813.1135,813.91943,599.15753,-0.3843994140625,0.00531005859375,0.92254638671875,4.366455078125,-5.36834716796875,0.934600830078125,1,1.0,1.0,1.0,1.0,75.00
2021-04-14 09:58:24.692,0.5478369,0.5210935,0.50014496,0.74277043,0.57480216,0.17314908,0.20051765,0.787587,0.9147598,0.25892088,0.4611207,0.9734972,0.2015079,-0.07638162,0.09142332,0.4843902,-0.28664225,-0.59371233,-0.39944538,-0.2776073,735.34796,803.44324,795.78754,763.5531,670.4762,-0.38140869140625,0.00616455078125,0.92724609375,4.7552490234375,-4.284210205078125,0.814971923828125,1,1.0,1.0,1.0,1.0,75.00
2021-04-14 09:58:25.204,0.63248837,0.6964682,0.56061506,0.9329072,0.57936347,0.36189255,0.3570333,0.8654991,0.9147598,0.36430717,0.51783437,0.9734972,0.22222984,-0.06331875,0.08837985,0.517015,-0.30053803,-0.5801558,-0.32803616,-0.25316808,767.5824,807.0696,796.1905,768.7912,760.7326,-0.38140869140625,0.00457763671875,0.92877197265625,4.6954345703125,-3.36456298828125,0.964508056640625,1,1.0,1.0,1.0,1.0,75.00
2021-04-14 09:58:25.712,0.5187981,0.5341298,0.393942,0.82693464,0.24314517,0.3348209,0.3035727,0.39164135,0.6678515,0.30785793,0.46183977,0.7038952,0.11469566,-0.16279583,-0.015268997,0.24492982,-0.28693837,-0.5667845,-0.38342622,-0.32110763,834.0659,806.6667,802.6374,826.0073,863.47986,-0.38055419921875,0.00421142578125,0.9293212890625,4.613189697265625,-4.44122314453125,0.889739990234375,1,1.0,1.0,1.0,1.0,75.00
2021-04-14 09:58:26.216,0.32961857,0.3510425,0.25798908,0.6024247,0.28915387,0.13330571,0.22147916,0.28919208,0.758955,0.30820698,0.3795356,0.6368705,0.2083087,-0.15396665,-0.11786128,0.13005692,-0.33354378,-0.5738834,-0.47823673,-0.33246082,847.76556,803.8461,796.99634,825.6044,822.381,-0.38067626953125,0.00152587890625,0.92523193359375,5.15899658203125,-3.581390380859375,1.60003662109375,1,1.0,1.0,1.0,1.0,75.00
2021-04-14 09:58:26.721,0.18620348,-0.41353083,-0.021462448,0.24453028,0.39633834,-0.24144295,-0.09837752,0.337494,0.760382,0.054561064,0.17640088,0.54302096,0.21452099,-0.1364725,-0.10254403,0.08635923,-0.35018077,-0.60450006,-0.5351858,-0.33993033,764.7619,804.65204,805.4579,779.67035,724.87177,-0.37884521484375,0.003662109375,0.92706298828125,4.41131591796875,-4.957122802734375,0.740203857421875,1,1.0,1.0,1.0,1.0,75.00
2021-04-14 09:58:27.240,0.026577251,-0.30581453,0.0310186,0.06106321,0.3697568,-0.3384143,-0.15201414,0.4110991,0.7553281,-0.028031895,0.17601125,0.5286835,0.20823675,-0.19719544,-0.10921675,0.08294684,-0.40332198,-0.5778177,-0.47642356,-0.32015857,740.58606,800.6227,810.293,774.43225,614.4689,-0.37689208984375,-3.662109375E-4,0.9273681640625,4.179534912109375,-3.96270751953125,-0.366363525390625,1,1.0,1.0,1.0,1.0,75.00
2021-04-14 09:58:27.751,0.10989263,-0.4135325,-0.03128921,0.22324766,0.260717,-0.48531967,-0.24867585,0.3641652,0.6738939,0.06254324,0.060777627,0.5790216,0.1855777,-0.21598083,-0.10803144,0.0723353,-0.531226,-0.5868435,-0.5350627,-0.2962032,863.0769,811.0989,802.6374,848.5714,932.7839,-0.3787841796875,0.0030517578125,0.9267578125,4.179534912109375,-4.29168701171875,0.665435791015625,1,1.0,1.0,1.0,1.0,75.00
2021-04-14 09:58:28.293,0.5253695,0.16008976,0.19740917,0.58220565,0.45414102,-0.16084212,-0.14605531,0.53201103,0.70153373,0.069869645,0.050250817,0.5668945,0.33353093,-0.09477375,-0.13649343,0.19705534,-0.51883984,-0.5366178,-0.58504933,-0.25651643,857.4359,802.23444,800.6227,839.304,882.01465,-0.38427734375,0.007080078125,0.93414306640625,4.5758056640625,-5.659942626953125,1.667327880859375,1,1.0,1.0,1.0,1.0,75.00
2021-04-14 09:58:28.830,1.0893613,0.77840734,0.5697521,0.9422309,0.8070229,0.21773204,0.16175568,0.8200726,0.86239856,0.44786954,0.20121892,0.6400058,0.5621374,0.046204522,-0.03397485,0.40639377,-0.47168353,-0.59614795,-0.43989202,-0.23552279,838.9011,801.02563,807.0696,811.9048,800.2198,-0.3692626953125,-0.00286865234375,0.92657470703125,4.643096923828125,-4.254302978515625,1.218719482421875,1,1.0,1.0,1.0,1.0,75.00
2021-04-14 09:58:29.357,1.2513626,0.9532086,0.6973331,1.009943,0.8363326,0.37159508,0.2807628,0.7995085,0.87626827,0.4433507,0.20751445,0.6360661,0.56565714,0.12716919,0.023253657,0.43029222,-0.39738303,-0.5848944,-0.3918043,-0.27992904,767.98535,805.05493,803.44324,790.54944,607.2161,-0.3499755859375,0.01080322265625,0.9415283203125,4.68048095703125,-5.562744140625,2.235565185546875,1,1.0,1.0,1.0,1.0,75.00
2021-04-14 09:58:29.899,1.2049502,0.9069371,0.6274788,0.92344004,0.7462657,0.32221368,0.24991916,0.6589611,0.87626827,0.48778215,0.20751445,0.6342055,0.46345964,0.11779452,-0.022368327,0.3775113,-0.29713362,-0.60055655,-0.36377355,-0.32773197,748.24176,805.8608,804.65204,773.6264,587.8755,-0.37469482421875,0.00653076171875,0.9293212890625,3.78326416015625,-4.643096923828125,0.620574951171875,1,1.0,1.0,1.0,1.0,75.00
2021-04-14 09:58:30.414,0.8691863,0.5472454,0.3025726,0.5674201,0.43267363,0.19318578,0.053482566,0.09589775,0.7151838,0.443933,0.21337543,0.4846325,0.10395356,0.009493632,-0.13686708,0.115519255,-0.29616848,-0.6294455,-0.5058078,-0.3560039,756.7033,808.2784,807.8755,776.8498,567.326,-0.37030029296875,-9.1552734375E-4,0.93389892578125,3.536529541015625,-4.2169189453125,0.7177734375,1,1.0,1.0,1.0,1.0,75.00
2021-04-14 09:58:30.653,,,,,,,,,,,,,,,,,,,,,,,,,,,,,,,,,,,,,,/muse/elements/blink
2021-04-14 09:58:30.974,0.16894744,0.25818014,0.3024512,0.3038398,0.31756753,0.18686901,0.13147326,0.08984554,0.39078754,0.2559197,0.19279648,0.40725634,0.036662057,-0.12494453,-0.22112423,0.053454198,-0.29265904,-0.6266202,-0.43205816,-0.3233516,800.6227,815.5311,807.47253,806.26373,562.8938,-0.37982177734375,-0.0108642578125,0.93096923828125,4.284210205078125,-4.059906005859375,0.91217041015625,1,1.0,1.0,1.0,1.0,75.00
2021-04-14 09:58:31.487,0.29340732,0.51452076,0.64637876,0.5776876,0.31873506,0.28905657,0.3023902,0.29548365,0.35889083,0.22001064,0.20795357,0.33939528,0.10956305,-0.20539844,-0.096973725,-0.0043987813,-0.37713566,-0.5167773,-0.35922316,-0.3155206,752.674,805.4579,802.6374,773.6264,618.9011,-0.38287353515625,-0.01019287109375,0.927734375,4.91973876953125,-3.4393310546875,1.069183349609375,1,1.0,1.0,1.0,1.0,75.00
2021-04-14 09:58:32.017,0.3269608,0.50428516,0.63516414,0.5776876,0.25716323,0.17069073,0.25901073,0.29548365,0.33284676,0.22001064,0.19785674,0.33939528,0.13900225,-0.1544235,-0.116273604,-0.0043987813,-0.36518884,-0.42746374,-0.27878788,-0.3155206,777.25275,804.2491,801.8315,780.4762,700.696,-0.3839111328125,-0.00897216796875,0.92156982421875,4.658050537109375,-4.493560791015625,0.5682373046875,1,1.0,1.0,1.0,1.0,75.00
2021-04-14 09:58:32.553,0.021050563,0.12384743,0.26352456,0.18610707,0.13311864,-0.20571208,-0.13392311,-0.45920026,0.116847456,-0.013950447,-0.012632693,-0.021083003,-0.09491756,-0.18930899,-0.14704764,0.24664906,-0.3814031,-0.48223504,-0.3148402,-0.18301092,740.989,796.5934,801.8315,770.80585,602.381,-0.380615234375,-0.01129150390625,0.93060302734375,4.598236083984375,-4.493560791015625,1.03179931640625,1,1.0,1.0,1.0,1.0,75.00
2021-04-14 09:58:33.058,0.31738147,-0.14241262,-0.39492497,0.40920874,0.08583175,-0.30169895,-0.3514979,-0.39016703,0.15604787,0.15480466,-0.114772506,0.04814002,0.009743875,-0.17598623,-0.107105605,0.21547824,-0.30870086,-0.5104909,-0.42793867,-0.14192718,806.6667,805.4579,803.44324,801.4286,846.9597,-0.38250732421875,-0.01177978515625,0.924560546875,4.26177978515625,-4.35150146484375,1.98883056640625,1,1.0,1.0,1.0,1.0,75.00
2021-04-14 09:58:33.583,0.36082944,0.07398756,-0.15734583,0.35592273,0.12196606,-0.33518803,-0.20545477,-0.26046747,0.5448179,0.24452835,0.1711122,0.2102279,0.15892327,-0.19757451,-0.025134662,0.13401817,-0.31250998,-0.5253801,-0.5799877,-0.17219774,869.5238,812.71063,804.2491,837.28937,982.74725,-0.3848876953125,-0.01153564453125,0.9261474609375,4.18701171875,-5.001983642578125,0.657958984375,1,1.0,1.0,1.0,1.0,75.00
2021-04-14 09:58:34.113,0.50933194,0.46008307,0.24868591,0.30550906,0.16211712,-0.30148748,-0.052302957,0.131586,0.6307068,0.26948637,0.26306498,0.44795325,0.19741653,-0.05099085,0.08830146,0.07813365,-0.3732671,-0.5660326,-0.5837551,-0.22958554,641.4652,765.9707,844.5421,641.8681,779.67035,-0.38372802734375,-0.0064697265625,0.93621826171875,4.643096923828125,-4.5458984375,1.7645263671875,1,1.0,1.0,1.0,1.0,75.00
2021-04-14 09:58:34.311,,,,,,,,,,,,,,,,,,,,,,,,,,,,,,,,,,,,,,/muse/elements/blink
2021-04-14 09:58:34.641,0.48761415,0.9033702,0.7716065,-0.09595123,0.22827567,0.5475023,0.42647848,0.2616507,0.6307068,0.467294,0.540432,0.42581043,0.23357081,0.038950134,0.08862423,0.024633804,-0.48573646,-0.6246631,-0.5353992,-0.33884558,775.64105,801.02563,799.011,790.54944,529.0476,-0.38494873046875,-0.00946044921875,0.92596435546875,4.4561767578125,-4.83001708984375,1.1663818359375,1,1.0,1.0,1.0,1.0,75.00
2021-04-14 09:58:35.153,0.61457586,1.0471929,0.94931436,-0.04001915,0.3058721,0.75578517,0.5749896,0.47565094,0.5907846,0.44451186,0.5198776,0.41019815,0.088202916,0.08276288,0.13345122,0.020097673,-0.62967753,-0.61469346,-0.49473867,-0.4191997,812.3077,805.05493,807.47253,803.0403,737.76556,-0.38214111328125,-0.01080322265625,0.92633056640625,4.538421630859375,-4.38140869140625,0.844879150390625,1,1.0,1.0,1.0,1.0,75.00
2021-04-14 09:58:35.679,0.61457586,0.9751648,0.8672788,-0.04001915,0.3058721,0.7534987,0.58066964,0.47565094,0.5907846,0.40373772,0.47397333,0.41019815,0.088202916,0.07017975,0.054359414,0.020097673,-0.62967753,-0.52692354,-0.50440735,-0.4191997,748.6447,795.38464,797.3993,774.43225,583.8461,-0.36505126953125,-0.14886474609375,0.9041748046875,-12.045135498046875,-1.188812255859375,-8.740386962890625,1,1.0,1.0,1.0,1.0,75.00
2021-04-14 09:58:36.221,0.49332687,0.55230397,0.10665038,0.23758946,0.15885787,0.35731784,0.06871464,0.24537455,0.37895525,0.38361552,-0.13274993,0.38955617,0.21772851,0.042834718,-0.0026074743,0.30754277,-0.36725602,-0.4725179,-0.47908673,-0.3142164,769.59705,799.81683,801.02563,776.8498,673.69965,-0.44415283203125,-0.08746337890625,0.8963623046875,8.934783935546875,-4.209442138671875,3.349609375,1,1.0,1.0,1.0,1.0,75.00
2021-04-14 09:58:36.771,0.6067234,0.007612656,0.16307731,0.43286255,0.20395052,-0.10076132,-0.038489066,0.31024736,0.3919366,0.3494441,-0.119681284,0.41190225,0.1320774,0.055996776,-0.029167986,0.29151654,-0.34030673,-0.45308873,-0.49616322,-0.30310297,744.61536,801.4286,803.0403,776.04395,523.8095,-0.43670654296875,-0.01361083984375,0.9019775390625,14.183502197265625,-1.0467529296875,5.09918212890625,1,1.0,1.0,1.0,1.0,75.00
2021-04-14 09:58:37.313,0.5712119,-0.019158104,0.09631008,0.48765323,0.16127604,-0.15710568,-0.14829877,0.33312732,0.3037087,0.35073397,-0.06202281,0.40781015,0.07620044,-0.023981,-0.08164799,0.2875273,-0.27489495,-0.34107313,-0.4963288,-0.25606346,762.3443,807.0696,805.4579,766.77655,834.0659,-0.431396484375,0.010009765625,0.9083251953125,2.25799560546875,-8.516082763671875,-1.263580322265625,1,1.0,1.0,1.0,1.0,75.00
2021-04-14 09:58:37.512,,,,,,,,,,,,,,,,,,,,,,,,,,,,,,,,,,,,,,/muse/elements/blink
2021-04-14 09:58:37.824,0.54919416,0.41638815,0.48127267,0.54267055,0.15536013,0.24657601,0.2655857,0.3386026,0.2939334,0.6166709,0.40867975,0.22483249,-0.03877906,-0.056547727,-0.04542648,0.25452656,-0.26453778,-0.31577718,-0.55127066,-0.24492404,867.1062,811.0989,799.011,856.63007,1046.8132,-0.42498779296875,-0.0089111328125,0.91400146484375,3.686065673828125,-2.70660400390625,-1.1962890625,1,1.0,1.0,1.0,1.0,75.00
2021-04-14 09:58:38.355,0.20572312,0.92893857,1.0067464,0.48425975,-0.01721177,0.64069885,0.73993844,0.2824777,0.0488114,0.5326612,0.5704568,0.078771695,-0.0140002165,-0.021904722,0.086553484,0.27088287,-0.19962858,-0.3448796,-0.54455096,-0.20259036,803.0403,800.2198,803.0403,790.54944,829.6337,-0.4259033203125,-0.0074462890625,0.9012451171875,5.2337646484375,0.40374755859375,-0.61309814453125,1,1.0,1.0,1.0,1.0,75.00
2021-04-14 09:58:38.862,0.20572312,0.95173484,1.0254675,0.48425975,-0.01721177,0.6509344,0.75106835,0.2824777,0.0488114,0.5301614,0.5720087,0.078771695,-0.0140002165,0.008105955,0.11295013,0.27088287,-0.19962858,-0.4223453,-0.5582446,-0.20259036,784.5055,808.68134,803.44324,790.54944,557.25275,-0.43719482421875,-0.01580810546875,0.90484619140625,4.149627685546875,-6.018829345703125,1.33087158203125,1,1.0,1.0,1.0,1.0,75.00
2021-04-14 09:58:39.380,0.27708495,0.7606426,0.80838645,0.31902444,-0.09269437,0.3668708,0.5311423,0.1186006,0.23839079,0.4080526,0.5225748,0.588161,-0.011399689,-0.013539226,0.060838375,0.20523448,-0.2860982,-0.50185907,-0.5806998,-0.22769792,838.49817,801.8315,803.44324,823.5897,867.9121,-0.41497802734375,-0.01727294921875,0.91058349609375,4.11224365234375,-5.62255859375,0.157012939453125,1,1.0,1.0,1.0,1.0,75.00
2021-04-14 09:58:39.887,0.1313145,0.17389181,0.0013017897,0.27604565,0.025964865,-0.046044372,0.016633974,0.19871351,0.26010853,0.03590502,0.1854987,0.588161,0.086322665,-0.12821598,-0.075758085,0.20335217,-0.3018285,-0.546351,-0.6324748,-0.23450963,758.315,798.20514,801.8315,776.8498,620.5128,-0.42620849609375,-0.02056884765625,0.9088134765625,3.656158447265625,-4.523468017578125,-0.186920166015625,1,1.0,1.0,1.0,1.0,75.00
2021-04-14 09:58:40.390,0.43294606,0.2063766,-0.1517767,0.37525627,0.042117458,0.02208986,-0.13145049,0.19229959,0.31002396,0.12559712,0.11366702,0.47208926,0.099504344,-0.20197159,-0.18773338,0.20923036,-0.35415292,-0.55020624,-0.6242588,-0.28059548,842.52747,805.4579,801.02563,819.5604,877.5824,-0.42041015625,-0.03021240234375,0.91534423828125,4.209442138671875,-4.418792724609375,0.4486083984375,1,1.0,1.0,1.0,1.0,75.00
2021-04-14 09:58:40.935,0.45288873,0.21662523,-0.17583552,0.353771,0.12664242,0.030181736,-0.30076876,0.15289074,0.381633,0.11014956,0.083315216,0.06656048,0.09816653,-0.17886178,-0.26672453,0.16877678,-0.25437677,-0.5638632,-0.65664697,-0.20286955,857.03296,799.41394,800.2198,827.619,892.49084,-0.41888427734375,-0.02764892578125,0.90960693359375,4.583282470703125,-4.9346923828125,0.897216796875,1,1.0,1.0,1.0,1.0,75.00
2021-04-14 09:58:41.457,0.59004104,0.26392063,-0.026158938,0.40893778,0.06733534,-0.12680984,-0.35188544,0.12943335,0.39800707,0.18202071,-0.0052111195,0.3207768,0.14516427,-0.10648524,-0.24550502,0.1800131,-0.23388532,-0.5386046,-0.66636795,-0.21214245,754.68866,810.293,799.41394,782.8938,540.32965,-0.40667724609375,-0.0303955078125,0.91485595703125,4.964599609375,-5.256195068359375,1.114044189453125,1,1.0,1.0,1.0,1.0,75.00
2021-04-14 09:58:41.976,0.43680444,0.21805069,-0.04137384,0.27529815,0.07720174,-0.1514465,-0.12460216,0.18920608,0.38127032,0.17167662,0.05176418,0.38232306,0.10845812,-0.11094236,-0.14890273,0.20113406,-0.29888886,-0.6111708,-0.69078946,-0.28541443,828.8278,801.8315,802.23444,807.8755,949.304,-0.399658203125,-0.03155517578125,0.91778564453125,4.613189697265625,-5.09918212890625,1.30096435546875,1,1.0,1.0,1.0,1.0,75.00
2021-04-14 09:58:42.518,0.45589003,0.19182397,-0.080388404,0.23956326,0.11448214,-0.09440282,-0.08699155,0.21931298,0.39855856,0.17266402,0.14063594,0.3875852,0.07201266,-0.15412973,-0.14369117,0.19973883,-0.3601695,-0.6454539,-0.6741722,-0.33710822,767.98535,801.4286,794.17584,786.1172,527.4359,-0.39471435546875,-0.03466796875,0.92279052734375,4.47113037109375,-3.54400634765625,1.727142333984375,1,1.0,1.0,1.0,1.0,75.00
2021-04-14 09:58:42.852,,,,,,,,,,,,,,,,,,,,,,,,,,,,,,,,,,,,,,/muse/elements/blink
2021-04-14 09:58:43.039,0.32118845,0.30861837,0.25003096,0.013909817,0.18935959,-0.0033146138,0.09441768,0.20953259,0.3667961,0.086022995,0.33860952,0.31341702,-0.12789924,-0.19661339,-0.044857785,0.16380532,-0.43103963,-0.7486639,-0.67627645,-0.37305725,828.4249,811.50183,794.57874,813.5165,688.20514,-0.40155029296875,-0.0445556640625,0.916748046875,4.9945068359375,-4.20196533203125,0.949554443359375,1,1.0,1.0,1.0,1.0,75.00
2021-04-14 09:58:43.560,0.32430857,0.6688495,0.7364191,-0.41352603,0.2742366,0.37545034,0.3621939,0.11784562,0.30636454,0.44190404,0.37340835,0.014627094,-0.15081796,-0.06468575,0.004968738,0.051074512,-0.36825687,-0.7675781,-0.689261,-0.35298556,796.5934,809.89014,806.6667,801.02563,792.5641,-0.3994140625,-0.0423583984375,0.91705322265625,4.78515625,-4.6954345703125,1.1065673828125,1,1.0,1.0,1.0,1.0,75.00
2021-04-14 09:58:44.082,0.28486505,0.7933548,0.8287163,-0.44647628,0.24777408,0.4626828,0.41829646,0.13086872,0.2767615,0.5611719,0.36783585,-0.008697866,-0.1288199,0.06466796,0.07001097,0.051267974,-0.3458371,-0.7352021,-0.6828792,-0.31780103,743.4066,797.8022,807.0696,772.8205,581.8315,-0.3995361328125,-0.032470703125,0.92596435546875,4.583282470703125,-4.852447509765625,1.68975830078125,1,1.0,1.0,1.0,1.0,75.00
2021-04-14 09:58:44.626,0.12167077,0.70904434,0.7468075,-5.53551E-4,0.32422182,0.41564846,0.33874813,0.0529514,0.65105706,0.562999,0.34905562,0.680073,0.28540722,0.07933001,-0.022722235,0.2622701,-0.4318479,-0.5661114,-0.56735134,-0.19087681,834.4689,812.3077,803.44324,818.7546,836.8865,-0.39739990234375,-0.03570556640625,0.92218017578125,5.15899658203125,-4.209442138671875,0.91217041015625,1,1.0,1.0,1.0,1.0,75.00
2021-04-14 09:58:45.132,0.7698314,0.37661982,0.35875037,0.45801115,0.40298128,0.08757919,0.06901155,0.059931368,0.7135214,0.5073324,0.16053501,0.7045061,0.2196173,0.08242829,-0.12388872,0.2221173,-0.3131969,-0.5325241,-0.50309783,-0.17810386,763.95605,801.02563,803.44324,784.5055,709.15753,-0.39666748046875,-0.03131103515625,0.91607666015625,4.239349365234375,-4.94964599609375,0.471038818359375,1,1.0,1.0,1.0,1.0,75.00
2021-04-14 09:58:45.643,0.72292495,0.08423317,0.27438733,0.42298767,0.3332197,-0.033136252,-0.04194196,0.026542155,0.73281175,0.060045682,0.1265648,0.70448077,0.23564301,0.009599389,-0.19001314,0.18539186,-0.27765232,-0.47643054,-0.49301752,-0.19231786,819.9634,805.05493,810.696,813.91943,664.0293,-0.3995361328125,-0.0341796875,0.91522216796875,4.284210205078125,-4.5458984375,0.441131591796875,1,1.0,1.0,1.0,1.0,75.00
2021-04-14 09:58:46.146,,,,,,,,,,,,,,,,,,,,,,,,,,,,,,,,,,,,,,/muse/elements/blink
2021-04-14 09:58:46.151,0.79130036,0.15717696,0.24911797,0.472929,0.22138843,0.028066183,0.011116127,-0.070682295,0.44384974,0.06528335,0.14326383,0.50301504,0.21265513,0.03837402,-0.14824282,0.10183592,-0.25426865,-0.47770742,-0.5740993,-0.2581007,932.7839,812.71063,799.011,901.75824,880.80585,-0.40081787109375,-0.03057861328125,0.9141845703125,4.134674072265625,-5.465545654296875,1.256103515625,1,1.0,1.0,1.0,1.0,75.00
2021-04-14 09:58:46.678,0.4863327,0.83464974,0.90394604,0.17696388,-0.013948484,0.64775884,0.68493915,-0.15159391,0.340651,0.67322135,0.52660495,0.32198238,0.24129009,-0.006882263,-0.07283642,0.05729146,-0.28690147,-0.47603706,-0.6455503,-0.34023687,766.3736,803.44324,792.96704,785.7143,682.5641,-0.3800048828125,-0.021484375,0.91851806640625,6.6693115234375,-2.011260986328125,4.8748779296875,1,1.0,1.0,1.0,1.0,75.00
2021-04-14 09:58:47.190,0.33888102,0.94658256,1.0358951,-0.08281772,0.09079076,0.72748655,0.8056039,-0.29239407,0.04638302,0.68045646,0.5322141,0.08590704,0.2548167,0.10316181,-0.060672145,-0.030067172,-0.3616269,-0.53707695,-0.69764644,-0.3130437,826.4103,797.8022,801.8315,828.022,948.49817,-0.4556884765625,0.03704833984375,0.890625,11.185302734375,-0.650482177734375,5.136566162109375,1,1.0,1.0,1.0,1.0,75.00
2021-04-14 09:58:47.727,0.33888102,0.9674716,1.0362364,-0.08281772,0.09079076,0.7252636,0.79028755,-0.29239407,0.04638302,0.7000225,0.53315336,0.08590704,0.2548167,0.0908515,-0.053325832,-0.030067172,-0.3616269,-0.5793958,-0.73599845,-0.3130437,871.13556,801.02563,805.05493,841.31866,999.67035,-0.47100830078125,0.05859375,0.89532470703125,4.882354736328125,-2.699127197265625,-1.667327880859375,1,1.0,1.0,1.0,1.0,75.00
2021-04-14 09:58:48.242,0.4383309,0.4120058,-0.01056807,0.5452585,0.15965106,0.048337627,-0.11893987,0.25604516,0.44989344,0.3556343,-0.058536936,0.23601641,0.023966188,0.024780625,-0.09081443,0.30159497,-0.45100194,-0.5963426,-0.65012854,-0.16312242,817.9487,803.8461,797.3993,812.71063,620.9158,-0.443603515625,0.0777587890625,0.90765380859375,4.29168701171875,-5.60760498046875,1.734619140625,1,1.0,1.0,1.0,1.0,75.00
2021-04-14 09:58:48.555,,,,,,,,,,,,,,,,,,,,,,,,,,,,,,,,,,,,,,/muse/elements/blink
2021-04-14 09:58:48.779,0.4383309,0.52164793,0.31689817,0.5452585,0.15965106,0.22702675,0.12234768,0.25604516,0.44989344,0.41859928,0.06987997,0.23601641,0.023966188,-0.06180516,-0.06279243,0.30159497,-0.45100194,-0.57913977,-0.6538935,-0.16312242,880.40295,807.8755,800.2198,841.31866,994.83514,-0.41143798828125,0.013671875,0.90924072265625,1.45050048828125,-5.203857421875,-1.099090576171875,1,1.0,1.0,1.0,1.0,75.00
2021-04-14 09:58:49.331,0.52942437,0.55992085,0.47606847,0.668771,0.25913808,0.37810466,0.29316384,0.21603665,0.29097575,0.41698718,-0.1336337,0.19566979,0.066850945,-0.11122518,-0.03741463,0.39865363,-0.36972415,-0.602454,-0.59399575,-0.28105736,868.315,811.9048,802.6374,829.6337,946.08057,-0.41278076171875,0.0142822265625,0.90997314453125,3.686065673828125,-5.121612548828125,-0.04486083984375,1,1.0,1.0,1.0,1.0,75.00
2021-04-14 09:58:49.861,0.52942437,0.4805804,0.4728408,0.668771,0.25913808,0.32803112,0.16675527,0.21603665,0.29097575,0.32316807,-0.0253444,0.19566979,0.066850945,-0.07851011,-0.04796021,0.39865363,-0.36972415,-0.4124645,-0.50388086,-0.28105736,801.02563,813.1135,801.02563,794.57874,810.293,-0.41070556640625,0.01025390625,0.91455078125,4.83001708984375,-4.44122314453125,1.039276123046875,1,1.0,1.0,1.0,1.0,75.00
2021-04-14 09:58:50.372,-0.35501778,-0.2669955,-0.22821553,-0.13832217,0.022357853,-0.07337303,-0.32476223,0.06777671,0.14546087,-0.13489841,-0.16418125,0.22669794,0.032557487,-0.0061716917,0.021388903,0.1924952,-0.36886495,-0.4199946,-0.4965151,-0.11122266,778.46155,809.89014,804.65204,797.3993,628.1685,-0.42236328125,0.0107421875,0.90692138671875,6.4898681640625,-4.127197265625,0.11962890625,1,1.0,1.0,1.0,1.0,75.00
2021-04-14 09:58:50.880,-0.15642792,-0.09277754,-0.04528493,0.1067508,0.012308117,-0.04749551,-0.30374423,-0.08918907,0.203575,-0.08404994,0.09663717,0.2989168,0.11364954,-0.057550106,0.007507893,0.14220303,-0.42535523,-0.45980847,-0.5706443,-0.14894834,835.2747,802.6374,804.65204,825.2015,779.2674,-0.412109375,0.04400634765625,0.91558837890625,10.587158203125,-5.62255859375,-13.196563720703125,1,1.0,1.0,1.0,1.0,75.00
2021-04-14 09:58:51.073,,,,,,,,,,,,,,,,,,,,,,,,,,,,,,,,,,,,,,/muse/elements/blink
2021-04-14 09:58:51.404,0.532187,0.19297667,0.15233417,0.1067508,0.6622385,0.04240913,-0.08067103,-0.08918907,1.1517675,0.21818632,0.17733288,0.2989168,0.26618087,-0.059793685,-0.04282059,0.14220303,-0.38263443,-0.48947015,-0.569537,-0.14894834,792.5641,805.4579,807.8755,794.17584,828.022,-0.41729736328125,0.02490234375,0.90771484375,3.820648193359375,-4.089813232421875,1.084136962890625,1,1.0,1.0,1.0,1.0,80.00
2021-04-14 09:58:51.913,0.8152915,0.24258895,0.21941671,0.8124953,0.94324124,0.0052694357,-0.03498478,0.9907452,1.1517675,0.19505078,0.19763616,1.2739755,0.41132787,-0.15936464,-0.11846479,0.37003064,-0.35050336,-0.54068893,-0.5439022,-0.1937537,794.17584,802.23444,797.8022,797.3993,615.6777,-0.414794921875,0.03399658203125,0.91168212890625,4.239349365234375,-6.0113525390625,1.68975830078125,1,1.0,1.0,1.0,1.0,80.00
2021-04-14 09:58:52.466,0.7816328,0.10617059,0.07048974,0.8653681,0.9174616,-0.109677024,-0.092203625,1.0682638,1.1517675,0.20493086,0.14351936,1.2739755,0.34735346,-0.28935188,-0.15793349,0.36291993,-0.3585428,-0.60573244,-0.56882805,-0.24802087,810.293,800.2198,806.26373,813.91943,882.4176,-0.41351318359375,0.02557373046875,0.91943359375,4.254302978515625,-5.121612548828125,1.742095947265625,1,1.0,1.0,1.0,1.0,80.00
2021-04-14 09:58:52.968,0.6179106,0.2256613,0.21813089,0.81250745,0.6494194,-0.1086672,0.077216245,0.89063567,1.0788631,0.20962185,0.21489282,1.2739755,0.2148306,-0.2731626,-0.1632599,0.24074535,-0.36417773,-0.6087483,-0.6334427,-0.30755192,656.77655,808.2784,815.12823,668.46155,585.8608,-0.40228271484375,0.03594970703125,0.9111328125,2.325286865234375,-3.058013916015625,9.368438720703125,1,1.0,1.0,1.0,1.0,80.00
2021-04-14 09:58:53.202,,,,,,,,,,,,,,,,,,,,,,,,,,,,,,,,,,,,,,/muse/elements/blink
2021-04-14 09:58:53.486,0.43753457,0.5427196,0.5531145,0.5537819,0.21583195,0.030934291,0.43409437,0.15811136,0.6827731,0.2903468,0.26400545,0.43921593,0.0925251,-0.04398501,-0.10241884,-0.05290723,-0.4055562,-0.55896544,-0.532497,-0.3382952,831.2454,807.47253,809.89014,828.4249,669.67035,-0.43499755859375,0.039794921875,0.92041015625,3.760833740234375,-5.33843994140625,1.801910400390625,1,1.0,1.0,1.0,1.0,80.00
2021-04-14 09:58:54.028,0.6270964,0.5972371,0.6988037,0.6802869,0.28702512,0.086339705,0.5018408,0.20176364,0.6827731,0.2903468,0.26400545,0.43118244,0.15503557,0.03688195,-0.10291957,-0.057803907,-0.3295586,-0.47336385,-0.42520383,-0.39338407,784.10254,801.4286,801.02563,788.1319,819.5604,-0.4180908203125,0.03350830078125,0.90545654296875,3.648681640625,-4.837493896484375,-2.79632568359375,1,1.0,1.0,1.0,1.0,80.00
2021-04-14 09:58:54.534,0.6825854,0.40078723,0.5917342,0.7187616,0.3255137,-0.02859687,0.32730308,0.27449355,0.6745831,0.21955456,0.15568489,0.42607653,0.15786944,-0.014506059,-0.0715238,-0.04940061,-0.31585175,-0.42127272,-0.40097225,-0.41566437,740.18317,801.8315,802.23444,772.01465,606.0073,-0.43231201171875,0.01641845703125,0.9000244140625,3.491668701171875,-4.56085205078125,4.598236083984375,1,1.0,1.0,1.0,1.0,80.00
2021-04-14 09:58:54.810,,,,,,,,,,,,,,,,,,,,,,,,,,,,,,,,,,,,,,/muse/elements/blink
2021-04-14 09:58:55.068,0.6825854,0.66497034,0.47692677,0.7187616,0.3255137,0.22225028,-0.061501365,0.27449355,0.6745831,0.3252259,-0.04845673,0.42607653,0.15786944,-0.12879887,-0.054057043,-0.04940061,-0.31585175,-0.47205952,-0.4836013,-0.41566437,749.85345,797.3993,809.89014,743.4066,849.3773,-0.43585205078125,0.03253173828125,0.89935302734375,4.314117431640625,-4.6356201171875,0.007476806640625,1,1.0,1.0,1.0,1.0,80.00
2021-04-14 09:58:55.341,,,,,,,,,,,,,,,,,,,,,,,,,,,,,,,,,,,,,,/muse/elements/blink
2021-04-14 09:58:55.615,0.6825854,1.0584296,0.26046497,0.7187616,0.3255137,0.54162526,-0.36372516,0.27449355,0.6745831,0.3995451,-0.12276994,0.42607653,0.15786944,-0.12702954,-0.020680945,-0.04940061,-0.31585175,-0.54232526,-0.61623883,-0.41566437,784.10254,824.7985,796.1905,790.14655,712.7839,-0.4317626953125,0.03082275390625,0.89990234375,0.40374755859375,-3.96270751953125,7.110443115234375,1,2.0,1.0,1.0,2.0,80.00
2021-04-14 09:58:56.121,0.6825854,1.3447647,0.39295086,0.7187616,0.3255137,0.8031783,-0.19066682,0.27449355,0.6745831,0.3995451,-0.15719387,0.42607653,0.15786944,9.988017E-4,-0.008676988,-0.04940061,-0.31585175,-0.56883216,-0.6381645,-0.41566437,856.2271,808.2784,804.65204,833.663,852.6007,-0.42535400390625,0.028076171875,0.90509033203125,7.110443115234375,-6.123504638671875,-3.013153076171875,1,2.0,1.0,1.0,2.0,80.00
2021-04-14 09:58:56.653,0.6825854,0.685756,0.39295086,0.7187616,0.3255137,-0.024644727,-0.19066682,0.27449355,0.6745831,-0.04336229,-0.15719387,0.42607653,0.15786944,-0.039173715,-0.008676988,-0.04940061,-0.31585175,-0.45833173,-0.6381645,-0.41566437,863.47986,800.2198,796.99634,829.6337,897.72894,-0.41473388671875,0.0284423828125,0.9130859375,4.59075927734375,-5.14404296875,0.755157470703125,1,2.0,1.0,1.0,2.0,80.00
2021-04-14 09:58:57.162,0.66158146,0.72841585,0.45457667,0.42084083,0.05802873,-0.003309935,0.18815626,0.19274366,0.500598,-0.035267003,0.4955683,0.45228952,0.11101367,-0.1718015,-0.020743052,-0.013627468,-0.4933888,-0.53676003,-0.35732114,-0.29078177,733.73627,794.9817,803.0403,744.61536,696.26373,-0.41119384765625,0.02789306640625,0.911376953125,4.0673828125,-2.97576904296875,1.323394775390625,1,1.0,1.0,1.0,1.0,80.00
2021-04-14 09:58:57.284,,,,,,,,,,,,,,,,,,,,,,,,,,,,,,,,,,,,,,/muse/elements/blink
2021-04-14 09:58:57.673,0.66158146,0.6833554,0.37018687,0.42084083,0.05802873,0.1323058,0.10388621,0.19274366,0.500598,0.19623461,0.5101528,0.45228952,0.11101367,-0.1791795,-0.027722647,-0.013627468,-0.4933888,-0.5374572,-0.3628454,-0.29078177,719.6337,799.011,800.6227,765.9707,553.6264,-0.42291259765625,0.0218505859375,0.90789794921875,4.44122314453125,-3.401947021484375,2.444915771484375,1,1.0,1.0,1.0,1.0,80.00
2021-04-14 09:58:58.178,0.66158146,0.63655967,0.2612311,0.42084083,0.05802873,0.22973397,-0.01818486,0.19274366,0.500598,0.22152936,0.38620415,0.45228952,0.11101367,-0.21288474,0.02750007,-0.013627468,-0.4933888,-0.5694693,-0.4006164,-0.29078177,775.2381,804.2491,807.0696,787.326,615.2747,-0.4169921875,0.0201416015625,0.912109375,4.94964599609375,-3.94775390625,0.545806884765625,1,1.0,1.0,1.0,1.0,80.00
2021-04-14 09:58:58.681,0.46368018,0.44165397,0.13532567,0.047425915,-0.08065547,0.22796574,0.07770376,0.21722902,0.32594687,0.21027803,0.23213321,0.42762375,0.08870884,-0.16484313,0.053865194,0.19826591,-0.5353902,-0.51050246,-0.32763377,-0.09693745,852.6007,805.4579,806.6667,826.0073,925.5311,-0.4248046875,0.01959228515625,0.91082763671875,4.844970703125,-4.029998779296875,1.457977294921875,1,1.0,1.0,1.0,1.0,80.00
2021-04-14 09:58:59.208,0.31073043,0.24170814,0.09733618,0.291607,-0.07135607,0.09242162,0.07669684,0.2128189,0.42881733,0.24514505,0.1940423,0.47072437,-0.05129524,-0.117843054,0.05721955,0.12657283,-0.28721175,-0.41306442,-0.2724065,-0.049086325,863.47986,799.011,797.8022,826.4103,946.08057,-0.41912841796875,0.02099609375,0.910400390625,4.089813232421875,-5.203857421875,0.351409912109375,1,1.0,1.0,1.0,1.0,80.00
2021-04-14 09:58:59.735,0.4147285,-0.116965294,0.116549805,0.43810338,0.044796277,-0.11119326,0.04431565,0.2862037,0.51184374,0.15135813,0.19649154,0.4946526,0.11473347,-0.008848216,-0.02158513,0.23976514,-0.28384745,-0.41263118,-0.24902335,-0.08266328,825.2015,800.2198,792.5641,856.63007,714.7985,-0.42047119140625,0.02191162109375,0.91656494140625,4.433746337890625,-4.568328857421875,1.5252685546875,1,1.0,1.0,1.0,1.0,80.00
2021-04-14 09:58:59.755,,,,,,,,,,,,,,,,,,,,,,,,,,,,,,,,,,,,,,/muse/elements/blink
2021-04-14 09:59:00.189,,,,,,,,,,,,,,,,,,,,,,,,,,,,,,,,,,,,,,/muse/elements/blink
2021-04-14 09:59:00.261,0.4651397,0.57935536,0.8421505,0.5509186,0.09949154,0.44648772,0.6296612,0.31697544,0.44071278,0.40729707,0.59394115,0.33556914,0.14091815,0.029655034,-0.008220831,0.25911662,-0.25421405,-0.39475557,-0.26626444,-0.07569837,737.3626,803.44324,810.293,770.40295,507.28937,-0.4107666015625,0.02069091796875,0.91082763671875,4.42626953125,-5.682373046875,-0.186920166015625,1,1.0,1.0,1.0,1.0,80.00
2021-04-14 09:59:00.796,0.5885554,0.7246741,0.94304055,0.68335134,0.22034721,0.5274372,0.7100668,0.45137218,0.31638917,0.3732372,0.61447465,0.29829293,0.32363495,0.011118941,-0.012670986,0.41816023,-0.26152366,-0.4810782,-0.2714688,-0.18927352,765.16486,808.68134,802.23444,779.67035,583.0403,-0.415283203125,0.01910400390625,0.91033935546875,5.33843994140625,-4.605712890625,-0.710296630859375,1,1.0,1.0,1.0,1.0,80.00
2021-04-14 09:59:01.339,0.5885554,0.9061433,0.9853926,0.68335134,0.22034721,0.61094546,0.7446384,0.45137218,0.31638917,0.52209175,0.61555076,0.29829293,0.32363495,0.022354892,0.015453017,0.41816023,-0.26152366,-0.47632933,-0.3071639,-0.18927352,734.94507,807.8755,810.696,763.5531,559.2674,-0.399169921875,0.0303955078125,0.919189453125,5.480499267578125,-5.809478759765625,0.10467529296875,1,1.0,1.0,1.0,1.0,80.00
2021-04-14 09:59:01.862,0.88754636,0.74852103,0.5732931,0.35907638,0.2829812,0.3315868,0.20165375,-0.13273232,0.6152304,0.49617964,0.31592083,0.2829178,0.12441487,0.01024183,-0.0029664082,0.28966302,-0.3387266,-0.4807159,-0.31894612,-0.3782091,749.0476,805.8608,809.4872,775.2381,645.09155,-0.39959716796875,0.01544189453125,0.9168701171875,4.47113037109375,-3.349609375,0.740203857421875,1,1.0,1.0,1.0,1.0,80.00
2021-04-14 09:59:02.341,,,,,,,,,,,,,,,,,,,,,,,,,,,,,,,,,,,,,,/muse/elements/blink
2021-04-14 09:59:02.384,0.71810114,0.6952409,0.4600924,0.31461522,0.27864265,0.26270103,0.11444646,-0.07200779,0.64109206,0.49885434,0.24647278,0.2829178,0.11464616,-0.07791596,0.025912788,0.27941456,-0.33199006,-0.5251081,-0.30289036,-0.3567321,778.86444,805.4579,792.96704,784.10254,606.0073,-0.41278076171875,0.01702880859375,0.91217041015625,4.344024658203125,-4.29168701171875,0.306549072265625,1,1.0,1.0,1.0,1.0,80.00
2021-04-14 09:59:02.926,0.5339539,0.2005974,0.06956366,0.5343292,0.633162,-0.1419865,-0.09449124,0.58552706,0.7019291,0.39988562,0.2676855,0.832946,0.26434973,-0.24666548,-0.02528535,0.4117734,-0.26356396,-0.5602003,-0.29905424,-0.16084091,840.5128,807.47253,803.0403,811.9048,903.36993,-0.4156494140625,0.01287841796875,0.9111328125,3.648681640625,-3.51409912109375,2.6617431640625,1,1.0,1.0,1.0,1.0,80.00
2021-04-14 09:59:03.469,0.60119534,0.072317876,-0.021037,0.6616387,0.6864848,-0.32704008,-0.141679,0.73156404,0.68313766,0.06918055,0.1981722,0.832946,0.27529737,-0.12827787,-0.070604466,0.46907353,-0.2605042,-0.4398989,-0.3048374,-0.17518355,871.9414,807.0696,802.6374,835.6777,940.4396,-0.4066162109375,0.00933837890625,0.91448974609375,6.2506103515625,-4.508514404296875,-2.40753173828125,1,1.0,1.0,1.0,1.0,80.00
2021-04-14 09:59:03.981,0.87357813,0.3357805,0.28796834,0.6479792,0.73858446,-0.1676518,-0.08105101,0.52980506,0.70512813,0.07706142,0.18087779,0.832946,0.29195622,0.010402563,-0.119317666,0.40791336,-0.23803283,-0.34542277,-0.36429888,-0.1245941,800.2198,803.0403,796.99634,793.36993,651.13556,-0.404052734375,0.01849365234375,0.91510009765625,4.209442138671875,-4.388885498046875,1.099090576171875,1,1.0,1.0,1.0,1.0,80.00
2021-04-14 09:59:04.507,0.8303113,0.33302546,0.25000387,0.36496237,0.5089995,-0.1597163,-0.15458016,-0.06513797,0.6249939,-0.019738251,-0.023074992,0.4269555,0.1980067,-0.027720459,-0.15196474,0.34606683,-0.31418353,-0.33354968,-0.40606496,-0.20476638,853.00366,803.44324,800.2198,824.7985,862.674,-0.4075927734375,0.0263671875,0.9241943359375,4.8748779296875,-4.403839111328125,1.487884521484375,1,1.0,1.0,1.0,1.0,80.00
2021-04-14 09:59:05.048,0.9153791,0.2813795,0.20199245,0.5357286,0.6729051,-0.061609168,-0.23955946,0.16314706,0.9417134,-0.08808493,-0.014235392,0.9218805,0.4040162,-0.025141085,-0.16172671,0.47708553,-0.30943823,-0.40772712,-0.4397833,-0.18777195,769.19415,804.65204,803.0403,791.75824,719.6337,-0.40252685546875,0.01837158203125,0.91754150390625,4.2169189453125,-4.78515625,1.016845703125,1,1.0,1.0,1.0,1.0,80.00
2021-04-14 09:59:05.586,0.62848586,0.26055,0.07331472,0.41520646,0.5503031,-0.13401774,-0.11950717,0.25595987,0.9417134,-0.13056706,0.071058154,0.9216734,0.37721494,-0.009469867,-0.11654884,0.4520365,-0.31968507,-0.4099568,-0.4212053,-0.2538917,821.978,805.8608,806.26373,816.7399,688.60803,-0.40301513671875,0.01788330078125,0.9183349609375,4.3963623046875,-4.388885498046875,0.85235595703125,1,1.0,1.0,1.0,1.0,80.00
2021-04-14 09:59:06.104,0.766731,0.4028503,0.22447596,0.49798346,0.58146536,-0.02084414,-0.15003064,0.33952856,0.9417134,0.07112603,0.092282034,0.9172926,0.33930677,0.04591876,-0.051544297,0.4068133,-0.23854503,-0.39683744,-0.49062547,-0.179057,736.9597,799.81683,806.26373,772.4176,619.304,-0.4073486328125,0.0194091796875,0.91351318359375,4.284210205078125,-3.887939453125,0.904693603515625,1,1.0,1.0,1.0,1.0,80.00
2021-04-14 09:59:06.659,0.6437931,0.33776587,0.23018831,0.28165406,0.2577538,-0.04093187,-0.16180179,0.22854027,0.4150113,0.16767141,0.08942375,0.54878527,0.004334976,-0.096200116,-0.042480286,0.1935831,-0.25626883,-0.43712145,-0.52894205,-0.15945439,913.44324,811.0989,785.7143,917.47253,586.26373,-0.40252685546875,0.01904296875,0.9215087890625,4.844970703125,-3.955230712890625,0.934600830078125,1,1.0,1.0,1.0,1.0,80.00
2021-04-14 09:59:06.835,,,,,,,,,,,,,,,,,,,,,,,,,,,,,,,,,,,,,,/muse/elements/blink
2021-04-14 09:59:07.195,0.7156674,0.63805896,0.812702,0.41795003,0.30571887,0.5160171,0.5178739,0.28739747,0.38422477,0.5921534,0.64335084,0.479366,0.05452891,-0.06927322,-0.045599613,0.25962502,-0.31997293,-0.42397836,-0.35458127,-0.14556581,746.63007,808.2784,807.8755,787.72894,565.31134,-0.40185546875,0.0208740234375,0.91680908203125,4.463653564453125,-4.5458984375,0.321502685546875,1,1.0,1.0,1.0,1.0,80.00
2021-04-14 09:59:07.738,0.25205424,0.66079456,0.89304805,0.25167882,0.04776627,0.53108156,0.5698285,0.23630743,-0.11335579,0.5859119,0.6708536,0.4559908,-0.093676075,-0.06644071,-0.084266715,0.16415416,-0.519677,-0.46577525,-0.2802609,-0.20093772,773.6264,812.3077,807.0696,788.93774,790.9524,-0.40240478515625,0.02105712890625,0.9146728515625,4.6954345703125,-4.972076416015625,0.859832763671875,1,1.0,1.0,1.0,1.0,80.00
2021-04-14 09:59:08.272,0.25205424,0.6685852,0.8910694,0.25167882,0.04776627,0.52415043,0.56572026,0.23630743,-0.11335579,0.58575815,0.6708536,0.4559908,-0.093676075,-0.051542826,-0.062252317,0.16415416,-0.519677,-0.4322148,-0.29859185,-0.20093772,733.3333,807.47253,805.05493,780.07324,702.3077,-0.3980712890625,0.03106689453125,0.917724609375,4.17205810546875,-4.94964599609375,0.7476806640625,1,1.0,1.0,1.0,1.0,80.00
2021-04-14 09:59:08.781,0.25651604,0.22005981,0.33886504,0.28559068,0.14804515,-0.032642007,-0.07990411,0.38290623,0.7123657,0.19524749,0.3707899,0.5882428,0.3547831,-0.09892926,-0.019318715,0.19473894,-0.48287356,-0.47631234,-0.31644127,-0.37316406,809.0842,807.8755,803.44324,807.0696,860.2564,-0.40203857421875,0.0225830078125,0.9163818359375,3.93280029296875,-4.725341796875,0.6878662109375,1,1.0,1.0,1.0,1.0,80.00
2021-04-14 09:59:09.310,0.32140374,-0.012809111,-0.13134792,0.2807801,0.17812328,-0.085031055,-0.18045639,0.44667327,0.8376353,0.2781577,0.29356384,0.59597576,0.30588633,-0.08592629,0.027377678,0.20935905,-0.3916901,-0.53748906,-0.34310004,-0.42579398,867.1062,806.6667,803.44324,838.49817,906.99634,-0.40057373046875,0.023193359375,0.91375732421875,4.628143310546875,-4.493560791015625,-0.022430419921875,1,1.0,1.0,1.0,1.0,80.00
2021-04-14 09:59:09.862,0.43559477,0.03438819,-0.136201,0.40124345,0.40916094,0.04176207,-0.07811645,0.59935915,0.9816411,0.28128052,0.30247048,1.0137835,0.260574,-0.07150682,0.025976043,0.3102769,-0.29959375,-0.63354427,-0.37071946,-0.4002964,835.6777,792.5641,819.15753,829.2308,969.85345,-0.39630126953125,0.0218505859375,0.920166015625,4.97955322265625,-6.033782958984375,1.60003662109375,1,1.0,1.0,1.0,1.0,80.00
2021-04-14 09:59:10.210,,,,,,,,,,,,,,,,,,,,,,,,,,,,,,,,,,,,,,/muse/elements/blink
2021-04-14 09:59:10.367,0.6068585,0.5769428,0.58139926,0.51752406,0.63039345,0.3331727,0.032242347,0.7658858,1.057455,0.7324573,0.37165013,1.074038,0.30416566,-0.088749506,-0.023960508,0.39079982,-0.2685495,-0.6725716,-0.48527357,-0.39251277,869.12085,807.47253,796.1905,829.6337,906.5934,-0.39764404296875,0.01800537109375,0.9169921875,4.089813232421875,-5.0543212890625,1.607513427734375,1,1.0,1.0,1.0,1.0,80.00
2021-04-14 09:59:10.900,0.7287185,0.94512814,1.1101388,0.6657647,0.8227314,0.49850133,0.39934027,0.90547186,1.057455,0.79689306,0.4050654,1.074038,0.36406437,-0.10969869,-0.06996049,0.4674188,-0.2686792,-0.57279915,-0.345751,-0.28667733,806.26373,803.0403,799.81683,800.2198,834.0659,-0.400146484375,0.02484130859375,0.91845703125,4.613189697265625,-5.0244140625,2.6617431640625,1,1.0,1.0,1.0,1.0,80.00
2021-04-14 09:59:11.410,0.76897967,0.9257189,1.1177498,0.77207524,0.8867887,0.45612708,0.3766676,1.0436927,1.057455,0.78617036,0.350969,1.074038,0.41239792,-0.06605459,-0.077758744,0.48901328,-0.28418553,-0.52642095,-0.3088884,-0.22918496,726.4835,802.6374,795.78754,764.7619,516.1539,-0.40325927734375,0.03704833984375,0.92059326171875,4.17205810546875,-3.46923828125,3.895416259765625,1,1.0,1.0,1.0,1.0,80.00
2021-04-14 09:59:11.913,0.46133807,0.75460047,0.9967217,0.14487791,0.3148111,0.24110834,0.2877948,0.3398255,-0.0065183803,0.7890747,0.36194164,0.31304654,0.029897332,-0.1322461,-0.067787685,0.062109265,-0.33391717,-0.48556355,-0.29528865,-0.252599,761.53845,803.44324,802.23444,785.31134,636.2271,-0.4049072265625,0.02618408203125,0.90679931640625,4.78515625,-4.66552734375,-0.73272705078125,1,1.0,1.0,1.0,1.0,80.00
2021-04-14 09:59:12.425,0.34440622,-0.39430925,-0.29810134,0.04238979,0.3105584,-0.56521016,-0.5244966,0.16835907,0.16015482,-0.1131577,-0.02717734,0.341933,0.09016139,-0.16101606,-0.01453382,0.15903014,-0.34818724,-0.56444484,-0.428469,-0.2672596,809.89014,802.23444,799.011,804.2491,877.5824,-0.40423583984375,0.02349853515625,0.9149169921875,4.179534912109375,-4.508514404296875,-0.366363525390625,1,1.0,1.0,1.0,1.0,80.00
2021-04-14 09:59:12.957,0.22386177,-0.50476223,-0.6157945,-0.061791435,0.22988017,-0.57368314,-0.47564876,0.17572029,0.17226665,-0.029471667,0.04623118,0.43696755,0.15416844,-0.08853709,-0.037257474,0.14096558,-0.39295557,-0.53562033,-0.4471541,-0.2695683,851.39197,805.4579,809.0842,832.8571,873.95605,-0.40625,0.02069091796875,0.9234619140625,4.029998779296875,-5.106658935546875,0.5084228515625,1,1.0,1.0,1.0,1.0,80.00
2021-04-14 09:59:13.500,0.12595923,-0.62463653,-0.35952786,-0.1844778,0.119011015,-0.59661394,-0.27288932,0.05461336,0.28890568,0.0042051887,0.006481098,0.40602273,0.20828816,-0.010172474,-0.096082464,0.12587307,-0.35728884,-0.50102836,-0.36987436,-0.30919182,780.87915,803.8461,792.5641,792.1612,622.9304,-0.40264892578125,0.0206298828125,0.91363525390625,4.598236083984375,-4.71038818359375,0.58319091796875,1,1.0,1.0,1.0,1.0,80.00
2021-04-14 09:59:14.022,0.11930288,-0.5631648,-0.3190814,-0.23301865,0.120123416,-0.41892722,-0.26908422,0.02306731,0.37630135,0.017347097,0.027921591,0.383548,0.2102288,-0.037487827,-0.13068055,0.051222987,-0.3254187,-0.47437513,-0.34160334,-0.26499918,831.6484,803.44324,809.89014,823.5897,762.74725,-0.40069580078125,0.0174560546875,0.91961669921875,3.8580322265625,-4.44122314453125,0.171966552734375,1,1.0,1.0,1.0,1.0,80.00
2021-04-14 09:59:14.535,0.14224502,-0.59225124,-0.2844541,-0.113151506,0.09237743,-0.31328028,-0.39082697,-0.0971973,0.4364561,-0.08842772,0.021869356,0.2862188,0.1829479,-0.135566,-0.06737789,0.064799495,-0.26957357,-0.48962602,-0.28151107,-0.21968949,757.1062,805.05493,799.011,778.46155,517.3626,-0.4052734375,0.0174560546875,0.91748046875,4.366455078125,-4.3963623046875,0.665435791015625,1,1.0,1.0,1.0,1.0,80.00
2021-04-14 09:59:15.050,-0.053302728,-0.56654286,-0.22306597,0.1070287,0.16065247,-0.1091503,-0.55955416,0.030998427,0.5021174,-0.008152036,-0.0011985557,0.3737133,0.20722264,-0.17536044,0.03307301,0.13941407,-0.32349372,-0.46339637,-0.32075638,-0.17567234,743.8095,810.293,798.20514,770.40295,643.47986,-0.39910888671875,0.017333984375,0.91424560546875,4.747772216796875,-4.20196533203125,0.657958984375,1,1.0,1.0,1.0,1.0,80.00
2021-04-14 09:59:15.563,0.07922617,-0.20871446,-0.07207606,0.26960605,0.03293815,0.014371008,-0.585249,0.12853172,0.55879146,0.14335693,-0.0032751148,0.4623541,0.17960703,-0.16829067,0.045897417,0.17531781,-0.39795107,-0.47826242,-0.3399087,-0.27735955,810.293,800.6227,803.44324,804.2491,861.06226,-0.4022216796875,0.02020263671875,0.9146728515625,4.433746337890625,-5.001983642578125,1.55517578125,1,1.0,1.0,1.0,1.0,80.00
2021-04-14 09:59:16.066,0.12568112,-0.14267218,-0.05103017,0.296787,0.06830824,-0.04394804,-0.54548603,0.14114316,0.56675833,0.14598686,0.03159965,0.45617276,0.064627476,-0.22677885,0.015416141,0.22854671,-0.4848963,-0.56755894,-0.47184157,-0.42176712,757.9121,791.75824,832.4542,734.94507,940.84247,-0.40704345703125,0.02252197265625,0.9188232421875,4.329071044921875,-4.134674072265625,0.829925537109375,1,1.0,1.0,1.0,1.0,80.00
2021-04-14 09:59:16.343,,,,,,,,,,,,,,,,,,,,,,,,,,,,,,,,,,,,,,/muse/elements/blink
2021-04-14 09:59:16.612,0.20595163,0.37413546,0.18250658,0.24789998,-0.03803855,0.284376,-0.29521587,0.04334349,0.5216043,0.2942019,0.0606557,0.35213065,-0.030490544,-0.25352088,-0.07269678,0.23661286,-0.55715555,-0.68403494,-0.41766956,-0.56576383,752.27106,807.8755,803.0403,776.04395,581.8315,-0.408203125,0.0205078125,0.91461181640625,4.628143310546875,-4.732818603515625,1.36077880859375,1,1.0,1.0,1.0,1.0,80.00
2021-04-14 09:59:17.115,0.045552667,0.4790903,0.27760488,0.083276905,7.5832364E-4,0.3638585,-0.16352457,-0.03471208,0.38617623,0.28628978,-0.042673938,0.14546676,-0.1681328,-0.28222105,-0.099940464,0.28308216,-0.4891556,-0.7038672,-0.37387002,-0.61532533,745.0183,806.26373,799.81683,772.8205,506.48352,-0.38665771484375,0.0452880859375,0.92071533203125,8.26934814453125,-6.512298583984375,10.946044921875,1,1.0,1.0,1.0,1.0,80.00
2021-04-14 09:59:17.627,-0.07224559,0.6462847,0.38522485,0.11396127,-0.0038775462,0.46044487,-0.002905564,-0.0021526313,0.33645466,0.3748101,0.12675807,0.14482667,-0.17357549,-0.19653735,-0.12267087,0.27080005,-0.472578,-0.6897691,-0.41222996,-0.64345634,753.47986,799.81683,803.8461,780.87915,708.7546,-0.41717529296875,0.013916015625,0.90936279296875,1.18133544921875,-2.7813720703125,-3.102874755859375,1,1.0,1.0,1.0,1.0,80.00
2021-04-14 09:59:18.130,0.4837079,0.47749886,0.2476852,0.23930041,0.4812392,-0.19307181,0.037476346,0.3173653,-0.20511717,0.17952468,0.2239925,0.39068383,0.043204658,-0.24093488,-0.12326663,0.071708046,-0.32901967,-0.6071433,-0.6108957,-0.27624318,826.0073,802.6374,805.4579,814.7253,699.4872,-0.4210205078125,0.04193115234375,0.9173583984375,3.312225341796875,-4.673004150390625,-0.859832763671875,1,1.0,1.0,1.0,1.0,80.00
2021-04-14 09:59:18.660,0.24060018,0.30322263,0.06041939,0.118681826,0.3222931,-0.2992992,-0.15607579,0.3058421,0.24334423,0.21790507,0.23230839,0.39068383,-0.054795925,-0.24441013,-0.14728028,0.010066243,-0.35968697,-0.63624245,-0.5828658,-0.22357021,866.7033,805.8608,802.23444,834.87177,840.9158,-0.412109375,0.03424072265625,0.91265869140625,1.7047119140625,-6.1907958984375,0.22430419921875,1,1.0,1.0,1.0,1.0,80.00
2021-04-14 09:59:19.178,0.2027,0.17226984,-0.07951054,0.24913651,0.18492225,-0.29050493,-0.2047296,0.15630794,0.3337615,0.20433931,0.21825314,0.39068383,-0.017451506,-0.2682444,-0.07958688,-0.013259892,-0.40048036,-0.6420078,-0.5152971,-0.24250348,805.8608,804.65204,802.23444,801.4286,710.3663,-0.40447998046875,0.0357666015625,0.9244384765625,4.08233642578125,-9.353485107421875,0.418701171875,1,1.0,1.0,1.0,1.0,80.00
2021-04-14 09:59:19.707,0.44945294,-0.42557186,-0.56957525,0.57370734,-0.0010169961,-0.45936552,-0.697659,-0.046902776,0.4679743,-0.1300151,-0.15837355,0.18714876,-0.049537968,-0.20296417,-0.09217629,0.042995926,-0.46641734,-0.62790555,-0.45709652,-0.21353726,742.6007,803.0403,801.02563,769.19415,522.1978,-0.42132568359375,0.0281982421875,0.9093017578125,7.82073974609375,-4.0972900390625,4.074859619140625,1,1.0,1.0,1.0,1.0,80.00
2021-04-14 09:59:20.252,0.55401355,-0.4155346,-0.6079426,0.65209246,0.06328552,-0.47513437,-0.64345896,-0.4340839,0.45066985,-0.03745902,-0.13238613,0.29453787,0.061088823,-0.1285434,-0.11864372,0.04429128,-0.4794403,-0.51566064,-0.4499872,-0.24109437,772.01465,811.9048,809.4872,789.34064,670.07324,-0.4188232421875,0.03802490234375,0.9058837890625,4.11224365234375,-2.729034423828125,3.7982177734375,1,1.0,1.0,1.0,1.0,80.00
2021-04-14 09:59:20.789,0.5562752,-0.33680624,-0.4993537,0.58292264,0.15343724,-0.5222369,-0.66777253,-0.11369685,0.45907092,-0.025685199,-0.17536548,0.3783256,0.15801336,-0.13566433,-0.24481685,0.15173724,-0.46644217,-0.5204987,-0.48175097,-0.22449411,741.79486,805.4579,801.4286,768.7912,584.2491,-0.40924072265625,0.04278564453125,0.917236328125,3.581390380859375,-8.067474365234375,-1.18133544921875,1,1.0,1.0,1.0,1.0,80.00
2021-04-14 09:59:21.299,0.14817674,-0.41052,-0.40441728,0.15452097,0.071705975,-0.4026057,-0.45775184,0.022179484,0.4432413,0.037203085,-0.20808204,0.4113101,0.27546751,-0.26146722,-0.29489267,0.12477907,-0.35659853,-0.54286754,-0.4464864,-0.18719164,796.5934,805.05493,805.8608,799.011,772.01465,-0.3885498046875,0.04571533203125,0.92010498046875,2.235565185546875,-6.68426513671875,2.9608154296875,1,1.0,1.0,1.0,1.0,80.00
2021-04-14 09:59:21.810,-0.099813625,-0.55347836,-0.35601345,-0.05380364,-0.15644373,-0.3113112,-0.3334773,0.100698724,0.35854605,-0.037952315,-0.37039065,0.36195737,0.25699016,-0.31628305,-0.25855237,0.15614651,-0.37952074,-0.6709251,-0.4706544,-0.15682513,867.9121,806.6667,789.7436,831.6484,954.1392,-0.40338134765625,0.03631591796875,0.91265869140625,4.366455078125,-4.42626953125,-1.398162841796875,1,1.0,1.0,1.0,1.0,80.00
2021-04-14 09:59:21.922,,,,,,,,,,,,,,,,,,,,,,,,,,,,,,,,,,,,,,/muse/elements/blink
2021-04-14 09:59:22.319,-0.19292812,0.41315153,0.39533007,-0.018625882,-0.29953104,0.37005416,0.3353005,0.04094295,0.26263538,0.4418356,0.049594577,0.28249487,0.23785672,-0.31791046,-0.26092383,0.088836454,-0.34895363,-0.6234178,-0.4659594,-0.13872391,753.8828,800.2198,798.60803,774.43225,527.8388,-0.42120361328125,0.03216552734375,0.9129638671875,4.224395751953125,-5.136566162109375,-0.366363525390625,1,1.0,1.0,1.0,1.0,75.00
2021-04-14 09:59:22.830,-0.09131951,0.7075171,0.7093579,-0.38789734,-0.39121702,0.5702183,0.54614556,0.044175837,-0.07934252,0.4796078,0.098155014,-0.045694087,0.1282455,-0.18345399,-0.18168804,0.030973049,-0.50452054,-0.59099215,-0.51040035,-0.28183404,782.0879,805.05493,805.8608,790.54944,720.84247,-0.4022216796875,0.026611328125,0.9180908203125,4.403839111328125,-4.717864990234375,0.321502685546875,1,1.0,1.0,1.0,1.0,75.00
2021-04-14 09:59:23.369,-0.09131951,0.70954096,0.75030756,-0.38789734,-0.39121702,0.59620714,0.5412259,0.044175837,-0.07934252,0.4796078,0.1858223,-0.045694087,0.1282455,-0.109172985,-0.03986116,0.030973049,-0.50452054,-0.520513,-0.445003,-0.28183404,749.85345,801.8315,794.9817,756.30035,689.41394,-0.40643310546875,0.0263671875,0.91571044921875,3.84307861328125,-4.53094482421875,0.545806884765625,1,1.0,1.0,1.0,1.0,75.00
2021-04-14 09:59:23.874,0.19117874,0.2718689,0.4555575,0.2752431,0.29677096,0.13096538,0.10966669,0.027187873,-0.03870983,0.3304906,0.04304605,-0.017197363,-0.013796329,-0.088726684,-0.0056815413,-0.004756438,-0.4264385,-0.50039476,-0.47723427,-0.39763513,810.696,803.8461,803.44324,799.011,822.7839,-0.41363525390625,0.01068115234375,0.9227294921875,5.674896240234375,-4.605712890625,3.87298583984375,1,1.0,1.0,1.0,1.0,75.00
2021-04-14 09:59:24.400,0.15810804,-0.33959144,0.078295134,0.3272013,0.2275737,-0.3031875,-0.11510839,0.15063964,0.082620054,-0.03960611,-0.020342734,0.024169426,0.006280799,-0.09884862,0.038989425,0.017896382,-0.41453877,-0.52125114,-0.47034156,-0.25915962,871.9414,813.1135,805.8608,844.1392,1005.31134,-0.409423828125,0.00189208984375,0.90972900390625,4.47113037109375,-1.846771240234375,0.919647216796875,1,1.0,1.0,1.0,1.0,75.00
2021-04-14 09:59:24.932,0.08317996,-0.22379982,-0.1597488,0.3412518,0.0025365257,-0.5360376,-0.030647308,0.16590072,0.11205051,0.059263267,-0.124796,0.12062972,-0.014225171,-0.13518748,-0.016773501,0.051458046,-0.40169114,-0.5493229,-0.57530147,-0.1951493,832.4542,812.3077,797.3993,808.68134,970.65936,-0.4171142578125,0.00823974609375,0.91387939453125,4.5758056640625,-4.05242919921875,0.777587890625,1,1.0,1.0,1.0,1.0,75.00
2021-04-14 09:59:25.460,-0.03518143,-0.14983304,-0.42208093,0.38321227,-0.12590666,-0.29920086,-0.08754884,0.14235775,0.3106179,0.03242514,-0.09844801,0.1686992,0.006599279,-0.079588436,0.039517846,0.13475871,-0.35168302,-0.49775603,-0.553609,-0.19123751,869.12085,803.8461,804.65204,835.2747,963.8095,-0.39324951171875,-0.0169677734375,0.9100341796875,6.452484130859375,-6.930999755859375,-7.04315185546875,1,1.0,1.0,1.0,1.0,75.00
2021-04-14 09:59:25.974,0.083888456,-0.01542863,-0.33461607,0.34706277,-0.2310201,-0.20425467,-0.07778752,0.061800517,0.42193806,0.04882684,-0.10328102,0.1810366,0.01331762,-0.062313657,-0.055904947,0.15943003,-0.37126994,-0.47638822,-0.5290784,-0.26761127,812.71063,807.0696,804.2491,814.7253,699.4872,-0.3731689453125,-0.0057373046875,0.93109130859375,3.058013916015625,-1.398162841796875,-0.5682373046875,1,1.0,1.0,1.0,1.0,75.00
2021-04-14 09:59:26.514,0.5084701,3.1597636E-4,-0.21967189,0.5419052,0.17550121,-0.1559577,-0.20792976,0.15268144,0.5350521,-0.028389243,-0.05035831,0.54595506,0.019361628,-0.08593151,-0.10289511,0.13954243,-0.3986803,-0.50220144,-0.5383015,-0.29794705,825.6044,806.6667,805.05493,813.91943,969.0476,-0.39697265625,-0.00726318359375,0.91943359375,5.405731201171875,-4.837493896484375,1.009368896484375,1,1.0,1.0,1.0,1.0,75.00
2021-04-14 09:59:27.041,0.6931722,0.053298388,-0.026406337,0.5420656,0.32677892,-0.31372246,-0.23725224,0.16799045,0.50930995,0.04614437,-0.06318023,0.5462278,0.06352192,-0.14091095,-0.2763957,0.2125825,-0.48339745,-0.5565054,-0.58369267,-0.25469354,770.0,797.3993,803.44324,786.52014,787.326,-0.3958740234375,0.00213623046875,0.919921875,5.06927490234375,-3.252410888671875,1.31591796875,1,1.0,1.0,1.0,1.0,75.00
2021-04-14 09:59:27.587,0.6755343,-0.080695875,-0.0247671,0.5553403,0.35910332,-0.4255713,-0.3007205,0.13411933,0.440693,-0.1739527,-0.11509043,0.6180326,0.062141072,-0.13723761,-0.32696658,0.20289056,-0.4789614,-0.60487664,-0.5628054,-0.2543855,845.34796,809.4872,803.8461,816.337,1012.1612,-0.3958740234375,-0.00146484375,0.91485595703125,4.643096923828125,-4.59075927734375,1.248626708984375,1,1.0,1.0,1.0,1.0,75.00
2021-04-14 09:59:28.102,0.31109214,-0.23971394,-0.073243536,0.25969723,0.2736603,-0.48459664,-0.33558488,0.07898817,0.8141241,-0.1757455,-0.17759529,0.4378652,0.112652265,-0.10272582,-0.2267123,0.23848201,-0.4876313,-0.51482755,-0.47095162,-0.32525462,796.5934,799.81683,804.65204,798.60803,804.2491,-0.3900146484375,0.00189208984375,0.92236328125,4.523468017578125,-4.47113037109375,0.381317138671875,1,1.0,1.0,1.0,1.0,75.00
2021-04-14 09:59:28.615,0.103632525,-0.5096851,-0.3418639,0.094097346,0.22637615,-0.25704187,-0.46307552,0.09501563,0.8359493,-0.27970642,-0.12479571,0.5117488,0.11791414,-0.13606174,-0.112807445,0.29543146,-0.39838696,-0.47856352,-0.50247747,-0.4217605,869.12085,803.8461,807.8755,843.3333,929.5604,-0.38812255859375,-0.00115966796875,0.92352294921875,4.673004150390625,-4.02252197265625,1.712188720703125,1,1.0,1.0,1.0,1.0,75.00
2021-04-14 09:59:29.139,0.08653204,-0.40540174,-0.47201264,-0.060156263,0.19758965,-0.29317915,-0.35094854,0.12889978,0.8770937,-0.11303458,-0.017887533,0.4495083,0.14037149,-0.2695923,-0.11365177,0.310327,-0.3680006,-0.55004936,-0.5541095,-0.41834658,834.0659,800.6227,799.41394,827.2161,837.28937,-0.39068603515625,0.00244140625,0.92266845703125,4.50103759765625,-4.62066650390625,1.218719482421875,1,1.0,1.0,1.0,1.0,75.00
2021-04-14 09:59:29.661,0.15182607,-0.22353582,-0.43864363,0.03178843,0.17279603,-0.4044535,-0.32872465,0.1402695,0.7441856,-0.09869539,-0.033360932,0.3822979,0.13499206,-0.24930018,-0.09310526,0.2719195,-0.35358498,-0.58484095,-0.6162002,-0.40457717,778.46155,802.6374,795.78754,795.38464,565.7143,-0.38067626953125,0.00164794921875,0.91741943359375,5.854339599609375,-5.959014892578125,2.340240478515625,1,1.0,1.0,1.0,1.0,75.00
2021-04-14 09:59:30.189,0.50628114,-0.20565209,-0.3045939,0.48755717,0.5928599,-0.59480494,-0.20524904,0.7067582,1.0875409,0.07749243,0.029768385,1.1469036,0.2908809,-0.22847947,-0.12822661,0.20598151,-0.38489568,-0.6586151,-0.56274456,-0.37926742,736.9597,799.41394,800.2198,761.13556,583.44324,-0.39019775390625,0.03009033203125,0.92083740234375,2.7215576171875,-5.001983642578125,4.4561767578125,1,1.0,1.0,1.0,1.0,75.00
2021-04-14 09:59:30.692,0.74800164,-0.09131797,-0.17396164,0.7526187,0.756937,-0.39913213,-0.20295544,0.9361756,1.0875409,0.121665336,0.064626485,1.1469036,0.30896586,-0.17136472,-0.10347314,0.22733851,-0.40339902,-0.63646936,-0.47954887,-0.33407447,907.8022,806.26373,788.93774,905.38464,826.0073,-0.39300537109375,0.02862548828125,0.9215087890625,3.9178466796875,-3.177642822265625,0.8074951171875,1,1.0,1.0,1.0,1.0,75.00
2021-04-14 09:59:30.700,,,,,,,,,,,,,,,,,,,,,,,,,,,,,,,,,,,,,,/muse/elements/blink
2021-04-14 09:59:31.209,0.91403717,0.7040862,0.8794359,0.91854703,0.9008454,0.3088399,0.48296294,1.1214814,1.0875409,0.3797008,0.064626485,1.1469036,0.40817094,-0.11783574,-0.09472203,0.3157253,-0.3828168,-0.67672163,-0.37127185,-0.22702827,751.8681,794.17584,797.8022,766.77655,676.1172,-0.40399169921875,0.01824951171875,0.90777587890625,2.91595458984375,-4.732818603515625,-0.112152099609375,1,1.0,1.0,1.0,1.0,75.00
2021-04-14 09:59:31.722,1.0363822,0.8128089,0.98248965,0.94247335,0.92880106,0.38130814,0.5285012,1.0908632,1.0581518,0.3797008,0.06456823,1.1107441,0.32310334,-0.12953596,-0.09580138,0.23635279,-0.42929542,-0.67252123,-0.35857674,-0.20472065,846.55676,805.05493,801.4286,823.1868,826.8132,-0.4066162109375,0.00982666015625,0.90753173828125,2.459869384765625,-5.256195068359375,-1.517791748046875,1,1.0,1.0,1.0,1.0,75.00
2021-04-14 09:59:32.247,1.0363822,0.79286253,0.9621767,0.94247335,0.92880106,0.36722204,0.49816844,1.0908632,1.0581518,0.383017,-0.037168723,1.1107441,0.32310334,-0.084277146,-0.032653313,0.23635279,-0.42929542,-0.49570426,-0.39365494,-0.20472065,866.30035,809.4872,805.4579,835.6777,880.80585,-0.41119384765625,0.0098876953125,0.9111328125,3.51409912109375,-4.388885498046875,0.381317138671875,1,1.0,1.0,1.0,1.0,80.00
2021-04-14 09:59:32.770,0.24553442,0.0876363,0.088307835,0.25178492,0.2858869,-0.20597844,-0.34925973,0.3800176,0.18888913,0.098573625,-0.1252444,0.39174148,0.028937627,-0.2021576,-0.0674455,0.01719008,-0.2161924,-0.4480535,-0.44276264,-0.37500718,787.326,800.2198,806.26373,790.54944,602.7839,-0.4100341796875,0.00958251953125,0.91571044921875,4.3963623046875,-4.747772216796875,0.605621337890625,1,1.0,1.0,1.0,1.0,80.00
2021-04-14 09:59:33.283,0.26226255,-0.21942975,-0.36464688,0.15112688,0.18557057,-0.41610593,-0.52252656,0.3333176,0.18888913,0.08029589,-0.0652707,0.39174148,0.066074036,-0.2230234,-0.07913875,0.04920991,-0.30151823,-0.5285175,-0.5159363,-0.45975605,729.707,806.26373,799.81683,762.3443,517.76556,-0.40570068359375,0.0081787109375,0.9173583984375,4.194488525390625,-3.7384033203125,1.084136962890625,1,1.0,1.0,1.0,1.0,80.00
2021-04-14 09:59:33.801,0.24607857,-0.25712574,-0.24202655,0.10690861,0.13252085,-0.50934505,-0.38044795,0.31227323,0.25826177,-0.05468697,-0.08409977,0.3760728,0.050752413,-0.2565384,-0.13463676,0.07199345,-0.35710287,-0.6267703,-0.5618121,-0.4982737,773.6264,802.23444,797.8022,777.25275,745.42126,-0.396240234375,0.01007080078125,0.92413330078125,4.29168701171875,-5.4132080078125,1.293487548828125,1,1.0,1.0,1.0,1.0,80.00
2021-04-14 09:59:34.304,0.20703295,-0.3831579,-0.04416582,-0.04050002,0.08464215,-0.45413005,-0.12862362,0.23392048,0.27697143,-0.051914167,-0.08793544,0.18873322,0.13577405,-0.09407026,-0.050388068,0.10625645,-0.39123997,-0.6109196,-0.5475747,-0.40434426,796.1905,802.6374,798.60803,796.1905,717.619,-0.39312744140625,0.010009765625,0.92034912109375,4.209442138671875,-5.465545654296875,0.6878662109375,1,1.0,1.0,1.0,1.0,80.00
2021-04-14 09:59:34.848,0.10489721,-0.07415202,-0.025520422,-0.0037443864,0.16080907,-0.15999682,-0.109231606,0.2134991,0.29198828,0.003247346,-0.043700784,-0.08491013,0.15550868,-0.01691219,-0.03589163,0.11061223,-0.31256887,-0.5638782,-0.57735187,-0.2814194,752.27106,807.8755,802.23444,772.4176,491.17215,-0.390625,0.0103759765625,0.91400146484375,3.790740966796875,-0.9271240234375,1.428070068359375,1,1.0,1.0,1.0,1.0,80.00
2021-04-14 09:59:35.360,0.13109854,0.05274321,-0.03078018,0.13656047,0.20099656,0.034060553,-0.10566036,0.028073287,0.27462116,-0.015732225,0.057101063,-0.28855374,0.119854085,0.020982021,0.044033255,0.14061588,-0.3452387,-0.5530712,-0.6031911,-0.24620079,775.64105,804.2491,809.0842,795.78754,651.53845,-0.37469482421875,0.01141357421875,0.91729736328125,5.263671875,-6.033782958984375,-0.874786376953125,1,1.0,1.0,1.0,1.0,80.00
2021-04-14 09:59:35.863,0.09138044,0.054124765,-0.1513953,0.27603596,0.23600642,-0.0051122443,-0.20356587,6.2065694E-4,0.44492352,0.024109337,0.0873043,0.24566275,0.06339079,-0.04073707,-0.023109866,0.22591743,-0.4582034,-0.60431254,-0.6326009,-0.23341551,732.9304,803.8461,798.60803,766.77655,628.97437,-0.37225341796875,0.0191650390625,0.9312744140625,4.05242919921875,-5.54779052734375,1.5252685546875,1,1.0,1.0,1.0,1.0,80.00
2021-04-14 09:59:36.415,0.31030038,-0.08507458,0.0667262,0.41075563,0.5295026,-0.22977422,-0.17908971,0.48598996,0.5988757,-0.0811696,0.124086484,0.40345266,0.094370015,-0.024231048,-0.008707263,0.30886403,-0.48130527,-0.5055774,-0.53781587,-0.21907271,753.8828,809.4872,813.91943,773.6264,704.7253,-0.38787841796875,0.0101318359375,0.92132568359375,3.349609375,-4.62066650390625,0.9869384765625,1,1.0,1.0,1.0,1.0,80.00
2021-04-14 09:59:36.946,0.52356714,0.299911,0.11112853,0.31274486,0.7689496,-0.079222694,-0.051204327,0.6805162,0.6286219,0.15768237,0.15713486,0.41520122,0.16767861,-0.0735458,0.0143080335,0.2341169,-0.44406608,-0.47228873,-0.52324206,-0.24758163,750.65936,797.3993,802.6374,772.01465,705.9341,-0.38140869140625,0.01300048828125,0.93438720703125,4.239349365234375,-4.762725830078125,1.15142822265625,1,1.0,1.0,1.0,1.0,80.00
2021-04-14 09:59:37.476,0.69916946,0.3542572,0.11244064,0.29017895,0.78914875,0.09821332,-0.02117173,0.65739304,0.6048273,0.39844897,0.28023884,0.45101365,0.14361298,-0.08672751,0.098102584,0.20180804,-0.3227169,-0.44609675,-0.471183,-0.372191,838.0952,801.02563,807.0696,811.9048,845.34796,-0.3841552734375,0.0076904296875,0.92327880859375,4.306640625,-4.6954345703125,0.7476806640625,1,1.0,1.0,1.0,1.0,80.00
2021-04-14 09:59:37.991,0.6271017,0.3503288,-0.10310717,0.18630038,0.7063312,0.099497885,-0.05506957,0.4887739,0.73963654,0.4048616,0.28023884,0.36905184,0.20482674,-0.11276664,0.097540736,0.24239904,-0.3107162,-0.43262902,-0.5055703,-0.47262973,864.2857,801.8315,806.6667,830.84247,869.92676,-0.38287353515625,0.004638671875,0.92218017578125,4.78515625,-4.366455078125,0.22430419921875,1,1.0,1.0,1.0,1.0,80.00
2021-04-14 09:59:38.497,0.4738343,-0.004511837,-0.21543168,0.19341742,0.48295033,-0.054681726,-0.28546214,0.14856409,0.7340917,0.38628295,0.112907395,0.33381468,0.21581009,-0.08247727,0.0103576025,0.31718367,-0.3401514,-0.4575789,-0.57322145,-0.38069725,783.69965,802.23444,799.41394,796.99634,591.0989,-0.37420654296875,0.00726318359375,0.92919921875,4.897308349609375,-4.194488525390625,0.64300537109375,1,1.0,1.0,1.0,1.0,80.00
2021-04-14 09:59:39.017,0.15025175,-0.040756628,-0.37847596,0.17673805,0.29183796,-0.28748974,-0.43694285,0.015220248,0.7259084,0.12883893,-0.055970628,0.32224104,0.19045669,-0.1273017,-0.15627983,0.27752984,-0.40162864,-0.40127045,-0.6350862,-0.21291742,838.49817,797.8022,800.6227,821.978,897.72894,-0.3759765625,0.00531005859375,0.93121337890625,4.478607177734375,-4.448699951171875,1.233673095703125,1,1.0,1.0,1.0,1.0,80.00
2021-04-14 09:59:39.528,0.18324079,-0.17962109,-0.25739384,0.1776023,0.14395536,-0.3456017,-0.2560263,-0.068938814,0.6554363,-0.13901564,-0.055970628,0.2662787,0.113204256,-0.18827303,-0.18657964,0.11770979,-0.41918835,-0.3797635,-0.5690508,-0.18135376,784.5055,805.8608,803.0403,808.2784,993.6264,-0.38067626953125,0.00177001953125,0.92840576171875,4.42626953125,-4.127197265625,0.665435791015625,1,1.0,1.0,1.0,1.0,80.00
2021-04-14 09:59:39.792,,,,,,,,,,,,,,,,,,,,,,,,,,,,,,,,,,,,,,/muse/elements/blink
2021-04-14 09:59:40.063,0.19018714,0.37533954,0.4811175,0.24365963,-0.050379235,0.24675153,0.27434906,0.014439838,0.4076222,0.3484188,0.08883961,0.1472405,0.04336299,-0.2898838,-0.16759144,-0.0180676,-0.3790217,-0.35533872,-0.5229038,-0.14778502,877.98535,811.9048,804.65204,847.3626,876.77655,-0.3846435546875,0.0013427734375,0.92315673828125,4.254302978515625,-3.805694580078125,0.112152099609375,1,1.0,1.0,1.0,1.0,80.00
2021-04-14 09:59:40.605,0.18130437,0.9589365,1.0940931,0.21151179,-0.07645501,0.75229377,0.78189296,0.16274689,0.09228766,0.40545744,0.27073684,-0.031059764,0.11572683,-0.35557988,-0.04801312,-0.18559578,-0.4320965,-0.44393656,-0.45719594,-0.34221786,787.72894,802.6374,803.0403,793.36993,737.3626,-0.380615234375,2.44140625E-4,0.92144775390625,4.366455078125,-4.687957763671875,0.471038818359375,1,1.0,1.0,1.0,1.0,80.00
2021-04-14 09:59:41.115,0.18130437,0.96315587,1.0950218,0.21151179,-0.07645501,0.7618673,0.77442,0.16274689,0.09228766,0.41472945,0.27405936,-0.031059764,0.11572683,-0.2586741,-0.051893026,-0.18559578,-0.4320965,-0.53478736,-0.42343262,-0.34221786,860.65936,808.2784,808.2784,830.84247,867.1062,-0.40264892578125,0.00140380859375,0.919189453125,5.644989013671875,-5.570220947265625,0.31402587890625,1,1.0,1.0,1.0,1.0,80.00
2021-04-14 09:59:41.657,0.55881906,0.74478704,0.87872076,0.29706064,0.34513786,0.5081582,0.5196456,0.34597975,0.13666518,0.34690905,0.24437287,0.44190142,0.16346373,-0.16966607,-0.09459875,0.32517606,-0.31200263,-0.55345726,-0.35586935,-0.3715975,846.9597,803.44324,803.8461,825.2015,902.96704,-0.42144775390625,-0.0048828125,0.91162109375,3.566436767578125,-0.949554443359375,-0.4486083984375,1,1.0,1.0,1.0,1.0,80.00
