TimeStamp,Delta_TP9,Delta_AF7,Delta_AF8,Delta_TP10,Theta_TP9,Theta_AF7,Theta_AF8,Theta_TP10,Alpha_TP9,Alpha_AF7,Alpha_AF8,Alpha_TP10,Beta_TP9,Beta_AF7,Beta_AF8,Beta_TP10,Gamma_TP9,Gamma_AF7,Gamma_AF8,Gamma_TP10,RAW_TP9,RAW_AF7,RAW_AF8,RAW_TP10,AUX_RIGHT,Accelerometer_X,Accelerometer_Y,Accelerometer_Z,Gyro_X,Gyro_Y,Gyro_Z,HeadBandOn,HSI_TP9,HSI_AF7,HSI_AF8,HSI_TP10,Battery,Elements
2021-04-12 09:34:44.521,1.7521639,0.45380187,0.15822998,1.7778486,1.2233136,0.22744246,-0.27146652,1.5170035,1.0277846,0.40222633,0.24491607,1.3152814,0.46772563,-0.07583654,-0.06753043,0.5703911,-0.29395804,-0.56610656,-0.6433903,-0.29805762,753.47986,787.72894,816.7399,771.6117,753.47986,0.00616455078125,-0.00421142578125,1.0052490234375,2.9010009765625,-2.235565185546875,-8.98712158203125,1,1.0,1.0,1.0,1.0,90.00
2021-04-12 09:34:44.734,,,,,,,,,,,,,,,,,,,,,,,,,,,,,,,,,,,,,,/muse/elements/blink
2021-04-12 09:34:45.029,1.7521639,0.74218684,0.52404886,1.7778486,1.2233136,0.51061994,0.049012776,1.5170035,1.0277846,0.49821225,0.35218135,1.3152814,0.46772563,0.11418854,-0.022240588,0.5703911,-0.29395804,-0.5699202,-0.4795405,-0.29805762,808.68134,811.0989,811.0989,817.5458,694.65204,-0.066650390625,-0.013671875,1.0098876953125,4.942169189453125,-0.411224365234375,-30.497894287109375,1,1.0,1.0,1.0,1.0,90.00
2021-04-12 09:34:45.539,1.7521639,0.8505503,0.5893976,1.7778486,1.2233136,0.5384377,0.058026873,1.5170035,1.0277846,0.50938886,0.35266492,1.3152814,0.46772563,0.09810844,-0.07394546,0.5703911,-0.29395804,-0.6095347,-0.39911807,-0.29805762,800.2198,814.7253,809.89014,774.0293,430.7326,-0.047119140625,-0.05908203125,0.99542236328125,11.088104248046875,-5.0244140625,19.0509033203125,1,1.0,1.0,1.0,1.0,90.00
2021-04-12 09:34:45.849,,,,,,,,,,,,,,,,,,,,,,,,,,,,,,,,,,,,,,/muse/elements/blink
2021-04-12 09:34:46.046,1.7521639,0.74749017,0.52384394,1.7778486,1.2233136,0.47200882,0.02985782,1.5170035,1.0277846,0.37778944,0.35266492,1.3152814,0.46772563,0.016521424,-0.16480917,0.5703911,-0.29395804,-0.6326047,-0.4194789,-0.29805762,830.0366,818.3516,799.011,835.2747,919.4872,-0.0655517578125,0.019287109375,0.998291015625,6.44500732421875,-10.056304931640625,18.40789794921875,1,1.0,1.0,1.0,1.0,90.00
2021-04-12 09:34:46.544,,,,,,,,,,,,,,,,,,,,,,,,,,,,,,,,,,,,,,/muse/elements/blink
2021-04-12 09:34:46.567,1.7521639,0.20763053,0.23209284,1.7778486,1.2233136,-0.069500715,0.12035952,1.5170035,1.0277846,0.213649,0.14630175,1.3152814,0.46772563,-0.22593202,-0.18795462,0.5703911,-0.29395804,-0.538386,-0.55697167,-0.29805762,831.2454,808.2784,799.81683,828.4249,836.08057,-0.00830078125,-0.00982666015625,1.00042724609375,-1.83929443359375,-1.6748046875,25.25665283203125,1,1.0,1.0,1.0,1.0,90.00
2021-04-12 09:34:47.086,1.7521639,-0.38668206,0.18022892,1.7778486,1.2233136,-0.26174316,0.22682087,1.5170035,1.0277846,0.20395835,0.055612527,1.3152814,0.46772563,-0.22263192,-0.17829782,0.5703911,-0.29395804,-0.49927062,-0.59540343,-0.29805762,790.54944,799.011,810.696,787.326,749.0476,-0.03216552734375,-0.04052734375,1.00384521484375,-0.441131591796875,-6.497344970703125,2.04864501953125,1,2.0,1.0,1.0,2.0,90.00
2021-04-12 09:34:47.607,1.7521639,-0.1959488,0.41326803,1.7778486,1.2233136,-0.26616824,0.43357086,1.5170035,1.0277846,0.104134485,0.09761196,1.3152814,0.46772563,-0.12730804,-0.121258505,0.5703911,-0.29395804,-0.3770652,-0.72330046,-0.29805762,774.83514,806.26373,801.02563,789.34064,628.97437,0.00262451171875,-0.01434326171875,1.01190185546875,4.964599609375,-3.641204833984375,1.547698974609375,1,2.0,1.0,1.0,2.0,90.00
2021-04-12 09:34:48.133,0.22241719,0.03521037,0.12924623,1.001541,-0.40021375,-0.37207747,-0.121825196,0.9835427,0.3324501,-0.26024672,0.15107238,1.3686256,0.17383437,-0.2091243,0.0019917118,0.56786424,0.23449302,-0.63905275,-0.5016081,0.23659377,789.34064,802.23444,807.47253,788.93774,779.2674,0.010009765625,-0.072998046875,0.9927978515625,4.344024658203125,-2.564544677734375,0.695343017578125,1,1.0,1.0,1.0,1.0,90.00
2021-04-12 09:34:48.642,0.38616478,-0.123216875,-0.02722324,0.33030397,-0.051298313,-0.3661057,-0.2147179,-0.027381355,0.39200303,-0.24623317,0.1613811,0.6073203,0.08547703,-0.09777054,-0.0030408842,0.55623364,0.105827875,-0.6190844,-0.45615634,0.24258797,826.4103,789.7436,819.5604,837.28937,817.1429,0.00286865234375,-0.09027099609375,0.99798583984375,4.66552734375,-7.357177734375,3.072967529296875,1,1.0,1.0,1.0,1.0,90.00
2021-04-12 09:34:49.171,0.3451286,-0.0010327698,0.01536891,0.3851895,0.053784426,-0.32927552,-0.102289304,0.2026259,0.4661975,0.11783062,0.13732992,0.77481467,0.13296427,-0.07025346,-0.066040546,0.58414894,0.033308323,-0.608568,-0.42193365,0.20455934,816.337,805.4579,802.23444,827.2161,819.15753,0.032470703125,-0.04034423828125,1.0224609375,6.68426513671875,-7.902984619140625,-1.136474609375,1,1.0,1.0,1.0,1.0,90.00
2021-04-12 09:34:49.675,0.5451483,0.029380294,0.19905463,0.69741124,0.2680059,-0.27328554,0.01964926,0.4886546,0.6100852,0.14834349,0.1055938,0.79964244,0.08480573,-0.009889306,-0.116416946,0.6102532,-0.052810345,-0.5754361,-0.45102015,0.20716597,803.8461,805.4579,807.0696,809.89014,683.7729,0.07171630859375,-0.08770751953125,0.994873046875,1.428070068359375,-1.07666015625,-9.024505615234375,1,1.0,1.0,1.0,1.0,90.00
2021-04-12 09:34:49.694,,,,,,,,,,,,,,,,,,,,,,,,,,,,,,,,,,,,,,/muse/elements/blink
2021-04-12 09:34:50.182,0.8481025,0.35709485,0.60388094,0.83081144,0.5875434,-0.05124247,0.2504105,0.6720567,1.183503,0.16004467,0.16969594,0.79964244,0.2797846,0.042878646,-0.101637945,0.635063,-0.035927307,-0.5019974,-0.44902554,0.21871324,781.28204,806.26373,807.0696,777.25275,632.1978,-0.10931396484375,-0.12493896484375,0.9697265625,6.05621337890625,2.392578125,9.4207763671875,1,1.0,1.0,1.0,1.0,90.00
2021-04-12 09:34:50.294,,,,,,,,,,,,,,,,,,,,,,,,,,,,,,,,,,,,,,/muse/elements/blink
2021-04-12 09:34:50.690,1.1348332,0.53474206,0.72639465,1.0419884,0.82485604,0.050202254,0.289442,0.8247717,1.183503,0.082051724,0.27117482,0.7799989,0.3494156,0.07851387,-0.069725685,0.64852613,0.083598316,-0.37877953,-0.42858514,0.2851943,811.50183,799.011,813.1135,816.337,842.1245,-0.0751953125,-0.09857177734375,0.97021484375,10.519866943359375,2.549591064453125,-23.2379150390625,1,1.0,1.0,1.0,1.0,90.00
2021-04-12 09:34:50.929,,,,,,,,,,,,,,,,,,,,,,,,,,,,,,,,,,,,,,/muse/elements/blink
2021-04-12 09:34:51.196,1.1348332,1.0581144,1.1805124,1.0419884,0.82485604,0.6241668,0.7139207,0.8247717,1.183503,0.9574902,0.8772407,0.7799989,0.3494156,0.13176602,0.010040833,0.64852613,0.083598316,-0.3135048,-0.37006772,0.2851943,801.8315,793.7729,805.8608,817.9487,662.4176,-0.162841796875,-0.0181884765625,0.99176025390625,9.88433837890625,4.702911376953125,-16.0003662109375,1,1.0,1.0,1.0,1.0,90.00
2021-04-12 09:34:51.723,1.1348332,1.3154169,1.3894981,1.0419884,0.82485604,0.8802794,0.80101067,0.8247717,1.183503,0.9574902,0.87791353,0.7799989,0.3494156,0.1304071,0.0670004,0.64852613,0.083598316,-0.225109,-0.2970921,0.2851943,777.6557,802.6374,803.8461,782.8938,674.5055,-0.2291259765625,0.00244140625,0.975830078125,5.18890380859375,-1.278533935546875,0.785064697265625,1,1.0,1.0,1.0,1.0,90.00
2021-04-12 09:34:52.249,1.1348332,1.3154169,1.3669777,1.0419884,0.82485604,0.8802794,0.7871839,0.8247717,1.183503,0.9574902,0.87791353,0.7799989,0.3494156,0.1304071,0.106096916,0.64852613,0.083598316,-0.225109,-0.25122148,0.2851943,782.0879,812.71063,812.3077,790.14655,674.5055,-0.22576904296875,0.00482177734375,0.9683837890625,6.332855224609375,-12.21710205078125,-4.658050537109375,1,1.0,1.0,1.0,1.0,75.00
2021-04-12 09:34:52.753,0.9660913,1.0821775,1.1453794,0.38362265,0.6901295,0.77596164,0.48203892,0.15107359,0.5169487,0.52320015,0.7533747,0.35217598,-0.043148823,0.14677207,0.058001127,0.11456814,-0.24854454,-0.22062044,-0.2728548,-0.13736081,817.5458,805.8608,803.44324,823.5897,758.315,-0.14373779296875,0.001220703125,0.99017333984375,4.987030029296875,-12.8900146484375,-0.022430419921875,1,1.0,1.0,1.0,1.0,75.00
2021-04-12 09:34:52.995,,,,,,,,,,,,,,,,,,,,,,,,,,,,,,,,,,,,,,/muse/elements/blink
2021-04-12 09:34:53.261,0.9565326,0.8677613,0.46023786,0.4608902,0.67328113,0.55519605,0.04606403,0.17313568,0.55238986,0.5291218,0.33371893,0.3525848,-0.012979165,0.017454764,-0.039953697,0.15986559,-0.26847577,-0.27909747,-0.31193167,-0.16540356,813.1135,801.8315,807.8755,805.05493,807.8755,-0.0504150390625,0.057373046875,0.99737548828125,4.284210205078125,-3.3795166015625,-0.67291259765625,1,1.0,1.0,1.0,1.0,75.00
2021-04-12 09:34:53.684,,,,,,,,,,,,,,,,,,,,,,,,,,,,,,,,,,,,,,/muse/elements/blink
2021-04-12 09:34:53.778,0.9565326,0.8496572,0.5479068,0.48628798,0.67328113,0.5346358,0.011678112,0.2165067,0.55238986,0.5291218,0.3295321,0.34306192,-0.012979165,-0.0572914,-0.061035525,0.17869735,-0.26847577,-0.3146051,-0.37624973,-0.20684887,853.00366,811.0989,807.47253,859.45056,719.6337,-0.12298583984375,0.050048828125,1.00372314453125,1.786956787109375,7.04315185546875,-0.01495361328125,1,1.0,1.0,1.0,1.0,75.00
2021-04-12 09:34:54.287,1.0478573,1.0707259,0.8236885,0.55917084,0.6984148,0.7169475,0.61292416,0.27340794,0.50037843,0.50448203,0.35742298,0.26780224,0.0019834707,-0.17800151,-0.026047735,0.22565283,-0.3343466,-0.39819622,-0.3828741,-0.30051842,798.20514,807.47253,802.6374,791.3553,642.674,-0.216552734375,0.00225830078125,0.984375,1.60003662109375,2.743988037109375,0.5682373046875,1,1.0,1.0,1.0,1.0,75.00
2021-04-12 09:34:54.800,1.0478573,1.090105,0.82962054,0.55917084,0.6984148,0.7253423,0.6509993,0.27340794,0.50037843,0.49094823,0.37558946,0.26780224,0.0019834707,-0.14019275,-0.03352459,0.22565283,-0.3343466,-0.35606328,-0.38980603,-0.30051842,791.3553,803.0403,801.8315,779.67035,772.01465,-0.27130126953125,-0.0074462890625,0.95843505859375,5.929107666015625,-5.630035400390625,-3.013153076171875,1,1.0,1.0,1.0,1.0,75.00
2021-04-12 09:34:55.172,,,,,,,,,,,,,,,,,,,,,,,,,,,,,,,,,,,,,,/muse/elements/blink
2021-04-12 09:34:55.309,1.0478573,1.1055459,0.8486474,0.55917084,0.6984148,0.7017544,0.6892026,0.27340794,0.50037843,0.51430714,0.5433151,0.26780224,0.0019834707,-0.03223627,-0.036983717,0.22565283,-0.3343466,-0.35335174,-0.37192014,-0.30051842,851.79486,806.6667,794.17584,853.4066,811.50183,-0.2532958984375,-0.03143310546875,0.9713134765625,4.59075927734375,-1.7645263671875,1.77947998046875,1,1.0,1.0,1.0,1.0,75.00
2021-04-12 09:34:55.811,1.0478573,0.50227743,0.72016615,0.55917084,0.6984148,0.073236525,0.38318643,0.27340794,0.50037843,0.25066295,0.5052074,0.26780224,0.0019834707,0.044899497,-0.08666127,0.22565283,-0.3343466,-0.34179795,-0.36070615,-0.30051842,772.4176,772.01465,817.5458,805.05493,888.0586,-0.230224609375,-0.03167724609375,0.9840087890625,4.284210205078125,-6.759033203125,1.09161376953125,1,2.0,1.0,1.0,2.0,75.00
2021-04-12 09:34:56.034,,,,,,,,,,,,,,,,,,,,,,,,,,,,,,,,,,,,,,/muse/elements/blink
2021-04-12 09:34:56.320,1.0478573,0.7000652,0.7804925,0.55917084,0.6984148,0.2604527,0.44196105,0.27340794,0.50037843,0.47089082,0.50648844,0.26780224,0.0019834707,0.020103179,-0.1034172,0.22565283,-0.3343466,-0.33789203,-0.30902308,-0.30051842,792.96704,808.68134,804.2491,800.2198,745.0183,-0.2513427734375,-0.0364990234375,0.96954345703125,6.32537841796875,-0.829925537109375,-9.91424560546875,1,2.0,1.0,1.0,2.0,75.00
2021-04-12 09:34:56.842,1.0478573,0.6607222,0.9314547,1.1588871,0.6984148,0.28799582,0.54794633,0.99283564,0.50037843,0.46007365,0.49429035,1.1436497,0.0019834707,-0.004580245,-0.043202363,0.5607839,-0.3343466,-0.2684732,-0.2517677,-0.07736247,767.98535,803.44324,801.02563,759.92676,658.7912,-0.242919921875,0.00238037109375,0.97119140625,6.59454345703125,-3.93280029296875,-1.921539306640625,1,2.0,1.0,1.0,2.0,75.00
2021-04-12 09:34:57.348,0.22823809,0.69747835,0.8060063,0.90426165,0.17445925,0.2077061,0.39167237,0.697499,0.24745333,0.4058275,0.44529724,1.1436497,0.09707577,-0.17049523,-0.07743634,0.35735396,-0.13397595,-0.20507696,-0.22969356,-0.22038685,797.8022,814.7253,799.41394,781.28204,809.4872,-0.23431396484375,-0.01690673828125,0.97113037109375,4.9346923828125,-6.77398681640625,0.082244873046875,1,1.0,1.0,1.0,1.0,75.00
2021-04-12 09:34:57.875,0.31786162,0.31654868,0.77920663,0.76597315,0.03500752,-0.09528209,0.3565032,0.563509,0.2580626,0.26072866,0.41555426,1.1436497,0.17061509,-0.06517977,-0.009562374,0.33469218,-0.21580946,-0.17714933,-0.21853723,-0.23921463,798.60803,810.293,809.4872,802.6374,754.2857,-0.20184326171875,-0.0272216796875,0.97650146484375,5.644989013671875,-6.0711669921875,-0.800018310546875,1,1.0,1.0,1.0,1.0,75.00
2021-04-12 09:34:58.377,0.24652152,0.21184157,0.09472442,0.27520838,0.123682134,-0.22740762,-0.25412276,-0.08573855,0.42512602,0.26072866,0.15201972,0.3444902,0.058730543,-0.024427796,-0.022624115,0.1340819,-0.30185676,-0.20733693,-0.23129311,-0.22334664,814.3223,806.6667,804.2491,820.3663,773.6264,-0.1785888671875,-0.00469970703125,0.9876708984375,5.555267333984375,-4.5458984375,0.79254150390625,1,1.0,1.0,1.0,1.0,75.00
2021-04-12 09:34:58.887,0.2561499,0.060483962,-0.118344575,0.0483016,0.059462372,-0.21037132,-0.1586245,-0.11919417,0.3932111,0.26491788,0.11177958,0.33347708,0.0014388679,0.014164265,-0.014038049,0.09720963,-0.37021354,-0.2469768,-0.21239719,-0.22890323,792.96704,810.696,806.6667,795.78754,807.8755,-0.18585205078125,-0.0052490234375,0.9844970703125,4.964599609375,-3.760833740234375,0.55328369140625,1,1.0,1.0,1.0,1.0,75.00
2021-04-12 09:34:59.408,0.4337027,-0.34397557,-0.28638226,0.31951275,0.3102855,-0.10637322,0.0024005012,0.18109539,0.66238946,0.27040884,0.061616227,0.58709544,-0.0056122104,0.0010440281,-0.0390925,0.066501915,-0.343649,-0.3116523,-0.3109815,-0.24541783,797.3993,817.1429,797.8022,767.98535,663.22345,-0.189453125,3.0517578125E-4,0.9830322265625,3.46923828125,-3.06549072265625,0.814971923828125,1,1.0,1.0,1.0,1.0,75.00
2021-04-12 09:34:59.932,0.9577753,0.14660345,-0.019614197,0.774609,0.5241735,0.13881533,0.015784059,0.51027894,0.7157915,0.2346397,0.1256614,0.6412856,0.18614344,0.003860662,-0.023812372,0.16909751,-0.26458997,-0.3033598,-0.42100582,-0.3323226,805.8608,807.47253,803.0403,805.4579,858.6447,-0.2264404296875,-0.001220703125,0.9716796875,5.988922119140625,2.280426025390625,0.76263427734375,1,1.0,1.0,1.0,1.0,75.00
2021-04-12 09:35:00.458,1.110693,0.41126087,0.1546983,1.0294785,0.7736089,0.1936141,0.016576728,0.837214,0.7456496,0.24260834,0.116578035,0.8013397,0.35862324,0.0049033756,-0.039468136,0.31471673,-0.23349325,-0.3221618,-0.5756559,-0.21438093,827.2161,808.68134,804.2491,845.7509,880.80585,-0.2744140625,0.00103759765625,0.95941162109375,3.312225341796875,-3.33465576171875,1.757049560546875,1,1.0,1.0,1.0,1.0,75.00
2021-04-12 09:35:00.656,,,,,,,,,,,,,,,,,,,,,,,,,,,,,,,,,,,,,,/muse/elements/blink
2021-04-12 09:35:00.985,1.2545162,0.5116837,0.10771843,1.2098371,0.9115126,0.26277384,-0.21119624,1.0175387,0.7563905,0.2404757,0.23161715,0.82195085,0.44203413,0.028078685,-0.06405151,0.38960385,-0.21817723,-0.36409315,-0.5506312,-0.15615158,806.6667,806.6667,802.23444,811.9048,711.978,-0.26641845703125,0.01275634765625,0.97137451171875,4.927215576171875,-5.839385986328125,0.979461669921875,1,1.0,1.0,1.0,1.0,75.00
2021-04-12 09:35:01.486,1.0227885,0.58556926,0.1274107,1.1118957,0.94552493,0.32085896,-0.18074843,1.0270879,0.7026294,0.27234307,0.22516155,0.79022545,0.4402732,0.13986258,-0.11071859,0.36322433,-0.25390726,-0.52105236,-0.4852008,-0.13049832,779.67035,806.26373,809.4872,777.25275,647.9121,-0.26116943359375,0.0123291015625,0.9774169921875,4.3963623046875,-5.301055908203125,1.42059326171875,1,1.0,1.0,1.0,1.0,75.00
2021-04-12 09:35:02.006,1.0227885,0.46206802,0.16685416,1.1362727,0.94552493,0.28785586,-0.2609758,1.0734562,0.7026294,0.27234307,0.3294666,0.7843929,0.4402732,0.16408545,-0.024349995,0.37995222,-0.25390726,-0.566177,-0.4363178,-0.14261791,784.90845,801.8315,808.68134,770.80585,747.4359,-0.2503662109375,0.00555419921875,0.9725341796875,4.987030029296875,-5.241241455078125,0.95703125,1,1.0,1.0,1.0,1.0,75.00
2021-04-12 09:35:02.520,1.0227885,0.35375085,0.27848518,1.1362727,0.94552493,0.106719926,-0.12616162,1.0734562,0.7026294,0.36524817,0.36343688,0.7843929,0.4402732,0.13812038,0.023117451,0.37995222,-0.25390726,-0.5004398,-0.5002412,-0.14261791,831.2454,815.5311,813.5165,832.4542,821.5751,-0.26153564453125,1.220703125E-4,0.9693603515625,4.2767333984375,-4.628143310546875,0.575714111328125,1,1.0,1.0,1.0,1.0,80.00
2021-04-12 09:35:03.023,0.6832974,0.17003421,0.22888106,0.43274632,0.32509366,-0.05079889,-0.14479892,0.21808635,0.30605054,0.3180135,0.38568828,0.37239122,0.23767658,0.015975494,0.063373625,0.30039594,-0.30102184,-0.42730924,-0.5434297,-0.29492363,826.8132,809.89014,798.60803,834.0659,969.45056,-0.2406005859375,0.00921630859375,0.98065185546875,4.523468017578125,-9.054412841796875,3.102874755859375,1,1.0,1.0,1.0,1.0,80.00
2021-04-12 09:35:03.551,0.7205727,0.49224487,0.42207757,0.8988732,0.76039624,0.18309088,-0.032616924,0.57192165,0.4102662,0.3774055,0.38910624,0.48978814,0.27201608,0.02404112,0.055787217,0.27877018,-0.22603962,-0.45236853,-0.5631485,-0.24965551,778.46155,807.47253,802.23444,776.8498,765.9707,-0.1895751953125,0.0157470703125,0.9971923828125,6.57958984375,-7.902984619140625,2.1832275390625,1,1.0,1.0,1.0,1.0,80.00
2021-04-12 09:35:03.720,,,,,,,,,,,,,,,,,,,,,,,,,,,,,,,,,,,,,,/muse/elements/blink
2021-04-12 09:35:04.062,0.7228436,0.81523204,0.7978718,0.9405251,0.794822,0.44852662,0.22345856,0.61579037,0.4102662,0.69896865,0.36508435,0.49643314,0.25460094,-0.0013575596,-0.009710623,0.2867067,-0.21408015,-0.45791802,-0.47613227,-0.23065695,790.54944,807.0696,804.65204,792.5641,619.707,-0.02880859375,0.05010986328125,1.00958251953125,5.316009521484375,-6.542205810546875,3.54400634765625,1,1.0,1.0,1.0,1.0,80.00
2021-04-12 09:35:04.586,0.7520766,0.99561,0.9356234,1.1312793,0.9791599,0.60700154,0.43849266,0.786001,0.28513837,0.71353245,0.39918032,0.31595203,0.26768103,0.060227584,-0.08815189,0.27543586,-0.15522148,-0.48362288,-0.40231603,-0.18531795,802.6374,805.4579,805.8608,807.8755,1043.5897,-0.02874755859375,0.0172119140625,1.0091552734375,4.388885498046875,-0.859832763671875,-1.83929443359375,1,1.0,1.0,1.0,1.0,80.00
2021-04-12 09:35:04.916,,,,,,,,,,,,,,,,,,,,,,,,,,,,,,,,,,,,,,/muse/elements/blink
2021-04-12 09:35:05.099,0.77457416,1.1002115,1.070937,1.1972314,1.0214367,0.6977573,0.61664104,0.8320792,0.27413508,0.74055547,0.42192551,0.3013777,0.24066013,0.06934845,-0.14797315,0.2969136,-0.13272016,-0.47975707,-0.4487829,-0.16540465,802.23444,800.2198,799.011,814.7253,784.10254,-0.11578369140625,0.0291748046875,0.9903564453125,3.671112060546875,-3.84307861328125,-1.173858642578125,1,1.0,1.0,1.0,1.0,80.00
2021-04-12 09:35:05.624,0.77457416,1.1284052,1.0625257,1.1972314,1.0214367,0.71688133,0.66568184,0.8320792,0.27413508,0.58731025,0.40489155,0.3013777,0.24066013,0.061544415,-0.12885417,0.2969136,-0.13272016,-0.57918423,-0.50071007,-0.16540465,799.81683,798.20514,796.99634,787.326,685.38464,-0.16131591796875,0.02496337890625,0.9949951171875,3.177642822265625,2.175750732421875,3.147735595703125,1,1.0,1.0,1.0,1.0,80.00
2021-04-12 09:35:06.141,0.77457416,0.7928093,0.93420225,1.1972314,1.0214367,0.43535036,0.5532036,0.8320792,0.27413508,0.58731025,0.33722138,0.3013777,0.24066013,-0.026548767,-0.17025927,0.2969136,-0.13272016,-0.6169145,-0.5689848,-0.16540465,789.7436,807.0696,804.2491,790.14655,763.95605,-0.24847412109375,-0.05078125,0.98809814453125,-3.36456298828125,-1.27105712890625,3.1402587890625,1,1.0,1.0,1.0,1.0,80.00
2021-04-12 09:35:06.652,0.16723621,0.36662233,-0.13782808,0.06981569,0.17041028,0.13251078,-0.05563406,0.25769114,0.24456328,0.015946625,-0.13896236,0.28142956,0.013978229,-0.062209565,-0.10429594,0.16958281,-0.24186297,-0.53260386,-0.48074192,-0.18233518,776.8498,812.71063,808.68134,766.3736,626.1539,-0.0570068359375,0.087646484375,1.085693359375,23.365020751953125,-29.600677490234375,-13.3984375,1,1.0,1.0,1.0,1.0,80.00
2021-04-12 09:35:07.160,0.17985137,0.4100506,0.4196806,0.6516203,0.21525036,0.21916373,0.20373559,0.649138,0.25662547,0.58320946,0.4206638,0.9828606,0.05687095,0.034963984,-0.036366627,0.17053118,-0.191866,-0.44298112,-0.38429144,-0.13381007,811.0989,791.75824,834.0659,850.989,658.3883,0.109130859375,0.01934814453125,0.85089111328125,3.24493408203125,-25.922088623046875,46.46087646484375,1,1.0,1.0,1.0,1.0,80.00
2021-04-12 09:35:07.680,0.17985137,0.6834907,0.80064255,0.6516203,0.21525036,0.5949953,0.7703836,0.649138,0.25662547,0.65364677,0.65352637,0.9828606,0.05687095,0.1497062,0.049156424,0.17053118,-0.191866,-0.3446338,-0.15982793,-0.13381007,835.2747,807.8755,793.36993,815.5311,835.6777,0.22833251953125,0.06756591796875,1.0623779296875,5.615081787109375,17.981719970703125,17.368621826171875,1,1.0,1.0,1.0,1.0,80.00
2021-04-12 09:35:08.190,0.15184246,0.8971565,0.9720654,0.89376014,0.32372287,0.7745286,0.8885891,0.8610923,0.21919921,0.66621226,0.65352637,0.9767075,0.082553156,0.18652241,0.11736331,0.14133708,-0.13831264,-0.34414083,-0.11514076,-0.059758145,816.7399,800.2198,795.38464,825.6044,775.64105,-0.15313720703125,-0.0721435546875,0.97235107421875,-3.656158447265625,3.39447021484375,24.3743896484375,1,1.0,1.0,1.0,1.0,80.00
2021-04-12 09:35:08.714,0.15184246,0.9036401,0.9200764,0.89376014,0.32372287,0.72727156,0.8370176,0.8610923,0.21919921,0.6274383,0.65352637,0.9767075,0.082553156,0.12452778,0.1365842,0.14133708,-0.13831264,-0.28324872,-0.111610316,-0.059758145,774.43225,799.011,810.696,782.49084,715.6044,0.16766357421875,-0.0994873046875,1.012939453125,10.803985595703125,-12.8302001953125,-29.211883544921875,1,1.0,1.0,1.0,1.0,80.00
2021-04-12 09:35:09.014,,,,,,,,,,,,,,,,,,,,,,,,,,,,,,,,,,,,,,/muse/elements/blink
2021-04-12 09:35:09.218,1.221204,0.7249328,0.615296,1.3452084,0.91941315,0.42646673,0.14961393,1.131263,0.592991,0.30213296,0.11455356,0.94613856,0.51140124,-0.05756762,0.10329229,0.5092243,0.058088012,-0.25154445,-0.215153,-0.14204761,741.79486,862.27106,740.58606,689.011,565.7143,-0.13055419921875,-0.0367431640625,0.9415283203125,14.422760009765625,12.418975830078125,-27.581939697265625,1,1.0,1.0,1.0,1.0,80.00
2021-04-12 09:35:09.326,,,,,,,,,,,,,,,,,,,,,,,,,,,,,,,,,,,,,,/muse/elements/blink
2021-04-12 09:35:09.737,1.2708455,0.48606342,0.31896916,1.3452084,0.9581675,-0.022007994,-0.48518384,1.131263,0.6585084,-0.06934645,-0.26802498,0.94613856,0.52791107,-0.17958476,0.05241397,0.5092243,0.03773431,-0.15344527,-0.20080169,-0.14204761,828.022,795.38464,812.71063,836.4835,936.4103,-0.25860595703125,0.09246826171875,0.93768310546875,8.157196044921875,3.730926513671875,-13.71246337890625,1,1.0,1.0,1.0,1.0,80.00
2021-04-12 09:35:10.243,1.3242525,-0.045792416,0.30758476,1.3558064,1.0580962,-0.20269811,-0.37367913,1.1730599,0.64047223,-0.15881157,-0.3793533,0.9404186,0.53329337,-0.2464243,-0.014690943,0.5086781,-0.01417784,-0.21417302,-0.15915708,-0.07720134,819.9634,804.2491,800.2198,837.6923,888.86444,-0.20721435546875,0.03857421875,0.9439697265625,5.644989013671875,-6.362762451171875,-9.891815185546875,1,1.0,1.0,1.0,1.0,80.00
2021-04-12 09:35:10.752,1.4024634,-0.045792416,-0.21456434,1.3558064,1.1217618,-0.20269811,-0.3884791,1.1730599,0.6180037,-0.15881157,-0.08460445,0.9404186,0.60923237,-0.2464243,-0.19831285,0.5086781,-0.097958736,-0.21417302,-0.36235026,-0.07720134,820.3663,812.71063,809.0842,823.1868,762.3443,-0.34967041015625,0.0206298828125,0.9271240234375,6.10107421875,8.792724609375,0.471038818359375,1,1.0,1.0,1.0,1.0,80.00
2021-04-12 09:35:11.282,1.4024634,0.2286454,-0.14369094,1.3558064,1.1217618,-0.19677877,-0.46631825,1.1730599,0.6180037,0.1636523,0.021342134,0.9404186,0.60923237,0.006086793,-0.18004279,0.5086781,-0.097958736,-0.41251844,-0.412334,-0.07720134,778.86444,801.4286,821.1722,776.8498,621.7216,-0.31298828125,0.0521240234375,0.94439697265625,2.983245849609375,-2.03369140625,-0.9271240234375,1,1.0,1.0,1.0,1.0,80.00
2021-04-12 09:35:11.788,1.4024634,0.40996912,0.15166947,1.1840185,1.1217618,-0.09267919,-0.042635642,0.8121497,0.6180037,0.3249516,0.0750589,0.7364324,0.60923237,0.08516554,-0.12894721,0.59896636,-0.097958736,-0.323718,-0.35938346,-0.37127703,790.54944,800.2198,801.8315,782.0879,780.07324,-0.3299560546875,-0.00531005859375,0.94873046875,7.783355712890625,-13.08441162109375,0.276641845703125,1,1.0,1.0,1.0,1.0,80.00
2021-04-12 09:35:12.294,0.911612,0.5623033,0.26215914,1.1449442,-0.62912923,0.033372473,0.06054737,0.62273854,0.40462962,0.34731385,0.21942158,0.79281825,0.23021168,0.03544148,-0.06006674,0.58159244,0.056180153,-0.19858287,-0.34948763,-0.24023673,820.7692,811.9048,797.3993,831.6484,749.0476,-0.25848388671875,0.0228271484375,0.96673583984375,6.602020263671875,-6.38519287109375,1.697235107421875,1,1.0,1.0,1.0,1.0,80.00
2021-04-12 09:35:12.798,0.9405616,0.62040997,0.338645,1.0101427,-0.02051139,0.20962827,0.15817827,0.49300915,0.43777016,0.30297694,0.3559601,0.79281825,0.27111962,0.0057447026,-0.041512325,0.5008938,-0.09794798,-0.11309172,-0.40660954,-0.27829483,791.75824,802.23444,799.41394,802.23444,730.9158,-0.33636474609375,0.11199951171875,0.94390869140625,9.727325439453125,-12.882537841796875,-3.84307861328125,1,1.0,1.0,1.0,1.0,75.00
2021-04-12 09:35:13.318,1.0105273,0.5421023,0.2555895,0.8065678,0.0046168477,0.1949352,-0.022241762,0.22562031,0.5167954,0.26096657,0.37605408,0.6348671,0.338949,-0.052527964,-0.05491714,0.5389664,-0.122998804,-0.14710383,-0.4248055,-0.04639294,788.93774,808.68134,804.65204,783.69965,650.32965,-0.21337890625,0.09832763671875,0.93450927734375,-4.50103759765625,-0.059814453125,-0.07476806640625,1,1.0,1.0,1.0,1.0,75.00
2021-04-12 09:35:13.824,1.0941409,0.3686924,0.14843881,0.6982107,0.123927906,0.14407276,-0.12908688,0.25755292,0.5551595,0.17534569,0.37262285,0.31752494,0.4669591,-0.05431301,0.027471982,0.5527234,0.04859811,-0.21849371,-0.15729006,-0.024820473,762.74725,800.6227,810.293,767.98535,640.65936,0.1083984375,0.09979248046875,1.15423583984375,12.0526123046875,-24.76318359375,7.6861572265625,1,1.0,1.0,1.0,1.0,75.00
2021-04-12 09:35:14.341,1.2724448,0.8328874,0.672511,1.2022458,0.74703234,0.5399124,0.2298317,0.92247677,0.7526485,0.71382385,0.39388224,0.90480256,0.5738003,-0.02651623,0.04349846,0.6075877,0.15179002,-0.20105548,-0.009901405,0.09370585,814.7253,813.5165,794.17584,819.5604,846.9597,0.22705078125,0.07501220703125,0.95159912109375,3.820648193359375,6.452484130859375,1.136474609375,1,1.0,1.0,1.0,1.0,75.00
2021-04-12 09:35:14.868,1.5554808,1.0417488,0.8805458,1.4133719,1.086051,0.6637153,0.41484615,1.1329015,0.9420507,0.71249706,0.44702253,0.8996022,0.8543863,-0.024742479,0.0849326,0.5211704,0.29062763,-0.14533167,0.041419577,0.04080991,800.2198,788.5348,837.6923,818.3516,593.91943,-0.06964111328125,0.1072998046875,0.9822998046875,-0.777587890625,-6.29547119140625,37.346649169921875,1,1.0,1.0,1.0,1.0,75.00
2021-04-12 09:35:15.402,1.6762555,1.2470651,1.0985885,1.5610569,1.2644514,0.8620294,0.61139345,1.2888167,0.9099626,0.71249706,0.44702253,0.8904917,0.94302964,0.030341556,-0.01593266,0.48917082,0.22738293,-0.110047095,-0.0614403,0.04371091,804.65204,801.02563,809.0842,803.0403,692.23444,-0.14569091796875,0.0489501953125,0.9620361328125,-0.560760498046875,-0.8673095703125,9.4207763671875,1,1.0,1.0,1.0,1.0,75.00
2021-04-12 09:35:15.909,1.3574741,0.84407985,1.1571398,1.5610569,0.8625193,0.43649364,0.65894186,1.2888167,0.90121764,0.45085412,0.43351215,0.8904917,0.71112996,0.109293595,0.030342758,0.48917082,0.14988461,-0.1353194,-0.22495638,0.04371091,788.5348,810.293,799.011,778.46155,672.8938,-0.070068359375,-0.01190185546875,0.974609375,1.353302001953125,-5.682373046875,15.305023193359375,1,1.0,1.0,1.0,1.0,75.00
2021-04-12 09:35:16.425,0.65908265,0.40538943,-0.012428867,0.51050085,0.45352843,0.25554144,-0.39214545,0.35796472,0.65364456,0.4283401,-0.29514676,0.4421847,0.41190535,0.029357353,0.15374635,0.49787086,0.17641492,-0.12178777,-0.3012687,0.20373887,792.96704,803.8461,807.0696,788.5348,714.3956,-0.1776123046875,-0.0653076171875,0.89935302734375,10.534820556640625,16.381683349609375,-16.34429931640625,1,1.0,1.0,1.0,1.0,75.00
2021-04-12 09:35:16.956,0.65143275,0.33288547,0.1324023,0.7211915,0.5427958,0.16402109,-0.45421806,0.40026072,0.7699789,0.4639073,-0.11266909,0.51222366,0.5287267,0.035802376,0.17550193,0.55698586,0.15124518,-0.13359715,-0.27391368,0.25355408,663.6264,830.0366,783.69965,646.30035,1029.4872,-0.29827880859375,0.0025634765625,0.99029541015625,30.93902587890625,-2.175750732421875,-49.010467529296875,1,1.0,1.0,1.0,1.0,75.00
2021-04-12 09:35:17.026,,,,,,,,,,,,,,,,,,,,,,,,,,,,,,,,,,,,,,/muse/elements/blink
2021-04-12 09:35:17.484,0.6478839,-0.04132648,0.086296886,0.7158797,0.53835773,-0.08206942,-0.462829,0.2687379,0.75797504,0.09506216,-0.11496999,0.44701993,0.6675313,-0.006775981,0.1589993,0.5807576,0.20747407,-0.14037718,-0.29927835,0.2597347,826.4103,803.44324,809.89014,846.9597,870.32965,-0.20361328125,0.05462646484375,0.9410400390625,7.79083251953125,8.964691162109375,-7.364654541015625,1,1.0,1.0,1.0,1.0,75.00
2021-04-12 09:35:17.986,0.68116474,0.069896944,0.28632906,0.92894727,0.7078229,-0.21945927,-0.567992,0.3995521,0.75366586,0.01671036,-0.14490175,0.32430154,0.7729679,0.05150851,0.20621903,0.6407416,0.06946297,-0.16460684,-0.23586336,0.32491356,790.54944,800.2198,807.0696,792.5641,622.1245,-0.3310546875,0.0169677734375,0.95025634765625,0.8074951171875,13.465728759765625,5.046844482421875,1,1.0,1.0,1.0,1.0,75.00
2021-04-12 09:35:18.235,,,,,,,,,,,,,,,,,,,,,,,,,,,,,,,,,,,,,,/muse/elements/blink
2021-04-12 09:35:18.506,0.68116474,0.45148718,0.28632906,0.92894727,0.7078229,0.54854435,-0.567992,0.3995521,0.75366586,0.49245012,-0.14490175,0.32430154,0.7729679,0.12384537,0.20621903,0.6407416,0.06946297,-0.20799272,-0.23586336,0.32491356,850.58606,805.05493,790.9524,840.5128,647.1062,-0.4141845703125,-0.00933837890625,0.9095458984375,2.94586181640625,-1.0467529296875,-0.46356201171875,1,1.0,1.0,1.0,1.0,75.00
2021-04-12 09:35:19.012,0.68116474,0.80845815,0.28632906,0.92894727,0.7078229,0.6912313,-0.567992,0.3995521,0.75366586,0.5603397,-0.14490175,0.32430154,0.7729679,0.18246269,0.20621903,0.6407416,0.06946297,-0.20701249,-0.23586336,0.32491356,792.96704,791.75824,795.78754,788.1319,808.2784,-0.3411865234375,0.02252197265625,0.94061279296875,4.7552490234375,-13.4881591796875,-3.93280029296875,1,1.0,1.0,1.0,1.0,75.00
2021-04-12 09:35:19.544,0.68116474,0.8791047,0.7040727,0.92894727,0.7078229,0.58862954,0.58213764,0.3995521,0.75366586,0.62185436,0.47648656,0.32430154,0.7729679,0.22608739,0.062445644,0.6407416,0.06946297,-0.21135557,-0.2730112,0.32491356,865.4945,807.47253,799.41394,880.40295,921.50183,-0.263671875,0.0189208984375,0.9644775390625,3.013153076171875,-3.132781982421875,0.710296630859375,1,2.0,1.0,1.0,2.0,75.00
2021-04-12 09:35:19.547,,,,,,,,,,,,,,,,,,,,,,,,,,,,,,,,,,,,,,/muse/elements/blink
2021-04-12 09:35:20.053,0.68116474,0.84341663,0.6977761,0.92894727,0.7078229,0.47859251,0.4520397,0.3995521,0.75366586,0.62803143,0.41552016,0.32430154,0.7729679,0.21994206,-0.06887907,0.6407416,0.06946297,-0.24746658,-0.43631047,0.32491356,708.3516,803.8461,807.47253,720.4396,770.80585,-0.27545166015625,0.00555419921875,0.95953369140625,4.732818603515625,-4.089813232421875,1.07666015625,1,2.0,1.0,1.0,2.0,75.00
2021-04-12 09:35:20.283,,,,,,,,,,,,,,,,,,,,,,,,,,,,,,,,,,,,,,/muse/elements/blink
2021-04-12 09:35:20.579,0.68116474,0.62488496,0.78897756,0.92894727,0.7078229,0.104094036,0.38098228,0.3995521,0.75366586,0.4049284,0.41569898,0.32430154,0.7729679,0.16160792,-0.07734952,0.6407416,0.06946297,-0.29685366,-0.38927668,0.32491356,782.49084,803.8461,802.23444,786.52014,618.0952,-0.26666259765625,0.02630615234375,0.96099853515625,5.81695556640625,-5.794525146484375,0.55328369140625,1,2.0,1.0,1.0,2.0,75.00
2021-04-12 09:35:21.090,0.68116474,0.13350537,0.9198261,0.92894727,0.7078229,-0.049045887,0.20498836,0.3995521,0.75366586,0.3444527,0.2120311,0.32430154,0.7729679,0.0149234915,-0.078688465,0.6407416,0.06946297,-0.29472572,-0.3621683,0.32491356,808.2784,799.41394,805.4579,806.6667,683.7729,-0.26763916015625,0.007568359375,0.9630126953125,4.972076416015625,-5.016937255859375,0.7177734375,1,2.0,1.0,1.0,2.0,75.00
2021-04-12 09:35:21.604,0.68116474,0.14606199,0.8114346,0.92894727,0.7078229,-0.098106645,0.08227639,0.3995521,0.75366586,0.33834597,0.16296154,0.32430154,0.7729679,-0.045761805,-0.059537176,0.6407416,0.06946297,-0.3307809,-0.34692803,0.32491356,835.2747,816.337,802.23444,822.381,793.7729,-0.25433349609375,0.01702880859375,0.95904541015625,4.41131591796875,-4.725341796875,-0.052337646484375,1,2.0,1.0,1.0,2.0,75.00
2021-04-12 09:35:22.114,0.6193112,0.14289466,0.57273346,0.49429363,0.4646096,-0.17234384,-0.04707149,-0.006219833,0.36155105,0.33827955,0.04254529,0.18589601,0.34309,-0.03234175,-0.05870252,0.24995996,0.1891161,-0.3207772,-0.37013018,-0.13497886,601.978,787.72894,836.08057,595.9341,802.23444,-0.2567138671875,0.01751708984375,0.97137451171875,5.001983642578125,-4.792633056640625,1.36077880859375,1,1.0,1.0,1.0,1.0,75.00
2021-04-12 09:35:22.341,,,,,,,,,,,,,,,,,,,,,,,,,,,,,,,,,,,,,,/muse/elements/blink
2021-04-12 09:35:22.651,0.6193112,0.31858698,0.574473,0.49429363,0.4646096,-0.051484324,0.41177216,-0.006219833,0.36155105,0.33544683,0.12446182,0.18589601,0.34309,-0.06672953,-0.020613657,0.24995996,0.1891161,-0.3412723,-0.34820935,-0.13497886,805.4579,805.4579,801.02563,811.9048,680.9524,-0.2574462890625,0.015380859375,0.966064453125,4.7552490234375,-5.203857421875,0.76263427734375,1,1.0,1.0,1.0,1.0,75.00
2021-04-12 09:35:23.173,0.6916508,0.40596765,0.84218675,0.56715494,0.5052397,0.0060718716,0.6225657,0.043850057,0.25714034,0.29997426,0.120003685,0.15141144,0.36392787,-0.0375823,-0.009256375,0.26163936,0.19366772,-0.20108648,-0.27334967,-0.11083115,779.2674,802.6374,799.81683,765.16486,667.6557,-0.25396728515625,0.0186767578125,0.968994140625,4.448699951171875,-5.256195068359375,0.059814453125,1,1.0,1.0,1.0,1.0,75.00
2021-04-12 09:35:23.679,0.6916508,0.3703094,0.8496124,0.56715494,0.5052397,0.019731684,0.60773474,0.043850057,0.25714034,0.29997426,0.11120894,0.15141144,0.36392787,-0.009165466,0.012521587,0.26163936,0.19366772,-0.13836695,-0.279793,-0.11083115,785.31134,805.05493,807.8755,782.0879,658.3883,-0.26385498046875,0.0135498046875,0.9700927734375,3.57391357421875,-1.607513427734375,1.682281494140625,1,1.0,1.0,1.0,1.0,75.00
2021-04-12 09:35:24.195,0.5748951,0.16792527,0.5801531,0.46500206,-0.1280982,0.06583654,0.30153036,0.01580575,-0.164058,0.2237307,0.5055181,0.46815276,0.38186303,0.08557703,0.049562372,0.3002818,0.2969781,-0.11574215,-0.35533148,-0.18049207,540.32965,795.78754,840.10986,540.32965,923.1135,-0.27996826171875,0.01153564453125,0.96441650390625,4.762725830078125,-4.02252197265625,1.786956787109375,1,1.0,1.0,1.0,1.0,75.00
2021-04-12 09:35:24.367,,,,,,,,,,,,,,,,,,,,,,,,,,,,,,,,,,,,,,/muse/elements/blink
2021-04-12 09:35:24.721,0.5748951,-0.08766141,0.758502,0.46500206,-0.1280982,0.017067712,0.21761455,0.01580575,-0.164058,0.19513412,0.47000313,0.46815276,0.38186303,0.07000726,0.0940777,0.3002818,0.2969781,-0.1822797,-0.48076716,-0.18049207,815.12823,806.6667,800.2198,829.2308,697.0696,-0.27398681640625,0.00885009765625,0.966064453125,4.8748779296875,-5.973968505859375,1.532745361328125,1,1.0,1.0,1.0,1.0,75.00
2021-04-12 09:35:25.249,0.5748951,-0.015760753,0.91875005,0.46500206,-0.1280982,0.06319035,0.3623841,0.01580575,-0.164058,0.16476525,0.47000313,0.46815276,0.38186303,-0.02419593,0.12867768,0.3002818,0.2969781,-0.26771253,-0.5464563,-0.18049207,816.7399,809.4872,794.9817,818.3516,1046.8132,-0.27490234375,0.01611328125,0.96148681640625,4.3365478515625,-4.14215087890625,2.788848876953125,1,1.0,1.0,1.0,1.0,75.00
2021-04-12 09:35:25.773,0.5748951,-0.107625045,0.9867755,0.46500206,-0.1280982,-0.007729485,0.36078945,0.01580575,-0.164058,0.16955598,0.34397334,0.46815276,0.38186303,-0.09989749,0.03188679,0.3002818,0.2969781,-0.38139826,-0.50563306,-0.18049207,798.20514,807.8755,798.20514,796.5934,705.9341,-0.275634765625,0.0140380859375,0.96112060546875,4.164581298828125,-4.5758056640625,0.01495361328125,1,1.0,1.0,1.0,1.0,75.00
2021-04-12 09:35:26.298,0.79690695,-0.08467766,0.46021247,1.1896185,0.4705147,0.012924159,-0.12775888,0.77782863,0.52039784,-0.04454087,0.09461926,0.73662513,0.41181916,-0.17287634,-0.03952513,0.39460593,0.040176705,-0.43402874,-0.41365927,-0.05986773,811.9048,811.50183,809.0842,813.1135,786.1172,-0.27685546875,0.01629638671875,0.968017578125,3.043060302734375,-3.6785888671875,-0.695343017578125,1,1.0,1.0,1.0,1.0,75.00
2021-04-12 09:35:26.601,,,,,,,,,,,,,,,,,,,,,,,,,,,,,,,,,,,,,,/muse/elements/blink
2021-04-12 09:35:26.800,0.77180207,0.18303522,0.51579,1.1511159,0.48297128,0.10908583,0.16515517,0.77205855,0.52039784,0.20596844,0.3766978,0.73662513,0.3890123,-0.10529077,0.004461974,0.38573664,0.07293762,-0.48029327,-0.36986703,-0.058410376,829.2308,806.26373,806.6667,804.2491,724.87177,-0.27020263671875,0.004638671875,0.965087890625,4.538421630859375,-4.254302978515625,0.59814453125,1,1.0,1.0,1.0,1.0,75.00
2021-04-12 09:35:27.318,0.64042276,0.19181912,0.73285216,0.9058557,0.4883726,0.09715688,0.48861858,0.7225641,0.37984324,0.39895287,0.5009715,0.49906352,0.3784133,-0.059831843,-0.035178687,0.29462042,0.117852494,-0.4377159,-0.22356836,-0.012213332,826.8132,807.47253,805.4579,838.49817,790.9524,-0.26934814453125,0.0040283203125,0.96514892578125,4.605712890625,-7.394561767578125,0.46356201171875,1,1.0,1.0,1.0,1.0,75.00
2021-04-12 09:35:27.844,0.5222011,0.055659894,0.7076349,0.76073337,0.50902665,0.042647284,0.47358242,0.70732874,0.17450553,0.42603362,0.50447744,0.3712294,0.35758477,0.021046458,-0.019540573,0.27677223,0.16680537,-0.3606203,-0.22433738,0.007604056,815.9341,813.1135,812.3077,814.7253,762.3443,-0.26214599609375,0.0072021484375,0.96978759765625,4.246826171875,-4.747772216796875,1.293487548828125,1,1.0,1.0,1.0,1.0,75.00
2021-04-12 09:35:28.356,0.68169755,-0.39566472,0.5715698,0.25100735,0.7173241,-0.022335855,0.33018616,0.7324932,0.84133977,0.42770138,0.50447744,0.9087519,0.5729925,-0.034135036,-0.10554308,0.64412224,0.04042269,-0.35092622,-0.25984782,-0.21843277,788.1319,810.293,809.4872,790.14655,599.5604,-0.24237060546875,0.0050048828125,0.97418212890625,4.66552734375,-6.83380126953125,0.52337646484375,1,1.0,1.0,1.0,1.0,75.00
2021-04-12 09:35:28.834,,,,,,,,,,,,,,,,,,,,,,,,,,,,,,,,,,,,,,/muse/elements/blink
2021-04-12 09:35:28.883,0.80271643,-0.23183863,-0.109730266,0.37514576,0.9074057,-0.07762762,-0.31168166,0.88988537,0.8464838,0.20700671,0.10146692,0.92797554,0.58808744,-0.08649213,-0.090208486,0.6365722,0.0164315,-0.3131018,-0.4292028,-0.15982527,830.4396,809.89014,800.6227,832.0513,726.08057,-0.244384765625,-0.00238037109375,0.97564697265625,5.323486328125,-14.056396484375,-1.233673095703125,1,1.0,1.0,1.0,1.0,75.00
2021-04-12 09:35:29.408,0.80271643,-0.11581224,0.6191122,0.37514576,0.9074057,0.04972823,0.17646775,0.88988537,0.8464838,0.17785223,0.26100627,0.92797554,0.58808744,-0.086071745,-0.05418665,0.6365722,0.0164315,-0.35568288,-0.4124368,-0.15982527,818.7546,803.8461,809.89014,826.4103,807.8755,-0.17938232421875,0.022705078125,0.9755859375,4.0673828125,-9.338531494140625,1.95892333984375,1,1.0,1.0,1.0,1.0,75.00
2021-04-12 09:35:29.921,0.9792041,-0.04913641,0.6448221,0.5508168,1.1156353,-0.003980096,0.23909166,1.0844502,0.8464838,0.23724543,0.27597925,0.92797554,0.6859086,0.03729789,0.04866388,0.67605156,-0.03808314,-0.2876526,-0.29172054,-0.074578695,796.1905,798.60803,813.5165,800.6227,715.2015,-0.07940673828125,-0.02783203125,1.0057373046875,2.61688232421875,-4.1571044921875,0.456085205078125,1,1.0,1.0,1.0,1.0,75.00
2021-04-12 09:35:30.434,0.6296233,-0.17957239,0.55847585,0.9192458,0.87747556,-0.061018083,0.19663914,0.86843383,0.8418087,0.3695809,0.28795442,0.79969835,0.79000217,0.08560593,0.038336713,0.7261311,0.14344876,-0.26221618,-0.20218053,-0.10932011,837.28937,799.41394,805.4579,844.94507,903.36993,-0.14208984375,-0.02435302734375,0.989013671875,5.4730224609375,-1.667327880859375,2.093505859375,1,1.0,1.0,1.0,1.0,75.00
2021-04-12 09:35:30.953,0.56958276,-0.17062792,-0.23445489,0.80041677,0.7126667,-0.21401855,-0.16350527,0.7815006,0.87990975,0.3137809,0.19678316,0.8364432,0.80991477,0.06409186,0.0675157,0.6954782,0.16735996,-0.27346346,-0.17537925,-0.05487285,780.07324,801.8315,805.05493,760.32965,624.1392,-0.13629150390625,-0.018798828125,0.9912109375,5.84686279296875,-5.480499267578125,1.03179931640625,1,1.0,1.0,1.0,1.0,75.00
2021-04-12 09:35:31.453,,,,,,,,,,,,,,,,,,,,,,,,,,,,,,,,,,,,,,/muse/elements/blink
2021-04-12 09:35:31.481,0.54752463,0.1202111,-0.09815282,0.6715623,0.64615244,0.02587802,-0.22997978,0.66811323,0.881781,0.43753704,0.21182753,0.83952767,0.76835066,0.0521828,-0.0033821897,0.63595974,0.17998987,-0.24527489,-0.23527408,0.0022291148,799.41394,808.2784,802.23444,794.57874,573.36993,-0.16314697265625,-0.0206298828125,0.9862060546875,-3.3197021484375,-0.6878662109375,22.68463134765625,1,1.0,1.0,1.0,1.0,75.00
2021-04-12 09:35:32.006,0.47764066,0.864558,0.6216206,0.94747263,0.34299204,0.7679981,0.4861673,1.0084997,0.7757027,0.8074856,0.6739859,1.2692356,0.7521966,0.05519822,0.05693352,0.6034588,0.2043279,-0.24766162,-0.15841718,-0.028747488,777.25275,814.7253,806.26373,780.07324,726.4835,-0.2042236328125,-0.028076171875,0.97918701171875,4.8748779296875,-3.910369873046875,0.994415283203125,1,1.0,1.0,1.0,1.0,75.00
2021-04-12 09:35:32.507,0.44560266,0.932898,0.6827538,1.0462409,0.32184947,0.7962648,0.5051239,1.1041278,0.6418511,0.8074856,0.6702652,1.2410573,0.6282547,0.030298347,0.062462896,0.549789,0.22598651,-0.2005436,-0.18397492,-0.09297326,849.3773,834.87177,775.2381,814.7253,834.4689,-0.2125244140625,-0.005859375,0.97802734375,8.725433349609375,0.7476806640625,-6.886138916015625,1,1.0,1.0,1.0,1.0,75.00
2021-04-12 09:35:33.012,0.8400694,1.0667791,0.96115357,1.0009007,0.55988425,0.9125091,0.6615794,1.0332357,0.3217362,0.83043337,0.7426973,1.2410573,0.32750696,0.011279996,0.1514197,0.53373086,0.09798706,-0.23664433,-0.13227278,-0.056626197,817.1429,805.4579,807.0696,830.4396,866.30035,-0.29302978515625,0.01458740234375,0.95465087890625,7.185211181640625,-4.71038818359375,-5.973968505859375,1,1.0,1.0,1.0,1.0,75.00
2021-04-12 09:35:33.534,1.0393459,0.9643898,0.9419112,0.8372563,0.84045786,0.6974347,0.4455779,0.56340456,0.8278515,0.7077694,0.5876679,0.65710026,0.453585,-0.08091856,0.13284306,0.41462448,0.2298216,-0.2565631,-0.23107813,0.0072644562,792.5641,809.4872,802.6374,788.1319,711.978,-0.2447509765625,-0.00701904296875,0.9708251953125,5.525360107421875,-9.293670654296875,0.411224365234375,1,1.0,1.0,1.0,1.0,70.00
2021-04-12 09:35:34.039,1.015164,0.9090361,0.9068722,0.9390127,0.7651829,0.6536269,0.39692456,0.5072921,0.9073061,0.70762014,0.43473122,0.76353925,0.5216381,-0.042795602,0.11763507,0.52776176,0.27383092,-0.25875396,-0.21008052,-0.019294525,778.46155,809.4872,803.0403,778.86444,670.4762,-0.2293701171875,0.021728515625,0.97467041015625,4.628143310546875,0.396270751953125,0.4486083984375,1,1.0,1.0,1.0,1.0,70.00
2021-04-12 09:35:34.097,,,,,,,,,,,,,,,,,,,,,,,,,,,,,,,,,,,,,,/muse/elements/blink
2021-04-12 09:35:34.558,1.0428329,0.67154974,0.5333261,1.0515532,0.9137338,0.37656945,0.023435501,0.7680762,1.1607038,0.6151557,0.33029467,1.1363814,0.6281397,-0.064224325,0.05317363,0.5979636,0.29541567,-0.31285328,-0.25487387,-0.104546934,793.36993,799.81683,792.1612,789.7436,827.619,-0.2354736328125,0.0194091796875,0.9693603515625,4.59075927734375,-4.2767333984375,0.022430419921875,1,1.0,1.0,1.0,1.0,70.00
2021-04-12 09:35:35.065,0.8843928,0.28850737,0.02641277,0.98726004,0.81275964,0.048723213,-0.24574813,0.8105233,1.1607038,0.30623457,0.18663277,1.1431952,0.5720354,-0.016412871,0.086598404,0.6186828,0.09676476,-0.3388143,-0.2558361,-0.17990687,823.9927,806.26373,807.0696,829.6337,844.1392,-0.22705078125,0.09564208984375,0.98443603515625,6.998291015625,-1.323394775390625,4.83001708984375,1,1.0,1.0,1.0,1.0,70.00
2021-04-12 09:35:35.530,,,,,,,,,,,,,,,,,,,,,,,,,,,,,,,,,,,,,,/muse/elements/blink
2021-04-12 09:35:35.592,0.8680337,0.44916445,0.38013032,0.94851273,0.9146122,0.1822639,-0.014932778,0.91143876,1.1607038,0.32382447,0.18406883,1.1411778,0.48169583,-0.055910993,0.09377467,0.53310794,-0.0928918,-0.3061769,-0.3386385,-0.19968505,776.8498,802.6374,807.8755,781.685,662.01465,-0.22406005859375,0.04473876953125,0.9710693359375,4.2767333984375,-0.381317138671875,1.831817626953125,1,1.0,1.0,1.0,1.0,70.00
2021-04-12 09:35:36.095,0.85430664,0.4062299,0.3718585,0.95882726,0.81437105,0.10989496,0.045371853,0.82273084,0.97090137,0.32382447,0.18406883,1.0764854,0.37040055,-0.070473254,0.13542546,0.47320226,-0.121660516,-0.19672167,-0.31758836,-0.19140892,787.72894,801.02563,804.65204,779.67035,707.9487,-0.230224609375,0.043701171875,0.97930908203125,4.23187255859375,-3.656158447265625,0.426177978515625,1,1.0,1.0,1.0,1.0,70.00
2021-04-12 09:35:36.604,0.73920035,0.2664331,0.22663334,0.98195606,0.7820804,0.10006343,-0.009512546,0.7708227,0.6051766,0.30478448,0.17642899,0.82544214,0.2968209,-0.07887788,0.14562686,0.42664117,-0.0720387,-0.121515684,-0.34039402,-0.17453583,810.696,805.4579,797.3993,818.3516,784.10254,-0.243408203125,0.0477294921875,0.9742431640625,5.48797607421875,-5.33843994140625,-0.25421142578125,1,1.0,1.0,1.0,1.0,70.00
2021-04-12 09:35:37.114,-0.35078067,-0.1696499,-0.50204974,-0.18744716,0.30300984,-0.06545581,-0.24120282,0.31432506,0.6878333,0.23947205,-0.049453136,0.17550498,0.39872056,-0.0065262862,0.1900549,0.37090456,-0.3252438,-0.123782836,-0.29022458,-0.2994588,823.5897,803.8461,800.2198,817.9487,663.6264,-0.18890380859375,0.00634765625,0.97991943359375,2.968292236328125,-7.065582275390625,-0.829925537109375,1,1.0,1.0,1.0,1.0,70.00
2021-04-12 09:35:37.624,0.57946485,-0.07383878,-0.41116408,0.4846021,0.48249894,-0.11440895,-0.4346614,0.38104683,0.80159974,0.22806166,-0.050119564,0.42251238,0.30049533,0.05441818,0.1698823,0.3379617,-0.26125535,-0.20265624,-0.37717554,-0.36507535,803.44324,809.89014,805.4579,796.99634,682.5641,-0.24432373046875,0.027099609375,0.9716796875,4.5758056640625,-0.291595458984375,2.908477783203125,1,1.0,1.0,1.0,1.0,70.00
2021-04-12 09:35:38.130,0.64107823,-0.05613457,-0.27387407,0.61747897,0.48505354,-0.39086515,-0.6579233,0.4083223,0.8157128,0.033364613,0.17587915,0.56515956,0.25510383,0.084770225,0.10743085,0.3054303,-0.2686079,-0.29584914,-0.349829,-0.24174345,791.75824,801.4286,804.65204,794.17584,855.42126,-0.26104736328125,-0.002197265625,0.9678955078125,4.538421630859375,-0.680389404296875,4.35150146484375,1,1.0,1.0,1.0,1.0,70.00
2021-04-12 09:35:38.652,0.86122143,-0.030607468,-0.1668914,0.8559552,0.5717019,-0.3485895,-0.60597754,0.5573632,0.79573554,-0.19755967,0.1778028,0.74829984,0.27936223,0.0361948,-0.017762095,0.34926265,-0.24233133,-0.20744984,-0.3593536,-0.10188565,814.7253,806.6667,810.696,815.5311,913.44324,-0.26812744140625,0.0205078125,0.96807861328125,4.71038818359375,-7.70111083984375,2.609405517578125,1,1.0,1.0,1.0,1.0,70.00
2021-04-12 09:35:38.952,,,,,,,,,,,,,,,,,,,,,,,,,,,,,,,,,,,,,,/muse/elements/blink
2021-04-12 09:35:39.178,0.86353344,-0.098272465,0.20286044,0.9042414,0.5294014,-0.25809994,-0.24027202,0.59081894,0.745814,-0.17958175,0.26359925,0.74056876,0.31208822,-0.040423077,-0.01166889,0.3663041,-0.26636758,-0.13267395,-0.3180403,-0.0026478216,842.52747,809.4872,803.8461,853.00366,886.04395,-0.300537109375,0.00732421875,0.9638671875,3.6187744140625,-4.41131591796875,1.487884521484375,1,1.0,1.0,1.0,1.0,70.00
2021-04-12 09:35:39.679,0.9792807,0.05940897,0.82151616,1.0160977,0.531124,-0.23649737,0.19080837,0.672423,0.6124827,-0.17989738,0.26101664,0.7333391,0.41908583,-0.08968491,0.02060345,0.4806324,-0.25177443,-0.18391255,-0.37243572,0.0505832,799.011,808.2784,806.26373,797.8022,634.21246,-0.29931640625,-0.008056640625,0.95562744140625,4.0673828125,-4.91973876953125,0.70281982421875,1,1.0,1.0,1.0,1.0,70.00
2021-04-12 09:35:40.185,0.99847364,0.12029922,0.81798816,1.0427597,0.48708194,-0.19212486,0.19311066,0.6510186,0.6096804,-0.09047433,0.22691496,0.72840995,0.40070128,-0.13600516,0.021010585,0.49228686,-0.25828102,-0.38637847,-0.33887315,0.042634986,773.6264,808.2784,802.23444,764.7619,658.7912,-0.310302734375,-0.0208740234375,0.95245361328125,4.5458984375,-3.835601806640625,0.79254150390625,1,1.0,1.0,1.0,1.0,70.00
2021-04-12 09:35:40.701,0.99847364,0.15242621,0.80299646,1.0427597,0.48708194,-0.22553279,0.13733953,0.6510186,0.6096804,-0.087816924,0.22910783,0.72840995,0.40070128,-0.16605657,-0.051521163,0.49228686,-0.25828102,-0.51407766,-0.3817573,0.042634986,900.54944,764.35895,807.47253,908.20514,802.23444,-0.31512451171875,-0.0185546875,0.94720458984375,4.867401123046875,-5.929107666015625,1.495361328125,1,1.0,1.0,1.0,1.0,70.00
2021-04-12 09:35:40.703,,,,,,,,,,,,,,,,,,,,,,,,,,,,,,,,,,,,,,/muse/elements/blink
2021-04-12 09:35:41.205,0.99847364,-0.012435885,-0.48777676,1.0427597,0.48708194,-0.16608354,-0.6373397,0.6510186,0.6096804,-0.14869775,-0.40286663,0.72840995,0.40070128,-0.3256733,-0.11881744,0.49228686,-0.25828102,-0.5273014,-0.3681591,0.042634986,838.0952,769.19415,802.23444,853.00366,777.6557,-0.34503173828125,-0.02691650390625,0.9351806640625,5.689849853515625,-2.474822998046875,-2.64678955078125,1,1.0,1.0,1.0,1.0,70.00
2021-04-12 09:35:41.710,0.99847364,-0.014629937,-0.4899242,1.0427597,0.48708194,-0.17243361,-0.6373306,0.6510186,0.6096804,-0.16291082,-0.4544954,0.72840995,0.40070128,-0.3214435,-0.08321093,0.49228686,-0.25828102,-0.4974675,-0.59019595,0.042634986,785.31134,795.78754,811.9048,778.46155,688.60803,-0.3297119140625,-0.0140380859375,0.93328857421875,4.119720458984375,-2.280426025390625,-0.79254150390625,1,2.0,1.0,1.0,2.0,70.00
2021-04-12 09:35:42.220,0.99847364,-0.014629937,-0.41215566,1.0427597,0.48708194,-0.17243361,-0.2623858,0.6510186,0.6096804,-0.16291082,-0.11369345,0.72840995,0.40070128,-0.3214435,0.0067970376,0.49228686,-0.25828102,-0.4974675,-0.60271657,0.042634986,817.5458,794.57874,797.8022,805.4579,823.9927,-0.33941650390625,-0.0189208984375,0.9427490234375,3.84307861328125,-6.2506103515625,0.575714111328125,1,2.0,1.0,1.0,2.0,70.00
2021-04-12 09:35:42.523,,,,,,,,,,,,,,,,,,,,,,,,,,,,,,,,,,,,,,/muse/elements/blink
2021-04-12 09:35:42.731,0.5896898,0.48106202,0.37252945,1.0427597,0.43213668,0.19004619,0.007429322,0.6510186,0.24131264,-0.07481117,0.082265384,0.72840995,0.09420751,0.07753449,0.016166218,0.49228686,0.01636076,-0.35284922,-0.45437557,0.042634986,880.0,803.44324,799.41394,881.6117,834.0659,-0.33642578125,-0.0223388671875,0.9407958984375,4.85992431640625,-5.3533935546875,1.4654541015625,1,1.0,1.0,1.0,1.0,70.00
2021-04-12 09:35:43.238,0.5896898,0.24121557,0.6398411,1.0427597,0.43213668,0.23895498,0.3425288,0.6510186,0.24131264,0.21078555,0.16937275,0.72840995,0.09420751,0.064161874,-0.042414118,0.49228686,0.01636076,-0.3755237,-0.38511756,0.042634986,534.68866,786.1172,838.9011,542.3443,713.1868,-0.3265380859375,-0.02618408203125,0.94293212890625,4.209442138671875,-6.26556396484375,1.742095947265625,1,1.0,1.0,1.0,1.0,70.00
2021-04-12 09:35:43.473,,,,,,,,,,,,,,,,,,,,,,,,,,,,,,,,,,,,,,/muse/elements/blink
2021-04-12 09:35:43.765,0.5896898,0.3478392,1.0057456,1.0427597,0.43213668,0.26609656,0.6754366,0.6510186,0.24131264,0.29002538,0.34702796,0.72840995,0.09420751,0.0019223293,-0.106451735,0.49228686,0.01636076,-0.3531129,-0.34844223,0.042634986,791.3553,794.17584,801.8315,790.9524,708.3516,-0.318115234375,-0.02642822265625,0.947509765625,4.23187255859375,-4.59075927734375,0.665435791015625,1,1.0,1.0,1.0,1.0,75.00
2021-04-12 09:35:44.268,0.5896898,0.42717084,1.1322966,1.0427597,0.43213668,0.31318298,0.7995485,0.6510186,0.24131264,0.30734035,0.36020258,0.72840995,0.09420751,-0.03285448,-0.12366542,0.49228686,0.01636076,-0.34673083,-0.3422611,0.042634986,785.7143,793.36993,807.47253,775.64105,708.3516,-0.32110595703125,-0.0245361328125,0.95062255859375,4.26177978515625,-4.6954345703125,0.5084228515625,1,1.0,1.0,1.0,1.0,75.00
2021-04-12 09:35:44.774,0.5896898,0.58842975,1.0514227,1.0427597,0.43213668,0.24530831,0.69875324,0.6510186,0.24131264,0.30067953,0.37116998,0.72840995,0.09420751,-0.07036695,0.018647078,0.49228686,0.01636076,-0.32399493,-0.42044535,0.042634986,817.9487,795.78754,799.011,826.0073,921.50183,-0.32244873046875,-0.0245361328125,0.94866943359375,4.3365478515625,-4.17205810546875,1.31591796875,1,1.0,1.0,1.0,1.0,75.00
2021-04-12 09:35:45.296,0.59759426,0.5634603,0.91033345,0.25388,0.08558983,0.18366325,0.55005497,0.11348173,0.607946,0.30067953,0.37116998,0.352727,0.48684675,-0.022414817,0.08157809,0.05747198,0.3850246,-0.30766523,-0.44281676,-0.2670411,784.10254,798.20514,803.8461,778.46155,653.1502,-0.33056640625,-0.02789306640625,0.9473876953125,3.925323486328125,-3.828125,1.2860107421875,1,1.0,1.0,1.0,1.0,75.00
2021-04-12 09:35:45.806,0.5402795,0.46787557,0.144436,0.39283216,-0.02564919,0.022258675,-0.21386705,0.12960023,0.62574726,0.2292144,0.114988826,0.50201267,0.39453945,0.0022102348,0.13469207,0.09783655,0.2646495,-0.31999373,-0.44487795,-0.29828897,799.011,806.6667,806.26373,791.3553,698.68134,-0.33282470703125,-0.02490234375,0.94598388671875,4.6356201171875,-5.33843994140625,1.973876953125,1,1.0,1.0,1.0,1.0,75.00
2021-04-12 09:35:45.882,,,,,,,,,,,,,,,,,,,,,,,,,,,,,,,,,,,,,,/muse/elements/blink
2021-04-12 09:35:46.317,0.8125074,0.6950267,0.7140872,0.85877043,0.5839103,0.13618635,0.1880373,0.7581916,0.8754043,0.5855189,0.32831955,1.0763055,0.3447411,0.12004474,0.15761316,0.21088335,0.2075284,-0.32365906,-0.45747086,-0.27777824,767.5824,798.20514,803.44324,762.74725,703.5165,-0.33282470703125,-0.02972412109375,0.94415283203125,4.015045166015625,-4.94964599609375,1.21124267578125,1,1.0,1.0,1.0,1.0,75.00
2021-04-12 09:35:46.819,0.8842868,0.68119204,0.7249597,1.1062376,0.6806837,0.10278597,0.21049073,0.9867065,0.8323949,0.5793235,0.318117,1.0763055,0.22866383,0.08577838,0.1057222,0.35017452,0.03271259,-0.2768916,-0.46724725,-0.29016855,815.9341,809.4872,799.011,813.5165,782.0879,-0.33001708984375,-0.03009033203125,0.94500732421875,5.4132080078125,-4.80010986328125,-0.61309814453125,1,1.0,1.0,1.0,1.0,75.00
2021-04-12 09:35:46.887,,,,,,,,,,,,,,,,,,,,,,,,,,,,,,,,,,,,,,/muse/elements/blink
2021-04-12 09:35:47.118,,,,,,,,,,,,,,,,,,,,,,,,,,,,,,,,,,,,,,/muse/elements/blink
2021-04-12 09:35:47.341,1.192321,0.624521,0.7070309,1.4190297,0.9949715,0.029704493,0.23179454,1.3401078,1.0911211,0.5793235,0.57319415,1.2565162,0.69915676,0.099639155,0.039866503,0.65666753,0.023172628,-0.24419957,-0.55584884,-0.14643377,792.5641,797.3993,799.81683,797.8022,661.6117,-0.324951171875,-0.02874755859375,0.9501953125,4.26177978515625,-4.224395751953125,1.07666015625,1,1.0,1.0,1.0,1.0,75.00
2021-04-12 09:35:47.855,1.1134945,0.38833952,0.24197523,1.2999228,0.884071,0.039631255,-6.7597843E-4,1.2489939,1.0467784,0.45715505,0.5384721,1.1833032,0.78981805,7.916751E-4,-0.060508788,0.6456733,0.059356898,-0.29331115,-0.5129829,-0.111841545,729.304,815.5311,793.36993,693.8461,608.8278,-0.32794189453125,-0.029541015625,0.9439697265625,4.844970703125,-4.284210205078125,0.261688232421875,1,1.0,1.0,1.0,1.0,75.00
2021-04-12 09:35:48.022,,,,,,,,,,,,,,,,,,,,,,,,,,,,,,,,,,,,,,/muse/elements/blink
2021-04-12 09:35:48.362,1.2198304,0.94166416,0.68205804,1.3375794,1.0757442,0.48359284,0.13389859,1.2967088,1.207041,0.70144206,0.6563043,1.1776725,0.8223368,0.03659257,0.07569011,0.68288916,0.08254461,-0.33654416,-0.47558463,-0.087648995,807.47253,799.011,811.9048,798.20514,659.19415,-0.32208251953125,-0.02581787109375,0.94329833984375,4.486083984375,-4.85992431640625,0.9869384765625,1,1.0,1.0,1.0,1.0,75.00
2021-04-12 09:35:48.874,1.1224326,1.0354427,0.8277301,1.2446351,1.1161721,0.5693446,0.26890302,1.2591592,1.1455302,0.70144206,0.65015614,1.1472983,0.59560615,0.040626917,0.12061888,0.6421818,0.07117972,-0.41268706,-0.4316491,-0.08546509,786.9231,830.4396,774.83514,775.2381,882.01465,-0.3192138671875,-0.0263671875,0.94842529296875,5.0543212890625,-5.5328369140625,0.635528564453125,1,1.0,1.0,1.0,1.0,75.00
2021-04-12 09:35:49.385,1.3220595,1.1981473,1.0461609,1.2446351,1.2792119,0.7538911,0.58661467,1.2591592,1.1300114,0.70777386,0.6758214,1.1472983,0.5724859,0.08784668,0.22689503,0.6421818,0.0038943589,-0.40409553,-0.45044914,-0.08546509,819.15753,808.68134,803.44324,831.6484,814.3223,-0.32476806640625,-0.03497314453125,0.9505615234375,4.164581298828125,-4.83001708984375,0.059814453125,1,1.0,1.0,1.0,1.0,75.00
2021-04-12 09:35:49.893,1.2235281,1.0849915,1.016248,1.2446351,0.91071033,0.6701356,0.62115157,1.2591592,1.1579843,0.5934248,0.60122633,1.1472983,0.5450257,0.08420119,0.2703449,0.6421818,-0.013564792,-0.48253992,-0.47742447,-0.08546509,770.0,801.8315,805.8608,777.25275,599.9634,-0.30780029296875,-0.029052734375,0.950927734375,5.061798095703125,-6.975860595703125,1.697235107421875,1,1.0,1.0,1.0,1.0,75.00
2021-04-12 09:35:50.404,1.0339555,0.9932585,0.9183122,1.2446351,0.50785714,0.6079702,0.5646828,1.2591592,0.9567692,0.5803598,0.5623446,1.1472983,0.40812126,-0.00556575,0.25165218,0.6421818,0.0073969536,-0.39689368,-0.45340216,-0.08546509,776.8498,806.26373,804.2491,764.7619,694.2491,-0.2969970703125,-0.03143310546875,0.9530029296875,4.9346923828125,-6.02630615234375,0.897216796875,1,1.0,1.0,1.0,1.0,75.00
2021-04-12 09:35:50.915,0.9663035,0.6623222,0.6025414,0.7396892,0.5799879,0.26995066,0.32587406,0.48397404,0.9743399,0.37893182,0.46545872,0.73760605,0.35719544,-0.11302834,0.12833436,0.22960864,-0.007769107,-0.35022447,-0.4322226,-0.092052065,826.0073,788.1319,830.0366,834.87177,805.8608,-0.27508544921875,-0.01971435546875,0.95867919921875,4.38140869140625,-7.65625,8.351593017578125,1,1.0,1.0,1.0,1.0,75.00
2021-04-12 09:35:51.437,0.9249304,0.9276696,0.91739637,1.0709755,0.65410787,0.58960265,0.5971782,0.7903307,0.61769134,0.5593526,0.3982874,0.7983421,0.22827934,-0.11529405,-0.027410626,0.27744165,-0.017522573,-0.30321693,-0.3904962,-0.08147271,796.5934,803.0403,792.96704,785.7143,639.0476,-0.1793212890625,-0.02789306640625,0.98468017578125,-3.611297607421875,-13.02459716796875,17.3760986328125,1,1.0,1.0,1.0,1.0,75.00
2021-04-12 09:35:51.943,1.2165318,1.0236409,1.2352544,1.5406774,0.95959055,0.7092062,0.8592965,1.2418848,0.85022914,0.55762726,0.43829596,0.9323422,0.3337603,-0.0912364,-0.015316079,0.35067344,-0.026740609,-0.37675726,-0.39013106,-0.09363503,817.9487,800.2198,790.14655,813.5165,739.7802,-0.13238525390625,-0.05889892578125,0.9908447265625,-0.680389404296875,-3.730926513671875,12.80029296875,1,1.0,1.0,1.0,1.0,75.00
2021-04-12 09:35:52.465,1.2675018,0.9820301,1.254598,1.5583495,0.9604934,0.68822885,0.8416232,1.2432584,0.94037366,0.56818676,0.43570104,0.95309496,0.42380893,-0.06768115,0.0025844718,0.45304507,0.09503704,-0.40485358,-0.3193207,0.011682963,797.3993,796.99634,804.65204,790.14655,738.1685,-0.14825439453125,-0.0782470703125,0.99420166015625,4.015045166015625,-3.66363525390625,0.5682373046875,1,1.0,1.0,1.0,1.0,75.00
2021-04-12 09:35:52.984,1.1938269,0.35432738,0.8674533,1.4480226,0.86279213,0.17123844,0.45403868,1.1223284,0.92621076,0.2280882,0.39874578,0.93781805,0.44446537,-0.05867065,0.055825118,0.43292072,0.11134044,-0.4554676,-0.21864992,-0.0011990523,484.72528,835.2747,782.49084,454.5055,697.8755,-0.1748046875,-0.04852294921875,1.005859375,5.1141357421875,-0.605621337890625,-20.239715576171875,1,1.0,1.0,1.0,1.0,75.00
2021-04-12 09:35:53.228,,,,,,,,,,,,,,,,,,,,,,,,,,,,,,,,,,,,,,/muse/elements/blink
2021-04-12 09:35:53.494,,,,,,,,,,,,,,,,,,,,,,,,,,,,,,,,,,,,,,/muse/elements/blink
2021-04-12 09:35:53.496,0.95133626,0.010908427,0.15074863,0.9850538,0.3827337,-0.36799058,-0.18473172,0.5768958,0.81080765,-0.07656935,0.34029424,0.6936429,0.4109745,8.405907E-4,0.054406237,0.46291524,0.08483785,-0.4349112,-0.18630031,0.027484683,810.696,819.9634,801.8315,813.91943,856.2271,-0.1800537109375,-0.11859130859375,0.9755859375,8.994598388671875,0.2392578125,-23.148193359375,1,1.0,1.0,1.0,1.0,75.00
2021-04-12 09:35:54.012,0.745594,0.034824852,0.04723012,0.80210304,0.094001494,-0.37170467,-0.19046736,0.37840435,0.43056726,-0.07656935,0.34029424,0.46273786,0.31036907,-0.0062060254,0.09735769,0.4287182,-0.059283707,-0.4303083,-0.15901901,-0.011782085,793.36993,813.91943,808.2784,790.9524,550.80585,-0.2064208984375,-0.11865234375,0.97369384765625,9.091796875,1.07666015625,-3.102874755859375,1,1.0,1.0,1.0,1.0,70.00
2021-04-12 09:35:54.539,0.745594,1.0005356,0.16219522,0.80210304,0.094001494,0.61007565,-0.04489448,0.37840435,0.43056726,0.1909335,0.32119393,0.46273786,0.31036907,0.24762711,0.32763758,0.4287182,-0.059283707,-0.17680848,-0.28781745,-0.011782085,804.65204,799.41394,806.26373,809.89014,781.685,-0.24053955078125,-0.05291748046875,0.98016357421875,7.73101806640625,-2.10845947265625,0.7177734375,1,1.0,1.0,1.0,1.0,70.00
2021-04-12 09:35:55.053,0.6173129,0.7840764,-0.035001814,0.71695215,0.29848617,0.37909713,-0.15138745,0.3708284,0.2555387,0.25857216,0.12163499,0.47445837,0.26240522,0.24516942,0.25386536,0.38993102,-0.02120418,-0.19643745,-0.27933538,-0.36514735,782.0879,803.44324,801.4286,776.04395,582.6374,-0.27239990234375,-0.05816650390625,0.96160888671875,5.6524658203125,-0.979461669921875,2.385101318359375,1,1.0,1.0,1.0,1.0,70.00
2021-04-12 09:35:55.573,0.59768784,0.69310635,0.06404452,0.7865093,0.5111137,0.28069025,-0.09783907,0.6928778,0.3456465,0.35102665,0.15518817,0.5074332,0.27321666,0.19258031,0.21248259,0.34612516,-0.062268842,-0.23433411,-0.29324743,-0.23313881,791.3553,796.5934,811.50183,784.5055,693.8461,-0.30975341796875,-0.01776123046875,0.95208740234375,8.755340576171875,-4.41131591796875,5.263671875,1,1.0,1.0,1.0,1.0,70.00
2021-04-12 09:35:56.024,,,,,,,,,,,,,,,,,,,,,,,,,,,,,,,,,,,,,,/muse/elements/blink
2021-04-12 09:35:56.091,0.7140271,0.51419437,0.296683,0.8213948,0.58810484,0.12898606,0.07522134,0.72938067,0.82709575,0.5935525,0.33791465,0.4959888,0.31685966,0.16945572,0.06851214,0.27490082,-0.13214728,-0.28792593,-0.3145291,-0.19514968,822.381,806.6667,796.1905,821.978,897.72894,-0.25994873046875,0.0584716796875,0.96978759765625,8.531036376953125,-7.8656005859375,7.693634033203125,1,1.0,1.0,1.0,1.0,70.00
2021-04-12 09:35:56.604,0.91638386,0.8071856,0.65492344,0.8995392,0.89274925,0.52945375,0.38848194,0.9299577,1.0424968,0.6440171,0.381094,0.76475644,0.51861715,0.22713977,0.0110186655,0.42755872,-0.21432617,-0.3557512,-0.41103086,-0.16260123,813.91943,805.8608,801.02563,822.7839,850.989,-0.26318359375,0.0482177734375,0.96636962890625,2.34771728515625,-6.033782958984375,4.089813232421875,1,1.0,1.0,1.0,1.0,70.00
2021-04-12 09:35:57.113,0.97445166,0.80754656,0.7187108,0.7732158,0.88353974,0.5640781,0.41938412,0.7334055,1.064188,0.64251715,0.369479,0.8557004,0.5386623,0.20521729,-0.076724626,0.46113282,-0.15773104,-0.3683601,-0.4085145,-0.13134184,788.93774,797.8022,792.96704,796.99634,705.9341,-0.24847412109375,0.03948974609375,0.978759765625,3.267364501953125,-6.26556396484375,0.575714111328125,1,1.0,1.0,1.0,1.0,70.00
2021-04-12 09:35:57.637,0.88616467,0.70893663,0.6430944,0.6413849,0.8682839,0.47537345,0.33352834,0.65413034,1.0564297,0.6396934,0.36893475,0.87040573,0.5078501,0.15465172,-0.019820198,0.45932338,-0.123170204,-0.35579252,-0.37470794,-0.11985532,829.2308,809.0842,805.8608,835.6777,861.8681,-0.22509765625,0.02569580078125,0.968994140625,5.4730224609375,-3.70849609375,-9.4207763671875,1,1.0,1.0,1.0,1.0,70.00
2021-04-12 09:35:58.161,0.6668719,0.9547264,0.83312196,0.9653772,0.5953102,0.6965406,0.49704725,0.6663206,0.79964435,0.7688551,0.5807772,0.8775664,0.29311794,0.014068965,0.1123655,0.33901963,-0.07495302,-0.32755497,-0.32383692,-0.07931605,797.8022,803.44324,808.2784,795.38464,738.5714,-0.2454833984375,-0.00238037109375,0.96466064453125,2.691650390625,-2.88604736328125,-0.127105712890625,1,1.0,1.0,1.0,1.0,70.00
2021-04-12 09:35:58.446,,,,,,,,,,,,,,,,,,,,,,,,,,,,,,,,,,,,,,/muse/elements/blink
2021-04-12 09:35:58.676,0.14420718,1.0262845,0.83673066,1.0708113,0.5082181,0.72072387,0.5291162,0.77727425,0.6899471,0.7688551,0.5807772,0.7819614,0.14873515,0.045877952,0.1534892,0.37438443,-0.19244188,-0.30938458,-0.25301877,-0.09584675,830.84247,821.5751,790.14655,827.2161,913.0403,-0.24578857421875,0.02398681640625,0.96380615234375,3.506622314453125,-0.979461669921875,-3.3795166015625,1,1.0,1.0,1.0,1.0,70.00
2021-04-12 09:35:59.184,1.0578734,1.0173638,0.83746594,1.1418117,0.8565895,0.6979808,0.5019916,0.87771475,0.72372776,0.7729459,0.5807772,0.75664175,0.39137498,0.17995703,0.09147161,0.40952092,-0.15254438,-0.2995364,-0.18965882,-0.07368256,810.293,798.60803,801.8315,822.381,771.2088,-0.26800537109375,0.02984619140625,0.98846435546875,5.540313720703125,-3.46923828125,-5.540313720703125,1,1.0,1.0,1.0,1.0,70.00
2021-04-12 09:35:59.696,0.93067825,0.604449,0.4071997,0.8638783,0.69899714,0.14100416,0.025922414,0.7449179,0.72372776,0.5818428,0.37250128,0.74655527,0.3622744,0.21148796,-0.061654907,0.40072817,-0.13607638,-0.28843316,-0.20325562,-0.050394505,794.57874,799.011,802.6374,784.90845,687.8022,-0.30377197265625,0.00103759765625,0.94635009765625,1.1065673828125,-1.39068603515625,0.740203857421875,1,1.0,1.0,1.0,1.0,70.00
2021-04-12 09:36:00.218,,,,,,,,,,,,,,,,,,,,,,,,,,,,,,,,,,,,,,/muse/elements/blink
2021-04-12 09:36:00.219,0.7113339,0.22955555,0.17038485,0.61103123,0.5017621,-0.20135982,-0.39611718,0.5606816,0.6811751,0.2375652,-0.13289765,0.601437,0.3861258,0.14468859,-0.082809195,0.33428,-0.15756205,-0.21937853,-0.28084832,-0.029532101,867.1062,812.3077,798.60803,861.4652,683.36993,-0.3450927734375,0.00830078125,0.93701171875,7.70111083984375,0.052337646484375,1.846771240234375,1,1.0,1.0,1.0,1.0,70.00
2021-04-12 09:36:00.741,0.42176107,0.14003403,0.4065367,0.41975754,0.15311429,-0.091906,0.22618598,0.38295874,0.46635437,0.35497522,0.052424356,0.46549308,0.3961249,0.013047943,-0.14777583,0.276566,-0.14463517,-0.21015315,-0.41760418,-0.015292143,820.3663,805.4579,805.05493,819.9634,733.3333,-0.34014892578125,-0.0087890625,0.93768310546875,4.246826171875,-6.736602783203125,-1.532745361328125,1,1.0,1.0,1.0,1.0,70.00
2021-04-12 09:36:01.242,0.41494983,0.04418942,0.4010786,0.45299673,0.26037636,-0.047224887,0.24541453,0.2893916,0.45580804,0.2907752,0.057526987,0.2772759,0.43814787,-0.0755445,-0.13600455,0.3429562,-0.16595308,-0.24718623,-0.5005225,-0.04384021,832.0513,801.02563,806.6667,843.73627,806.6667,-0.31964111328125,0.0013427734375,0.9443359375,4.80010986328125,-5.330963134765625,0.351409912109375,1,1.0,1.0,1.0,1.0,70.00
2021-04-12 09:36:01.776,0.41494983,-0.03337424,0.38917527,0.45299673,0.26037636,-2.5551213E-4,0.2613875,0.2893916,0.45580804,0.293359,0.028236896,0.2772759,0.43814787,-0.07994816,-0.25143448,0.3429562,-0.16595308,-0.30875146,-0.5413538,-0.04384021,812.71063,804.65204,806.26373,819.9634,690.6227,-0.31536865234375,-0.00286865234375,0.953125,4.942169189453125,-0.61309814453125,1.936492919921875,1,1.0,1.0,1.0,1.0,70.00
2021-04-12 09:36:02.278,0.33126143,-0.2470676,-0.089073814,0.59236646,-0.20014092,-0.18851025,-0.25131246,0.17183435,0.26635957,0.08891829,-0.024295649,0.6389164,-0.07021644,-0.20360713,-0.1848326,0.16215163,-0.15493467,-0.36477262,-0.47168136,-0.15706949,773.22345,803.0403,803.8461,771.6117,560.87915,-0.34490966796875,-0.00177001953125,0.93853759765625,4.97955322265625,-6.213226318359375,1.861724853515625,1,1.0,1.0,1.0,1.0,70.00
2021-04-12 09:36:02.793,0.28303683,-0.32670158,-0.18728592,0.4991336,-0.20371923,-0.32267863,-0.29989317,0.096003965,0.4094606,-0.095262036,-0.08478309,0.6389164,0.01950551,-0.12540548,-0.16253437,0.15688087,-0.26390108,-0.42064095,-0.41919318,-0.1682878,568.5348,808.68134,819.15753,550.40295,790.14655,-0.32232666015625,-0.00128173828125,0.9483642578125,4.987030029296875,-4.957122802734375,1.435546875,1,1.0,1.0,1.0,1.0,70.00
2021-04-12 09:36:02.945,,,,,,,,,,,,,,,,,,,,,,,,,,,,,,,,,,,,,,/muse/elements/blink
2021-04-12 09:36:03.297,0.28303683,-0.020742347,0.0076594385,0.3474622,-0.20371923,-0.35917115,-0.064124115,2.0849761E-4,0.4094606,-0.05263903,0.07695303,0.6389164,0.01950551,-0.0010764188,-0.11377105,0.1567516,-0.26390108,-0.44945693,-0.41572368,-0.15187472,820.3663,801.02563,805.4579,833.2601,845.7509,-0.313720703125,-0.001953125,0.9532470703125,4.299163818359375,-5.644989013671875,0.3887939453125,1,1.0,1.0,1.0,1.0,70.00
2021-04-12 09:36:03.805,0.21408701,0.101706594,0.13331026,0.21603617,-0.20823398,-0.25467417,0.048526682,-0.11269404,0.31982663,0.0542507,0.20207793,0.023318622,0.110578164,0.057614192,-0.09258405,0.14614348,-0.45534176,-0.33968115,-0.3405743,-0.19163308,828.8278,807.47253,809.0842,836.4835,883.6264,-0.3153076171875,-0.00860595703125,0.95281982421875,4.44122314453125,-3.805694580078125,0.76263427734375,1,1.0,1.0,1.0,1.0,70.00
2021-04-12 09:36:04.319,0.21408701,0.06859057,0.08711985,0.21603617,-0.20823398,-0.17013288,0.019422764,-0.11269404,0.31982663,0.13120171,0.20274329,0.023318622,0.110578164,-0.01579953,-0.056548864,0.14614348,-0.45534176,-0.36585325,-0.3166072,-0.19163308,784.5055,800.6227,805.05493,784.10254,723.2601,-0.3187255859375,-0.00860595703125,0.951171875,4.7552490234375,-4.762725830078125,1.158905029296875,1,1.0,1.0,1.0,1.0,80.00
2021-04-12 09:36:04.831,0.76569635,-0.1654183,-0.1134167,0.64626217,0.6353267,-0.18326001,-0.21423076,0.6776907,0.5109856,0.14064218,0.15009122,0.6502327,0.23520756,-0.13974883,-0.07008541,0.29357123,-0.32348242,-0.41915968,-0.31657276,-0.31543878,819.5604,810.293,808.68134,824.3956,865.89746,-0.3150634765625,-0.01129150390625,0.953125,4.80010986328125,-5.2337646484375,0.76263427734375,1,1.0,1.0,1.0,1.0,80.00
2021-04-12 09:36:05.348,0.5451571,-0.44279987,-0.44940558,0.51926255,0.46672308,-0.22107676,-0.48246855,0.47340125,0.5109856,0.12274455,-0.049956784,0.70589656,0.26351252,-0.1450906,-0.13559616,0.26215604,-0.21191199,-0.55999756,-0.40838772,-0.2031626,806.26373,801.4286,800.6227,826.8132,819.15753,-0.31207275390625,-0.0115966796875,0.95703125,3.745880126953125,-4.269256591796875,1.06170654296875,1,1.0,1.0,1.0,1.0,80.00
2021-04-12 09:36:05.857,0.5868638,-0.60235614,-0.40067995,0.55339557,0.5197344,-0.29444045,-0.30475986,0.50291544,0.9579838,0.09189488,-0.19435641,0.8607949,0.45036617,-0.06969895,-0.16274267,0.40960178,-0.22237153,-0.466412,-0.38802034,-0.20390195,820.3663,800.2198,803.8461,836.08057,1196.3004,-0.31317138671875,-0.00946044921875,0.95172119140625,4.942169189453125,-6.841278076171875,-0.366363525390625,1,1.0,1.0,1.0,1.0,80.00
2021-04-12 09:36:06.364,0.5310585,-0.45160484,-0.38223845,0.4325151,0.52536356,-0.10293471,-0.16728774,0.49367884,0.95738584,0.09246215,-0.1611851,0.8607949,0.5116314,-0.058787618,-0.17449625,0.3880507,-0.1156692,-0.44448817,-0.39411828,-0.16497764,763.95605,798.20514,807.0696,759.12085,560.87915,-0.26434326171875,-0.02325439453125,0.95623779296875,7.529144287109375,-12.269439697265625,5.241241455078125,1,1.0,1.0,1.0,1.0,80.00
2021-04-12 09:36:06.632,,,,,,,,,,,,,,,,,,,,,,,,,,,,,,,,,,,,,,/muse/elements/blink
2021-04-12 09:36:06.892,0.6200079,-0.344508,0.2165177,0.5043225,0.6775331,-0.027937323,-0.029986624,0.6472091,0.970328,0.003566387,-0.00420421,0.85928684,0.5760523,-0.109184936,-0.13168116,0.45442197,-0.08566557,-0.37221295,-0.36089432,-0.21265037,815.12823,804.65204,809.89014,804.2491,740.58606,-0.287353515625,-0.0206298828125,0.958740234375,4.344024658203125,-4.329071044921875,0.231781005859375,1,1.0,1.0,1.0,1.0,80.00
2021-04-12 09:36:07.420,0.6649871,-0.008922452,0.771864,0.52352196,0.73495865,0.0648359,0.36037502,0.7315226,0.91819793,0.0017667023,0.26788822,0.711407,0.54747206,-0.0434939,-0.13516653,0.36353466,0.033665307,-0.29255772,-0.35745576,-0.19630009,823.9927,807.0696,803.0403,831.2454,843.73627,-0.2890625,0.00518798828125,0.9654541015625,5.749664306640625,-3.6187744140625,0.680389404296875,1,1.0,1.0,1.0,1.0,80.00
2021-04-12 09:36:07.922,0.45162177,0.65315795,0.90508837,0.43107343,0.79302424,0.3240372,0.53114367,0.718732,0.6952388,0.37650132,0.39977434,0.5229296,0.4473333,0.066671856,-0.027880866,0.27291715,0.07750295,-0.29283288,-0.27206627,-0.17343187,799.81683,794.9817,794.57874,809.4872,763.1502,-0.302978515625,0.00341796875,0.9525146484375,7.43194580078125,-7.783355712890625,5.046844482421875,1,1.0,1.0,1.0,1.0,80.00
2021-04-12 09:36:08.301,,,,,,,,,,,,,,,,,,,,,,,,,,,,,,,,,,,,,,/muse/elements/blink
2021-04-12 09:36:08.430,0.45162177,0.91490984,0.9483906,0.43107343,0.79302424,0.4929104,0.60223067,0.718732,0.6952388,0.5203041,0.49888563,0.5229296,0.4473333,0.109548524,-0.010715079,0.27291715,0.07750295,-0.22930661,-0.219024,-0.17343187,840.5128,805.4579,801.8315,853.8095,886.8498,-0.2445068359375,0.007568359375,0.97119140625,4.94964599609375,-9.40582275390625,1.15142822265625,1,1.0,1.0,1.0,1.0,80.00
2021-04-12 09:36:08.948,0.45162177,0.8897795,1.0535285,0.43107343,0.79302424,0.45862344,0.5938747,0.718732,0.6952388,0.5203041,0.46291122,0.5229296,0.4473333,0.14665899,-0.0023889309,0.27291715,0.07750295,-0.1989674,-0.2179486,-0.17343187,778.46155,800.6227,805.05493,775.2381,684.57874,-0.244140625,-0.0035400390625,0.96356201171875,5.75714111328125,-6.7889404296875,1.36077880859375,1,1.0,1.0,1.0,1.0,80.00
2021-04-12 09:36:09.452,0.45162177,0.52334,0.96986735,0.43107343,0.79302424,0.09622306,0.42614096,0.718732,0.6952388,0.42076883,0.38264814,0.5229296,0.4473333,0.09459312,-0.01262906,0.27291715,0.07750295,-0.1287632,-0.22659478,-0.17343187,803.44324,801.8315,802.6374,811.50183,782.49084,-0.18060302734375,-0.00848388671875,0.98614501953125,4.029998779296875,-6.50482177734375,1.143951416015625,1,2.0,1.0,1.0,2.0,80.00
2021-04-12 09:36:09.966,0.020180643,-0.06614972,0.82872623,-0.20797133,-0.14930746,-0.31349853,0.27156937,0.047114175,0.058508497,-0.33451346,0.22238036,0.48934737,0.28658798,0.057824522,-0.04090334,0.24266519,0.15794206,-0.15611789,-0.26908782,-0.13396586,832.0513,807.8755,801.8315,840.9158,1056.4835,-0.1729736328125,-0.0093994140625,0.986572265625,5.2337646484375,-11.132965087890625,0.994415283203125,1,1.0,1.0,1.0,1.0,80.00
2021-04-12 09:36:10.486,0.2478697,-0.22542392,-0.09536415,0.0989279,-0.2376324,-0.49204576,-0.31130445,-0.09751345,0.071062304,-0.26094916,0.00317747,0.48934737,0.23844567,-0.07763761,-0.019187618,0.21429153,0.22670977,-0.18746082,-0.318974,-0.082507916,931.5751,816.337,794.9817,936.0073,767.1795,-0.148681640625,-0.02117919921875,0.99566650390625,3.887939453125,-4.62066650390625,0.418701171875,1,1.0,1.0,1.0,1.0,80.00
2021-04-12 09:36:10.565,,,,,,,,,,,,,,,,,,,,,,,,,,,,,,,,,,,,,,/muse/elements/blink
2021-04-12 09:36:10.994,0.2478697,0.3382289,0.77265865,0.0989279,-0.2376324,0.040359396,0.5219919,-0.09751345,0.071062304,-0.05075084,0.13662861,0.48934737,0.23844567,-0.009969548,-0.070478566,0.21429153,0.22670977,-0.27000377,-0.41774017,-0.082507916,786.1172,808.2784,809.89014,780.07324,543.5531,-0.14178466796875,-0.01312255859375,0.9910888671875,4.927215576171875,-5.525360107421875,1.614990234375,1,1.0,1.0,1.0,1.0,80.00
2021-04-12 09:36:11.507,0.38707453,0.4961752,0.91455406,0.2893065,-0.34309843,0.13870922,0.57850987,-0.5932424,-0.13124843,0.19828847,0.23332219,0.34245074,0.14900143,-0.018961623,0.010766489,0.15106802,0.25812608,-0.32338884,-0.42524418,-0.020601932,796.99634,804.65204,812.71063,779.67035,730.5128,-0.15478515625,-0.01556396484375,0.98956298828125,5.330963134765625,-2.519683837890625,4.5458984375,1,1.0,1.0,1.0,1.0,80.00
2021-04-12 09:36:12.019,0.38707453,1.000973,1.1492032,0.2893065,-0.34309843,0.78704923,0.8080406,-0.5932424,-0.13124843,0.60408443,0.57843673,0.34245074,0.14900143,0.008799655,0.035468075,0.15106802,0.25812608,-0.24149081,-0.37117335,-0.020601932,814.7253,800.6227,804.65204,811.50183,788.5348,-0.15582275390625,-0.006591796875,0.99163818359375,4.32159423828125,-3.551483154296875,0.904693603515625,1,1.0,1.0,1.0,1.0,80.00
2021-04-12 09:36:12.529,0.8726058,0.9434015,0.9089273,1.1921792,0.49658564,0.7560093,0.5109464,0.8367582,0.82886785,0.60408443,0.57843673,0.79065216,0.42064184,-0.12513886,0.108830184,0.44263986,0.100069605,-0.19338015,-0.26369354,-0.0946119,764.7619,809.89014,785.7143,749.45056,838.9011,-0.1568603515625,-0.00982666015625,0.9927978515625,4.56085205078125,-2.908477783203125,-0.725250244140625,1,1.0,1.0,1.0,1.0,80.00
2021-04-12 09:36:12.819,,,,,,,,,,,,,,,,,,,,,,,,,,,,,,,,,,,,,,/muse/elements/blink
2021-04-12 09:36:13.042,0.8726058,0.93591547,0.74262196,1.1921792,0.49658564,0.7381794,0.48820782,0.8367582,0.82886785,0.60408443,0.6579117,0.79065216,0.42064184,-0.010793314,0.1477061,0.44263986,0.100069605,-0.21776456,-0.27327636,-0.0946119,814.3223,806.26373,806.26373,807.0696,645.89746,-0.1732177734375,-0.014892578125,0.9852294921875,4.486083984375,-4.463653564453125,0.426177978515625,1,1.0,1.0,1.0,1.0,80.00
2021-04-12 09:36:13.559,0.60687095,0.5390395,0.4348293,0.76544726,0.43884033,-0.034462955,0.2119943,0.5863444,0.28202954,-0.055857513,0.612296,0.23177165,0.34004778,0.050690312,0.16604826,0.3660684,-0.048249096,-0.3198785,-0.24000421,-0.19081853,782.49084,803.44324,800.6227,772.01465,588.2784,-0.1640625,-0.01995849609375,0.98822021484375,4.807586669921875,-4.598236083984375,-0.418701171875,1,1.0,1.0,1.0,1.0,80.00
2021-04-12 09:36:14.064,0.44693902,0.8028783,0.6615378,0.5653859,0.44280916,0.30232844,0.36946827,0.5707962,0.16112362,0.35065863,0.6212034,0.13563608,0.29779857,0.15570754,0.124360114,0.31521687,-0.09626326,-0.38801774,-0.30876014,-0.21818464,785.31134,802.6374,799.81683,776.04395,740.58606,-0.16986083984375,-0.01873779296875,0.98876953125,4.6954345703125,-4.08233642578125,1.016845703125,1,1.0,1.0,1.0,1.0,80.00
2021-04-12 09:36:14.593,0.41454327,0.78111184,0.65823376,0.40999514,0.07507123,0.29137683,0.31950337,0.37727222,0.18940571,0.35065863,0.6187108,0.49799258,0.17036647,0.09500505,0.040328737,0.16648768,-0.2151017,-0.38493022,-0.3215405,-0.20833486,774.0293,776.4469,822.381,807.8755,729.707,-0.168701171875,-0.026611328125,0.98486328125,4.486083984375,-4.6356201171875,0.67291259765625,1,1.0,1.0,1.0,1.0,75.00
2021-04-12 09:36:15.118,0.5723212,0.7674648,0.54513407,0.6248574,0.34675598,0.42418882,0.3208486,0.2984248,0.52718836,0.4580974,0.37383634,0.49877334,0.2469081,0.107484266,0.014986456,0.30667344,-0.0021132159,-0.3238845,-0.3177915,-0.19518824,786.9231,825.6044,789.7436,759.92676,594.7253,-0.1746826171875,-0.02056884765625,0.98980712890625,4.9945068359375,-5.016937255859375,1.233673095703125,1,1.0,1.0,1.0,1.0,75.00
2021-04-12 09:36:15.629,0.55015,0.8302003,0.6153728,0.7101678,0.46437266,0.5469132,0.34598032,0.33121407,0.56033564,0.5379985,0.36500663,0.3017786,0.30120185,0.10704539,0.04466543,0.31275517,0.07371751,-0.22917502,-0.2777069,-0.100891285,777.6557,793.7729,799.011,787.326,765.9707,-0.17352294921875,-0.01849365234375,0.98736572265625,4.792633056640625,-4.284210205078125,1.5252685546875,1,1.0,1.0,1.0,1.0,75.00
2021-04-12 09:36:16.133,0.5647948,0.8741527,0.6387154,0.6718441,0.48664844,0.580556,0.3482508,0.30036637,0.55629814,0.5379985,0.3554885,0.2981251,0.28997594,0.10750105,0.0607694,0.33409274,0.11363606,-0.17455025,-0.17186613,-0.07924508,771.6117,799.011,799.011,760.7326,532.674,-0.1729736328125,-0.02374267578125,0.9864501953125,4.88983154296875,-4.8150634765625,0.97198486328125,1,1.0,1.0,1.0,1.0,75.00
2021-04-12 09:36:16.641,0.3420247,0.71778363,0.5566674,0.48846224,0.34607723,0.4474655,0.14698495,0.21905851,0.42758968,0.4650647,0.32622543,0.35018486,0.23219198,-0.002300768,0.06946131,0.26845708,0.03088109,-0.23174225,-0.23149335,-0.0013514895,802.6374,805.05493,802.6374,794.57874,771.6117,-0.1719970703125,-0.02325439453125,0.9844970703125,4.5159912109375,-4.673004150390625,0.635528564453125,1,1.0,1.0,1.0,1.0,75.00
2021-04-12 09:36:17.154,0.13165735,0.1981617,0.12406114,0.11255234,0.20435472,0.06514767,-0.24324341,-0.0904878,0.44579235,0.17436296,0.110892765,0.4185648,0.19410577,-5.152506E-4,0.048240393,0.28860572,-0.07060771,-0.27216575,-0.18866453,0.0013102912,823.1868,805.8608,799.41394,835.2747,925.12823,-0.1676025390625,-0.02154541015625,0.98651123046875,5.12908935546875,-4.613189697265625,0.5084228515625,1,1.0,1.0,1.0,1.0,75.00
2021-04-12 09:36:17.657,0.3676736,0.65252113,0.4186306,0.09949491,0.5235283,0.24677962,-0.022548575,0.28697592,0.55627716,0.1400785,0.499769,0.5361448,0.26260492,0.062453035,0.05519884,0.29518366,-0.091074884,-0.34599537,-0.22934707,0.010734825,759.12085,801.4286,806.6667,753.0769,572.5641,-0.16815185546875,-0.0189208984375,0.9908447265625,4.47113037109375,-4.29168701171875,0.6280517578125,1,1.0,1.0,1.0,1.0,75.00
2021-04-12 09:36:17.946,,,,,,,,,,,,,,,,,,,,,,,,,,,,,,,,,,,,,,/muse/elements/blink
2021-04-12 09:36:18.170,0.46359536,0.7931193,0.62301844,0.14822592,0.62513757,0.3043481,0.11273127,0.4423129,0.561648,0.16688274,0.51917934,0.5483068,0.29845768,0.11122006,0.08291804,0.32878345,-0.096804604,-0.42976147,-0.22703719,-0.0014379779,805.8608,803.44324,807.8755,799.41394,806.26373,-0.1617431640625,-0.02008056640625,0.98388671875,4.702911376953125,-4.08233642578125,1.517791748046875,1,1.0,1.0,1.0,1.0,75.00
2021-04-12 09:36:18.679,0.7412318,0.8291793,0.8236886,0.34658492,0.8726689,0.37457082,0.4039637,0.72573674,0.46746808,0.1723015,0.52808255,0.53062916,0.33563635,0.032289725,0.22030078,0.322859,-0.012144658,-0.4767952,-0.24919806,-0.070699185,831.6484,809.4872,801.4286,841.7216,862.27106,-0.16436767578125,-0.02685546875,0.9852294921875,5.076751708984375,-5.323486328125,-1.39068603515625,1,1.0,1.0,1.0,1.0,75.00
2021-04-12 09:36:19.189,0.7775045,0.37391478,0.6402933,0.36449134,0.9258862,0.20544413,0.2834205,0.7737454,0.46102867,-0.015135247,0.16637191,0.5249599,0.340069,-0.009924533,0.26202676,0.3216565,0.0054307026,-0.48645782,-0.27886632,-0.07280212,842.52747,806.6667,799.011,856.2271,727.28937,-0.20745849609375,-0.02587890625,0.9791259765625,5.316009521484375,0.59814453125,4.2767333984375,1,1.0,1.0,1.0,1.0,75.00
2021-04-12 09:36:19.705,0.7903151,0.35520995,0.41592023,0.8720352,0.89609593,0.3164686,0.17077567,0.80607164,0.5160404,0.13176404,0.1426991,0.35852352,0.31791,-0.020318165,0.19678329,0.19984402,0.15110588,-0.43582115,-0.24857816,0.00790004,790.54944,809.89014,803.44324,795.78754,655.9707,-0.25164794921875,-0.0118408203125,0.968994140625,4.344024658203125,-2.01873779296875,2.773895263671875,1,1.0,1.0,1.0,1.0,75.00
2021-04-12 09:36:20.216,0.86977607,0.3930017,-0.026285494,0.80868363,0.9027805,0.29570872,-0.1021614,0.754754,0.6629788,0.16811526,0.27576476,0.43689734,0.31568533,-0.03578216,0.11977902,0.32325166,0.04399487,-0.3753716,-0.22733386,-0.007603992,782.8938,801.02563,811.9048,771.2088,728.0952,-0.29638671875,-0.00592041015625,0.95513916015625,5.09918212890625,-3.760833740234375,1.30096435546875,1,1.0,1.0,1.0,1.0,75.00
2021-04-12 09:36:20.721,0.81521463,0.43462887,0.15815575,0.7621577,0.84917974,0.22063324,-0.12638676,0.68133485,0.8711633,0.2573313,0.30509022,0.8151318,0.37085307,-0.083332255,0.033324026,0.4046269,-0.0048093847,-0.32106075,-0.18144892,-0.018726679,794.9817,802.23444,800.2198,797.8022,749.45056,-0.2874755859375,-0.0035400390625,0.96063232421875,5.196380615234375,-3.050537109375,0.171966552734375,1,1.0,1.0,1.0,1.0,75.00
2021-04-12 09:36:21.234,0.8114547,0.28341454,0.14511082,0.712693,0.89484245,-0.051278904,-0.23247184,0.6785774,0.9962952,0.32050678,0.33147392,0.96917146,0.40226585,-0.09268795,0.051101513,0.48361874,-0.1567387,-0.37795517,-0.23926747,-0.107684046,820.3663,805.05493,800.2198,824.7985,977.50916,-0.3017578125,-0.008056640625,0.95794677734375,4.0972900390625,-4.732818603515625,0.710296630859375,1,1.0,1.0,1.0,1.0,75.00
2021-04-12 09:36:21.510,,,,,,,,,,,,,,,,,,,,,,,,,,,,,,,,,,,,,,/muse/elements/blink
2021-04-12 09:36:21.738,0.7217575,0.1201775,0.06446879,0.71001774,0.88670784,-0.2072108,-0.22081654,0.6758861,0.9962952,0.2737582,0.17095736,0.96917146,0.44084492,-0.07507082,0.004704319,0.5055471,-0.16878292,-0.4695702,-0.2957651,-0.15446618,793.7729,801.8315,802.23444,779.67035,656.3736,-0.2950439453125,-0.01416015625,0.95758056640625,4.29168701171875,-4.44122314453125,0.635528564453125,1,1.0,1.0,1.0,1.0,75.00
2021-04-12 09:36:22.257,0.8438979,-0.087996416,0.16920072,0.83235836,1.0636432,-0.10831231,0.07484014,0.85216016,0.96958774,0.1324939,0.17761762,0.956205,0.39946416,-0.015375925,0.024028836,0.48826778,-0.1677055,-0.5750687,-0.34985176,-0.24077365,792.5641,808.2784,805.4579,790.54944,750.65936,-0.30169677734375,-0.0152587890625,0.95880126953125,4.673004150390625,-4.658050537109375,1.06170654296875,1,1.0,1.0,1.0,1.0,75.00
2021-04-12 09:36:22.763,0.8551812,-0.09270174,0.16435166,0.84799296,1.0588384,-0.15122525,0.100641556,0.855086,0.9154508,-0.10172802,0.038415674,0.9154676,0.34707895,0.009775205,-0.05053024,0.4623246,-0.18201444,-0.3773211,-0.3112224,-0.29246044,823.9927,793.36993,810.696,844.5421,853.8095,-0.29559326171875,-0.01751708984375,0.958251953125,4.65057373046875,-4.628143310546875,1.00189208984375,1,1.0,1.0,1.0,1.0,75.00
2021-04-12 09:36:23.278,0.8231891,0.0069172354,0.23702249,0.5151912,0.36512396,0.010597493,0.15608242,0.33978957,0.68771255,0.20124164,0.20821935,0.6545477,0.22624129,0.09336853,-0.12275456,0.17305218,-0.1257738,-0.31889525,-0.3412413,-0.15263985,814.7253,808.2784,805.4579,827.619,736.55676,-0.291015625,-0.01605224609375,0.95989990234375,4.658050537109375,-4.643096923828125,1.07666015625,1,1.0,1.0,1.0,1.0,75.00
2021-04-12 09:36:23.805,0.92247045,0.057078846,0.18646221,1.0784595,0.74948806,0.09772081,-0.017139476,0.9208883,1.1421651,0.21124882,0.36977258,1.1499729,0.47241014,0.11030621,-0.17880678,0.5635751,-0.098563254,-0.26757115,-0.37018317,-0.19188392,788.5348,796.1905,803.0403,786.1172,763.5531,-0.29644775390625,-0.01513671875,0.956787109375,4.3365478515625,-4.3963623046875,0.58319091796875,1,1.0,1.0,1.0,1.0,75.00
2021-04-12 09:36:24.314,0.945468,0.013061053,0.16156676,1.1167028,0.769988,0.07976982,-0.10736902,0.9342865,1.1421651,0.20951858,0.3789357,1.1499729,0.47289512,0.053677004,-0.16085066,0.57422715,-0.096075766,-0.3992675,-0.48494214,-0.16766742,776.4469,804.2491,804.2491,768.3883,606.4103,-0.29559326171875,-0.01568603515625,0.9539794921875,4.3963623046875,-4.90478515625,0.85235595703125,1,1.0,1.0,1.0,1.0,75.00
2021-04-12 09:36:24.843,0.841182,-0.15932266,-0.018640572,1.0153782,0.6597634,-0.1793798,-0.43479413,0.8404879,1.1421651,0.16129977,0.3525007,1.1499729,0.33576208,-0.084871605,-0.053208306,0.47857377,-0.1437069,-0.4280116,-0.49350604,-0.23622571,807.8755,809.0842,799.41394,807.47253,755.89746,-0.29595947265625,-0.01507568359375,0.955810546875,4.71038818359375,-4.65057373046875,0.680389404296875,1,1.0,1.0,1.0,1.0,75.00
2021-04-12 09:36:25.350,0.5788482,-0.2989924,-0.16820553,0.52331495,0.34252018,-0.35187292,-0.42000178,0.50033444,0.4958949,-0.055047557,0.3069678,0.4665841,0.09430523,-0.18706636,-0.050316002,0.106758535,-0.1638168,-0.4441073,-0.45028824,-0.18916994,840.9158,806.26373,803.44324,851.79486,872.3443,-0.29644775390625,-0.01806640625,0.9617919921875,4.568328857421875,-4.598236083984375,1.443023681640625,1,1.0,1.0,1.0,1.0,75.00
2021-04-12 09:36:25.867,0.54638064,0.19336902,0.08024812,0.41005367,0.27421218,-0.19014563,-0.029974047,0.36954457,0.4958949,-0.021154657,0.16314165,0.57503945,0.13639429,-0.076294184,-0.0017406411,0.14007746,-0.19100744,-0.4573461,-0.4764444,-0.21532679,800.6227,800.2198,805.8608,804.65204,741.79486,-0.30535888671875,-0.01416015625,0.95538330078125,4.299163818359375,-3.72344970703125,1.697235107421875,1,1.0,1.0,1.0,1.0,75.00
2021-04-12 09:36:26.390,0.49916556,0.21709381,0.06596084,0.5192609,0.36490074,-0.092164144,0.019963032,0.44501603,0.54089797,0.0976691,0.100190975,0.739118,0.26042414,0.02793228,-0.028264275,0.2615677,-0.26186398,-0.34401065,-0.3736207,-0.10550522,778.46155,807.0696,807.47253,772.4176,601.5751,-0.3101806640625,-0.01129150390625,0.95159912109375,4.77020263671875,-5.38330078125,3.768310546875,1,1.0,1.0,1.0,1.0,75.00
2021-04-12 09:36:26.912,0.53312784,0.19509314,1.8359413E-5,0.55584055,0.3209575,-0.107714415,0.14206664,0.43666756,0.4485023,0.10279641,0.20835617,0.72038877,0.25244942,0.007321483,-1.1563996E-4,0.26065248,-0.33000204,-0.25749916,-0.35294646,-0.09467822,869.5238,813.1135,796.99634,856.2271,783.69965,-0.302001953125,-0.01556396484375,0.952880859375,2.504730224609375,-5.689849853515625,1.099090576171875,1,1.0,1.0,1.0,1.0,75.00
2021-04-12 09:36:26.916,,,,,,,,,,,,,,,,,,,,,,,,,,,,,,,,,,,,,,/muse/elements/blink
2021-04-12 09:36:27.417,0.539827,-0.09176775,0.78693885,0.67942894,0.4155569,-0.15711817,0.45301953,0.60894364,0.4307919,0.19192627,0.32703122,0.69287115,0.28526676,-0.04969454,-0.004115063,0.28794885,-0.39466804,-0.22197717,-0.31968138,-0.0152356215,828.8278,806.6667,808.68134,821.5751,831.6484,-0.22894287109375,0.00286865234375,0.96588134765625,5.2935791015625,-2.19818115234375,0.79254150390625,1,1.0,1.0,1.0,1.0,75.00
2021-04-12 09:36:27.923,0.39452174,0.36499965,0.9669672,0.5353042,0.262268,-0.009374493,0.61239284,0.69091684,0.21257642,0.26648134,0.40520263,0.4098887,0.098450296,-0.1086847,0.103377804,0.09654022,-0.3369972,-0.32816508,-0.32786816,0.0012579983,816.7399,807.0696,806.6667,802.6374,865.89746,-0.3192138671875,-0.00970458984375,0.951171875,4.882354736328125,-4.732818603515625,0.949554443359375,1,1.0,1.0,1.0,1.0,75.00
2021-04-12 09:36:28.436,0.39452174,0.38063243,0.9614307,0.37128213,0.262268,-0.0051956363,0.58395773,0.72297937,0.21257642,0.28296307,0.34990874,-0.1103019,0.098450296,-0.05262024,0.07616418,0.21548797,-0.3369972,-0.42013246,-0.39498082,-0.17780809,804.65204,805.4579,798.20514,804.2491,766.3736,-0.29400634765625,-6.7138671875E-4,0.9598388671875,4.463653564453125,-5.12908935546875,1.383209228515625,1,1.0,1.0,1.0,1.0,75.00
2021-04-12 09:36:28.943,0.27748433,0.2905562,0.4016707,0.23869702,-0.09657812,0.027504351,0.24164012,0.6031706,0.13438754,0.30497956,0.25383884,0.1377706,0.006209696,-0.09021533,-0.04541583,0.1881015,-0.36270443,-0.39096314,-0.38825566,-0.07180645,782.8938,808.2784,805.05493,772.4176,630.18317,-0.28192138671875,-0.01019287109375,0.96453857421875,4.83001708984375,-5.704803466796875,1.7047119140625,1,1.0,1.0,1.0,1.0,75.00
2021-04-12 09:36:29.000,,,,,,,,,,,,,,,,,,,,,,,,,,,,,,,,,,,,,,/muse/elements/blink
2021-04-12 09:36:29.462,0.763181,-0.0091391085,-0.1479735,0.705275,0.71812385,-0.08153388,-0.050296497,0.9154584,1.0276173,0.047070906,-0.07846119,1.002901,0.3923514,-0.11240261,-0.2597433,0.4532361,-0.3003558,-0.36101,-0.49998602,-0.05497932,796.99634,807.8755,803.44324,793.36993,803.8461,-0.27593994140625,-0.013427734375,0.9581298828125,4.358978271484375,-4.852447509765625,0.231781005859375,1,1.0,1.0,1.0,1.0,75.00
2021-04-12 09:36:29.535,,,,,,,,,,,,,,,,,,,,,,,,,,,,,,,,,,,,,,/muse/elements/blink
2021-04-12 09:36:29.973,1.0947534,0.24853685,-0.24771349,1.0343652,0.99683875,0.003632545,-0.19256651,1.0494075,1.0411494,0.4530694,0.09496289,1.0778835,0.44855657,-0.16768983,-0.10211342,0.5336238,-0.27499187,-0.3389728,-0.46318012,-0.07510683,830.0366,805.8608,802.23444,832.0513,846.55676,-0.2774658203125,-0.0189208984375,0.962158203125,4.725341796875,-4.6356201171875,0.456085205078125,1,1.0,1.0,1.0,1.0,75.00
2021-04-12 09:36:30.500,1.2341772,0.58868253,-0.11023963,1.1626177,1.1447762,0.087857686,-0.37240702,1.1625602,1.0411494,0.5669009,0.16171159,1.0778835,0.56306994,-0.080146216,0.11484712,0.6201423,-0.20762445,-0.33601913,-0.5473147,-0.12668082,827.619,809.4872,795.78754,833.2601,773.6264,-0.2806396484375,-0.0142822265625,0.95477294921875,4.306640625,-4.65057373046875,0.635528564453125,1,1.0,1.0,1.0,1.0,75.00
2021-04-12 09:36:31.005,1.1209937,0.6115917,-0.12721244,0.9783006,0.9442882,0.23387104,-0.21497469,0.90376824,0.96235317,0.5669009,0.15261576,1.0112848,0.3047746,-0.0404703,0.15456146,0.3897528,-0.2021319,-0.28098592,-0.43245974,-0.07871949,804.2491,803.44324,807.8755,821.5751,734.94507,-0.27923583984375,-0.00982666015625,0.96221923828125,4.807586669921875,-5.016937255859375,1.293487548828125,1,1.0,1.0,1.0,1.0,75.00
2021-04-12 09:36:31.520,0.64097244,0.6456963,0.08185228,0.6379255,0.2615858,0.27244183,-0.04119333,0.31629017,0.39987943,0.5564488,0.17081054,0.44040936,0.1775403,-0.016475758,0.11506649,0.29419252,-0.25088224,-0.25246412,-0.4319415,0.06633457,781.685,798.60803,801.8315,773.6264,567.326,-0.28118896484375,-0.015380859375,0.96160888671875,4.613189697265625,-4.717864990234375,0.695343017578125,1,1.0,1.0,1.0,1.0,75.00
2021-04-12 09:36:32.020,0.58765733,0.38984996,0.064784065,0.65768194,0.2020716,0.117379546,-0.019525968,0.24688609,0.39987943,0.23842248,-0.0019015514,0.46344626,0.1322457,-0.008585435,-0.018969087,0.26870495,-0.29268312,-0.23061614,-0.41349965,-0.004736711,786.52014,803.0403,803.8461,770.40295,699.0842,-0.2755126953125,-0.01568603515625,0.96282958984375,5.076751708984375,-4.80010986328125,0.874786376953125,1,1.0,1.0,1.0,1.0,75.00
2021-04-12 09:36:32.531,0.43768227,0.3037871,0.059724294,0.578396,0.06954518,-0.10660971,-0.09366542,0.060806584,0.39934775,0.16807935,-0.14151293,0.54181916,0.15467072,0.02611108,-0.02113721,0.24007018,-0.33524576,-0.28709763,-0.439046,-0.06375377,819.9634,807.47253,810.696,821.5751,820.7692,-0.2796630859375,-0.01776123046875,0.96142578125,4.942169189453125,-4.5458984375,0.8074951171875,1,1.0,1.0,1.0,1.0,75.00
2021-04-12 09:36:33.039,0.12949635,-0.07149426,-0.07331737,0.27290305,-0.06730065,-0.2504687,-0.36507434,-0.095881335,0.44374615,-0.11543348,0.1382184,0.40279132,0.07701054,0.05255336,-0.104928814,0.08334007,-0.20047507,-0.27079606,-0.4300925,-0.16648696,788.93774,801.4286,800.6227,786.9231,571.75824,-0.27642822265625,-0.01202392578125,0.96844482421875,4.074859619140625,-4.418792724609375,0.859832763671875,1,1.0,1.0,1.0,1.0,75.00
2021-04-12 09:36:33.544,0.13697939,0.15613428,0.04788584,0.04817643,0.09907681,-0.20737307,-0.27257067,0.008217392,0.44767085,-0.11746658,0.16520391,0.33879507,0.0971211,0.06522843,-0.21817721,0.0333439,-0.09461645,-0.28960624,-0.36481842,-0.11422914,794.9817,807.0696,801.4286,802.6374,757.9121,-0.27642822265625,-0.01629638671875,0.96240234375,4.725341796875,-4.433746337890625,1.18133544921875,1,1.0,1.0,1.0,1.0,75.00
2021-04-12 09:36:33.908,,,,,,,,,,,,,,,,,,,,,,,,,,,,,,,,,,,,,,/muse/elements/blink
2021-04-12 09:36:34.061,0.23913306,0.10284129,0.0986286,0.34421498,0.22841705,-0.18140343,-0.24733493,0.17559654,0.67846614,-0.108874545,0.14365591,0.80071586,0.08526508,0.02249143,-0.27229184,0.0756922,-0.04531144,-0.29828694,-0.28381184,-0.075342886,808.2784,808.68134,803.44324,817.1429,873.5531,-0.27935791015625,-0.01470947265625,0.96209716796875,4.628143310546875,-4.822540283203125,0.55328369140625,1,1.0,1.0,1.0,1.0,75.00
2021-04-12 09:36:34.572,0.57694274,0.104608215,0.17316633,0.73008084,0.49489716,-0.24668102,-0.1815553,0.48444492,0.8441408,0.09357787,0.1709417,0.93497235,0.26592422,-0.0030667328,-0.20243064,0.25169793,-0.118677214,-0.40192497,-0.2843965,-0.02990773,836.4835,812.71063,815.12823,845.7509,795.38464,-0.26702880859375,-0.01202392578125,0.9652099609375,5.084228515625,-4.42626953125,1.2860107421875,1,1.0,1.0,1.0,1.0,75.00
2021-04-12 09:36:35.081,0.62213403,-0.36583108,0.09405043,0.86811966,0.54955167,-0.27088356,-0.17705226,0.54889894,0.8441408,0.031674407,0.25949118,0.93497235,0.33665046,-0.06884833,-0.053573932,0.3175863,-0.17914794,-0.4595105,-0.32993445,-0.058115616,808.2784,807.8755,811.9048,813.1135,732.1245,-0.27001953125,-0.01507568359375,0.96588134765625,4.66552734375,-5.2337646484375,0.9271240234375,1,1.0,1.0,1.0,1.0,75.00
2021-04-12 09:36:35.591,0.891743,-0.5578429,0.019788593,1.0620428,0.6946299,-0.3682129,-0.15594162,0.6475242,0.8410932,0.070631094,0.2595382,0.94106287,0.46882942,-0.05517543,-0.01881036,0.4130767,-0.2345051,-0.47426718,-0.38211396,-0.094210625,789.34064,803.8461,806.6667,773.6264,606.8132,-0.2781982421875,-0.0179443359375,0.965087890625,4.59075927734375,-4.478607177734375,1.016845703125,1,1.0,1.0,1.0,1.0,75.00
2021-04-12 09:36:36.100,1.19701,-0.7474855,-0.17353909,1.1868201,0.6878154,-0.3936873,-0.14856195,0.58269113,0.53877026,0.009956061,0.2675664,0.6062359,0.3284589,-0.09434693,-0.047744837,0.37893498,-0.1984353,-0.47520196,-0.4073214,-0.12378338,788.5348,799.41394,809.89014,778.0586,702.71063,-0.2713623046875,-0.01544189453125,0.96368408203125,4.5758056640625,-4.20196533203125,1.173858642578125,1,1.0,1.0,1.0,1.0,75.00
2021-04-12 09:36:36.616,1.137331,-0.4018998,-0.15693879,1.1465706,0.63865674,-0.27943784,-0.22919315,0.57433015,0.53877026,-0.030449247,0.13837788,0.6062359,0.30750188,-0.11325103,-0.11370276,0.34771535,-0.20204487,-0.4436703,-0.42544344,-0.10990537,848.5714,813.1135,795.38464,853.00366,771.6117,-0.27008056640625,-0.01318359375,0.96673583984375,4.5458984375,-4.53094482421875,0.43365478515625,1,1.0,1.0,1.0,1.0,75.00
2021-04-12 09:36:36.657,,,,,,,,,,,,,,,,,,,,,,,,,,,,,,,,,,,,,,/muse/elements/blink
2021-04-12 09:36:37.120,1.2014219,0.57880783,0.8660561,1.1961097,0.70553654,0.31021413,0.5050951,0.6320292,0.5260787,0.08519173,0.24037313,0.6062359,0.24875599,-0.043545026,-0.10229972,0.34924603,-0.21210529,-0.36505547,-0.48075584,-0.105935045,832.4542,813.1135,793.36993,835.6777,808.2784,-0.27313232421875,-0.0167236328125,0.96453857421875,4.508514404296875,-4.628143310546875,1.12152099609375,1,1.0,1.0,1.0,1.0,75.00
2021-04-12 09:36:37.624,1.1903769,0.67785525,0.9750322,1.1961097,0.71300375,0.38307714,0.59483445,0.6320292,0.46426293,0.14492375,0.2768898,0.6062359,0.19802216,0.09392552,-0.048564665,0.34924603,-0.18407093,-0.33420548,-0.53231007,-0.105935045,792.5641,797.8022,805.8608,782.8938,622.52747,-0.26727294921875,-0.01971435546875,0.96343994140625,2.489776611328125,-2.878570556640625,1.256103515625,1,1.0,1.0,1.0,1.0,75.00
2021-04-12 09:36:38.146,0.6795879,0.7607132,1.0199337,1.1961097,0.5959916,0.4833699,0.62320584,0.6320292,0.35493615,0.40788862,0.29885033,0.6062359,0.2878347,0.1797648,-0.010272343,0.34924603,-0.30171698,-0.41253623,-0.50280774,-0.105935045,802.6374,803.44324,802.6374,794.57874,950.5128,-0.330810546875,-0.0592041015625,0.9310302734375,7.73101806640625,-6.83380126953125,0.994415283203125,1,1.0,1.0,1.0,1.0,75.00
2021-04-12 09:36:38.382,,,,,,,,,,,,,,,,,,,,,,,,,,,,,,,,,,,,,,/muse/elements/blink
2021-04-12 09:36:38.651,0.6156557,0.49388012,0.61428124,-0.009024284,0.5566863,0.26474604,0.20271693,0.214578,0.36261332,0.40788862,0.25062406,0.2276314,0.25459665,0.11238292,0.0071507073,0.15239897,-0.29032546,-0.51967597,-0.52517915,-0.15318379,815.9341,804.2491,808.68134,824.3956,775.64105,-0.10693359375,-0.01434326171875,1.0081787109375,7.215118408203125,-12.03765869140625,3.24493408203125,1,1.0,1.0,1.0,1.0,75.00
2021-04-12 09:36:39.155,0.6156557,0.6043385,0.43487817,-0.009024284,0.5566863,0.3879734,-0.0060200044,0.214578,0.36261332,0.40484887,0.25304097,0.2276314,0.25459665,0.018907389,-0.033061095,0.15239897,-0.29032546,-0.56228364,-0.51744264,-0.15318379,803.8461,805.8608,806.6667,811.0989,816.7399,-0.13299560546875,0.0308837890625,1.00103759765625,4.18701171875,-1.89910888671875,5.734710693359375,1,1.0,1.0,1.0,1.0,75.00
2021-04-12 09:36:39.523,,,,,,,,,,,,,,,,,,,,,,,,,,,,,,,,,,,,,,/muse/elements/blink
2021-04-12 09:36:39.660,0.545121,0.70406306,0.65689015,-0.009024284,0.54835856,0.43738133,0.17770505,0.214578,0.28884152,0.31943688,0.3576544,0.2276314,0.23645999,-0.039078508,-0.08900778,0.15239897,-0.26142108,-0.5061668,-0.54269284,-0.15318379,799.81683,805.4579,800.6227,787.72894,652.3443,-0.178466796875,0.01220703125,0.98974609375,2.953338623046875,2.1832275390625,5.480499267578125,1,1.0,1.0,1.0,1.0,75.00
2021-04-12 09:36:40.161,0.545121,0.8447095,0.79924303,-0.009024284,0.54835856,0.5770637,0.27305186,0.214578,0.28884152,0.29387385,0.3322354,0.2276314,0.23645999,-0.002658264,-0.15408191,0.15239897,-0.26142108,-0.53918856,-0.617512,-0.15318379,826.0073,810.696,801.8315,828.022,750.65936,-0.2896728515625,0.03729248046875,0.9644775390625,5.151519775390625,4.044952392578125,7.499237060546875,1,1.0,1.0,1.0,1.0,75.00
2021-04-12 09:36:40.663,0.545121,0.6526738,0.7462168,-0.009024284,0.54835856,0.38496068,0.26894122,0.214578,0.28884152,0.29588777,0.30254748,0.2276314,0.23645999,0.009056219,-0.24868359,0.15239897,-0.26142108,-0.19554386,-0.5362489,-0.15318379,795.38464,801.4286,796.99634,798.20514,778.46155,-0.3111572265625,0.05010986328125,0.96026611328125,5.203857421875,-6.901092529296875,2.205657958984375,1,1.0,1.0,1.0,1.0,75.00
2021-04-12 09:36:41.174,0.14030862,0.11096385,-0.32826737,0.21344694,0.14515202,-0.11998191,-0.22765347,0.43057537,0.09573703,-0.014678858,-0.047855414,0.24405831,0.19029075,-0.050443847,-0.20189965,0.02511828,-0.16198073,-0.07494668,-0.3360285,-0.17125756,781.685,803.8461,798.60803,782.49084,909.011,-0.25299072265625,0.0474853515625,0.963134765625,3.058013916015625,-8.3441162109375,-0.07476806640625,1,1.0,1.0,1.0,1.0,75.00
2021-04-12 09:36:41.682,0.11034844,0.15979318,-0.3646557,0.1353653,0.21456353,-0.056176193,-0.3763786,0.38342914,0.21959455,-0.014678858,-0.047855414,0.2875148,0.2553695,-0.0032590942,-0.1224261,0.04218713,-0.16911674,-0.11704598,-0.34845856,-0.26954925,795.78754,802.6374,800.2198,790.9524,704.7253,-0.26922607421875,0.03399658203125,0.95501708984375,4.74029541015625,-3.327178955078125,0.7177734375,1,1.0,1.0,1.0,1.0,75.00
2021-04-12 09:36:42.197,0.06944158,0.0781157,-0.4532612,0.25955537,0.16126539,-0.1757614,-0.35615867,0.315309,0.21959455,-0.09147227,-0.07136692,0.34308025,0.19844048,-0.0030542465,-0.018492458,0.09738148,-0.15906252,-0.18969756,-0.274386,-0.2865657,817.9487,799.81683,808.2784,825.2015,813.5165,-0.2567138671875,0.05584716796875,0.9638671875,5.62255859375,-6.759033203125,-0.46356201171875,1,1.0,1.0,1.0,1.0,75.00
2021-04-12 09:36:42.699,-0.08545127,-0.044883173,-0.5377999,0.25393623,0.06780279,-0.23356968,-0.36606136,0.15490223,0.26727268,-0.16630019,-0.13773629,0.31873807,0.15014382,-0.07066871,-0.002163055,0.15274231,-0.27660444,-0.31921297,-0.28355038,-0.44020656,819.15753,794.17584,802.23444,821.5751,765.56775,-0.26519775390625,0.07635498046875,0.96697998046875,5.921630859375,-4.605712890625,0.127105712890625,1,1.0,1.0,1.0,1.0,75.00
2021-04-12 09:36:43.211,-0.22335638,-0.38659978,-0.36726695,0.22222222,-0.14169726,-0.4308238,-0.24306531,0.00972377,0.2088591,-0.10812205,-0.05641247,0.30698633,0.04941648,-0.15391791,-0.027966022,0.16121882,-0.39492762,-0.3739997,-0.29614577,-0.40413126,787.72894,802.23444,801.4286,783.69965,701.9048,-0.2552490234375,0.070556640625,0.97222900390625,3.910369873046875,-3.050537109375,3.446807861328125,1,1.0,1.0,1.0,1.0,75.00
2021-04-12 09:36:43.564,,,,,,,,,,,,,,,,,,,,,,,,,,,,,,,,,,,,,,/muse/elements/blink
2021-04-12 09:36:43.723,-0.37507927,-0.3847876,0.21776009,0.034013808,-0.22579913,-0.099618204,-0.0059890617,-0.09468759,0.14590809,0.21004246,0.32505122,0.2603008,0.078671664,-0.14045271,-0.11254841,0.13107765,-0.56471914,-0.3934406,-0.3916822,-0.41365266,794.17584,806.6667,801.02563,793.7729,792.5641,-0.252685546875,0.051513671875,0.96966552734375,4.08233642578125,-4.448699951171875,0.2093505859375,1,1.0,1.0,1.0,1.0,75.00
2021-04-12 09:36:44.253,-0.2994443,-0.33138868,0.74153084,-0.1682353,-0.20223781,0.12692744,0.48943543,-0.08409037,-0.005185643,0.31668097,0.46354514,0.25470304,0.12103174,-0.12582508,-0.150919,0.06854675,-0.47291106,-0.39562598,-0.44279006,-0.27525613,814.3223,806.26373,801.8315,817.5458,776.8498,-0.25665283203125,0.052978515625,0.96466064453125,5.016937255859375,-5.00946044921875,0.6280517578125,1,1.0,1.0,1.0,1.0,75.00
2021-04-12 09:36:44.712,,,,,,,,,,,,,,,,,,,,,,,,,,,,,,,,,,,,,,/muse/elements/blink
2021-04-12 09:36:44.776,-0.28764227,-0.2891371,0.7539132,-0.31966105,-0.1857476,0.11696605,0.49396157,-0.21513978,-0.14045013,0.34870148,0.46354514,0.24708605,0.1928646,-0.10829103,-0.0772039,0.040971175,-0.37160772,-0.46836555,-0.43464634,-0.19797257,851.39197,806.6667,807.47253,865.09155,688.60803,-0.24713134765625,0.04388427734375,0.97003173828125,4.508514404296875,-6.400146484375,0.381317138671875,1,1.0,1.0,1.0,1.0,75.00
2021-04-12 09:36:45.301,-0.28764227,-0.110245585,0.7891267,-0.31966105,-0.1857476,-0.09317639,0.6299247,-0.21513978,-0.14045013,0.33540204,0.48024,0.24708605,0.1928646,-0.19981845,-0.081479214,0.040971175,-0.37160772,-0.44316116,-0.34995118,-0.19797257,816.337,805.8608,806.26373,818.3516,824.7985,-0.19580078125,0.05291748046875,0.98431396484375,4.68048095703125,-5.944061279296875,0.73272705078125,1,1.0,1.0,1.0,1.0,75.00
2021-04-12 09:36:45.812,-0.28764227,-0.16074328,0.5518455,-0.31966105,-0.1857476,-0.40810034,0.4481571,-0.21513978,-0.14045013,0.042235706,0.30082273,0.24708605,0.1928646,-0.19648488,-0.1015482,0.040971175,-0.37160772,-0.4117481,-0.3291313,-0.19797257,799.81683,814.3223,808.2784,796.5934,738.1685,-0.1875,0.03143310546875,0.97332763671875,3.5888671875,-4.56085205078125,1.428070068359375,1,1.0,1.0,1.0,1.0,75.00
2021-04-12 09:36:46.322,-0.08698338,-0.17532896,0.52166784,0.14526391,-0.37908828,-0.49620652,0.4033684,0.05392049,0.18128197,0.18849804,0.30495602,0.08875505,0.116079316,-0.11220743,-0.1459146,0.018147305,-0.5332886,-0.41593003,-0.32359743,-0.20595968,786.52014,809.4872,799.81683,780.4762,722.4542,-0.209228515625,0.03082275390625,0.98211669921875,4.78515625,-5.091705322265625,0.485992431640625,1,2.0,1.0,1.0,2.0,75.00
2021-04-12 09:36:46.842,-0.07505117,-0.19886135,-0.1076188,0.07511552,0.024178633,-0.58852535,-0.32300374,0.20394678,0.3028747,0.050023254,0.017529521,0.24667755,0.11558595,-0.07948675,-0.12639141,0.0584908,-0.51164323,-0.42618352,-0.39908355,-0.19904268,875.16486,802.6374,799.011,869.12085,724.0659,-0.22119140625,0.0291748046875,0.97735595703125,3.72344970703125,-4.613189697265625,-0.710296630859375,1,1.0,1.0,1.0,1.0,75.00
2021-04-12 09:36:46.911,,,,,,,,,,,,,,,,,,,,,,,,,,,,,,,,,,,,,,/muse/elements/blink
2021-04-12 09:36:47.360,-0.07505117,-0.04946258,0.33823282,0.07511552,0.024178633,-0.26842353,0.09526611,0.20394678,0.3028747,0.12130059,0.25826478,0.24667755,0.11558595,-0.07647345,-0.06670941,0.0584908,-0.51164323,-0.54316306,-0.402733,-0.19904268,817.1429,808.2784,805.8608,829.2308,726.8865,-0.21820068359375,0.02655029296875,0.9796142578125,4.149627685546875,-2.5421142578125,-0.291595458984375,1,1.0,1.0,1.0,1.0,75.00
2021-04-12 09:36:47.863,-0.07796218,0.012109229,0.4104806,-0.014370444,0.21694557,-0.13634704,0.16372061,0.31207186,0.2942149,0.11128554,0.21118961,0.23300213,0.12718537,-0.15749152,-0.06449701,0.08860043,-0.5012876,-0.52834314,-0.41809615,-0.20406117,618.0952,793.7729,829.2308,621.7216,819.15753,-0.27349853515625,0.019287109375,0.96600341796875,3.66363525390625,2.429962158203125,2.325286865234375,1,1.0,1.0,1.0,1.0,75.00
2021-04-12 09:36:48.036,,,,,,,,,,,,,,,,,,,,,,,,,,,,,,,,,,,,,,/muse/elements/blink
2021-04-12 09:36:48.388,-0.07796218,0.11589113,0.65263826,-0.014370444,0.21694557,-0.013902625,0.39409137,0.31207186,0.2942149,0.21860974,0.24674726,0.23300213,0.12718537,-0.09526241,-0.013811161,0.08860043,-0.5012876,-0.48420915,-0.38862157,-0.20406117,794.9817,802.23444,796.99634,790.14655,668.46155,-0.31072998046875,1.220703125E-4,0.94677734375,4.05242919921875,-7.663726806640625,0.934600830078125,1,1.0,1.0,1.0,1.0,75.00
2021-04-12 09:36:48.912,-0.07796218,0.22458903,0.7192047,-0.014370444,0.21694557,0.0123797245,0.39572856,0.31207186,0.2942149,0.22869775,0.18287173,0.23300213,0.12718537,-0.0665404,-0.0579796,0.08860043,-0.5012876,-0.39085093,-0.49201873,-0.20406117,689.41394,802.6374,814.7253,693.8461,677.326,-0.19952392578125,0.02093505859375,0.9610595703125,3.521575927734375,-18.011627197265625,2.811279296875,1,1.0,1.0,1.0,1.0,75.00
2021-04-12 09:36:49.132,,,,,,,,,,,,,,,,,,,,,,,,,,,,,,,,,,,,,,/muse/elements/blink
2021-04-12 09:36:49.428,-0.07796218,0.22036682,0.7196064,-0.014370444,0.21694557,-0.020215422,0.41849148,0.31207186,0.2942149,0.09408355,0.17474908,0.23300213,0.12718537,-0.095354326,-0.005272062,0.08860043,-0.5012876,-0.3541523,-0.4462703,-0.20406117,819.15753,806.6667,805.8608,824.7985,852.6007,-0.06365966796875,0.01763916015625,1.00018310546875,3.162689208984375,-8.3740234375,0.478515625,1,2.0,1.0,1.0,2.0,75.00
2021-04-12 09:36:49.931,-0.07796218,0.14974314,0.6466371,-0.014370444,0.21694557,-0.109702274,0.30024332,0.31207186,0.2942149,0.06607052,0.18088137,0.23300213,0.12718537,-0.16955255,0.07815138,0.08860043,-0.5012876,-0.37885302,-0.43132555,-0.20406117,807.0696,799.011,802.23444,822.7839,746.2271,-0.0460205078125,0.01275634765625,1.00103759765625,6.093597412109375,-1.173858642578125,-1.495361328125,1,2.0,1.0,1.0,2.0,75.00
2021-04-12 09:36:50.452,-0.07796218,-0.05114922,0.3276833,-0.014370444,0.21694557,-0.35203278,0.08040541,0.31207186,0.2942149,-0.10762227,-0.029183486,0.23300213,0.12718537,-0.17395085,0.07995751,0.08860043,-0.5012876,-0.3841392,-0.40671614,-0.20406117,679.34064,795.38464,826.4103,697.47253,815.9341,-0.1319580078125,0.006591796875,0.9931640625,3.312225341796875,-0.411224365234375,0.25421142578125,1,2.0,1.0,1.0,2.0,75.00
2021-04-12 09:36:50.687,,,,,,,,,,,,,,,,,,,,,,,,,,,,,,,,,,,,,,/muse/elements/blink
2021-04-12 09:36:50.978,-0.07796218,0.10355208,0.7619405,-0.014370444,0.21694557,-0.08813317,0.42851827,0.31207186,0.2942149,-0.021379286,0.031194735,0.23300213,0.12718537,-0.13404778,-0.007686671,0.08860043,-0.5012876,-0.42080808,-0.3785713,-0.20406117,793.36993,802.23444,803.8461,786.9231,761.53845,-0.148193359375,0.0059814453125,0.99249267578125,4.358978271484375,-0.485992431640625,1.831817626953125,1,2.0,1.0,1.0,2.0,75.00
2021-04-12 09:36:51.479,-0.07796218,0.27875972,0.9825248,-0.014370444,0.21694557,-0.027545786,0.6083451,0.31207186,0.2942149,0.030202152,0.016515091,0.23300213,0.12718537,-0.15335405,-0.07987704,0.08860043,-0.5012876,-0.39362946,-0.28883255,-0.20406117,805.4579,801.8315,803.44324,793.36993,697.0696,-0.21539306640625,-0.0096435546875,0.980712890625,2.519683837890625,-2.2430419921875,0.844879150390625,1,2.0,1.0,1.0,2.0,75.00
2021-04-12 09:36:51.997,-0.07796218,0.29709834,0.9787431,-0.014370444,0.21694557,-0.046640337,0.6092935,0.31207186,0.2942149,0.061531067,0.037666384,0.23300213,0.12718537,-0.13318706,-0.101724364,0.08860043,-0.5012876,-0.39431334,-0.1901443,-0.20406117,813.1135,797.8022,799.81683,814.7253,869.5238,-0.1988525390625,0.00201416015625,0.98150634765625,4.822540283203125,-6.8487548828125,4.50103759765625,1,2.0,1.0,1.0,2.0,75.00
2021-04-12 09:36:52.506,0.15836589,0.17992848,0.6835162,0.18605219,-0.036415752,-0.2931446,0.32455984,0.15937082,0.11300229,0.047472913,0.01622247,0.16346467,0.26358345,-0.10505196,-0.14106703,0.14150701,-0.12048126,-0.3887882,-0.16600046,-0.14438248,818.7546,803.44324,798.20514,820.7692,738.1685,-0.210693359375,-9.1552734375E-4,0.98504638671875,3.671112060546875,0.785064697265625,-2.205657958984375,1,1.0,1.0,1.0,1.0,75.00
2021-04-12 09:36:53.032,0.12212577,0.025210716,-0.16085385,0.29828608,-0.14501576,-0.29900283,-0.2003938,0.17676438,0.11300229,0.3610705,0.023517745,0.35568336,0.13914643,-0.053676534,-0.06159443,0.16949823,-0.18676426,-0.3803161,-0.18774806,-0.13935213,792.5641,799.41394,805.05493,797.3993,654.35895,-0.2735595703125,-0.01873779296875,0.9713134765625,4.403839111328125,-4.329071044921875,-1.12152099609375,1,1.0,1.0,1.0,1.0,75.00
2021-04-12 09:36:53.392,,,,,,,,,,,,,,,,,,,,,,,,,,,,,,,,,,,,,,/muse/elements/blink
2021-04-12 09:36:53.536,0.09109618,0.38700053,0.49748755,0.31852043,-0.20375897,0.10970879,0.18983321,0.20405589,0.09375007,0.45156646,0.19212142,0.32686913,0.086314514,0.009018714,0.030374626,0.15375178,-0.20610711,-0.38897485,-0.28319457,-0.13212855,808.68134,810.696,809.0842,802.23444,674.90845,-0.2421875,-0.02099609375,0.9725341796875,3.9776611328125,-5.62255859375,0.28411865234375,1,1.0,1.0,1.0,1.0,75.00
2021-04-12 09:36:54.050,0.09062741,0.40945148,0.77200514,0.4220121,-0.37925017,0.18213056,0.5361395,0.25438502,-0.5031948,0.45025405,0.4677101,0.29821414,-0.1500304,0.0015646903,0.110410824,0.18831228,-0.31857255,-0.39118212,-0.3136418,-0.166527,818.3516,805.8608,790.14655,823.5897,776.8498,-0.25537109375,-0.026611328125,0.968994140625,5.181427001953125,-3.93280029296875,3.3197021484375,1,1.0,1.0,1.0,1.0,75.00
2021-04-12 09:36:54.581,0.11685825,0.34332854,0.74314517,0.46629986,-0.49713305,0.15337183,0.5229462,0.27876085,-0.65747815,0.43299612,0.47052062,0.28527045,-0.2630225,-0.017978586,0.09018258,0.14784123,-0.36266053,-0.44279957,-0.2921955,-0.25281492,819.5604,810.293,811.50183,832.4542,845.34796,-0.25836181640625,-0.0235595703125,0.97412109375,4.717864990234375,-3.9178466796875,2.071075439453125,1,1.0,1.0,1.0,1.0,75.00
2021-04-12 09:36:55.106,-0.11077204,-0.16077153,0.49844086,-0.5165727,0.057339486,-0.09691879,0.363861,-0.31652695,0.031798307,-0.04623172,0.46569815,0.17598288,-0.17169356,-0.06978289,0.052275028,-0.04399368,-0.33327845,-0.428339,-0.21831799,-0.11577851,805.4579,804.65204,808.68134,815.12823,691.8315,-0.26458740234375,-0.01983642578125,0.97222900390625,3.9178466796875,-4.448699951171875,2.130889892578125,1,1.0,1.0,1.0,1.0,75.00
2021-04-12 09:36:55.611,-0.037169684,-0.22774401,-0.2560361,-0.36624116,0.055830806,-0.1539476,-0.37118837,-0.26480046,0.24035367,-0.20376642,0.24850513,0.45580506,-0.16519663,-0.030547574,-0.028169826,-0.04758454,-0.39869255,-0.45103198,-0.12743042,-0.07387475,788.5348,795.78754,805.4579,784.90845,669.67035,-0.26275634765625,-0.02838134765625,0.9688720703125,4.448699951171875,-5.854339599609375,1.816864013671875,1,1.0,1.0,1.0,1.0,75.00
2021-04-12 09:36:56.118,0.14131193,-0.32594725,-0.27916768,-0.10449293,0.06385105,-0.168504,-0.45178428,-0.06495562,0.3503604,-0.036636155,0.15572135,0.48586106,-0.13962933,-0.066157445,-0.09257154,-0.028003594,-0.42539126,-0.37270984,-0.10257907,-0.14330235,792.96704,810.293,807.47253,790.9524,710.7692,-0.25244140625,-0.01605224609375,0.96685791015625,4.6356201171875,-5.60760498046875,-0.112152099609375,1,1.0,1.0,1.0,1.0,75.00
2021-04-12 09:36:56.620,0.09548743,-0.5452512,-0.33076346,0.07155891,-0.015353277,-0.21234535,-0.4313293,0.019329797,0.44790217,-0.051223375,0.16077505,0.4973233,0.040737703,-0.07608907,-0.12667814,0.0733616,-0.37147346,-0.31257546,-0.13680159,-0.19877231,807.0696,812.3077,801.8315,813.5165,740.58606,-0.24310302734375,-0.019287109375,0.97308349609375,4.725341796875,-4.7552490234375,1.51031494140625,1,1.0,1.0,1.0,1.0,75.00
2021-04-12 09:36:57.145,-0.0037342615,-0.5565363,-0.37927926,0.16798943,-0.015639147,-0.35412812,-0.3752826,0.09776142,0.4656366,-0.054260343,0.13861983,0.44333947,0.096926264,-0.20124923,-0.098332874,0.11974465,-0.30728814,-0.2841262,-0.30679694,-0.24935813,794.17584,800.6227,799.81683,793.7729,625.34796,-0.2479248046875,-0.01446533203125,0.97900390625,5.330963134765625,-6.0113525390625,0.7476806640625,1,1.0,1.0,1.0,1.0,75.00
2021-04-12 09:36:57.673,-0.2544213,-0.43015784,-0.23244669,0.16072494,-1.1838362E-4,-0.18293136,-0.3720789,0.02068991,0.45093372,0.07996346,0.0048706653,0.395029,0.10128758,-0.19578613,-0.09108638,0.18186577,-0.27011672,-0.36370802,-0.52079016,-0.25044703,789.34064,807.47253,796.5934,788.1319,722.8571,-0.2574462890625,-0.0181884765625,0.97412109375,5.7720947265625,-3.850555419921875,4.32159423828125,1,1.0,1.0,1.0,1.0,75.00
2021-04-12 09:36:58.197,-0.09181639,-0.3724668,-0.2470482,0.1543565,0.17494592,-0.07885091,-0.20580938,-0.020974927,0.35246447,0.033214442,-0.043746855,0.25195074,-0.026203813,-0.18230914,-0.08605683,0.13021535,-0.32067603,-0.4540539,-0.496448,-0.2544559,776.8498,805.8608,807.0696,774.43225,669.67035,-0.226806640625,-0.03289794921875,0.9686279296875,5.345916748046875,-8.792724609375,0.43365478515625,1,1.0,1.0,1.0,1.0,75.00
2021-04-12 09:36:58.703,0.046437316,-0.37543887,-0.15273456,0.23092131,0.25730377,0.02270336,-0.18518916,0.03423105,0.34217748,0.09731508,-0.20456202,0.24789315,1.7144265E-4,-0.14666876,-0.08184468,0.14869101,-0.36491355,-0.52670413,-0.3988414,-0.2641572,799.011,809.0842,805.4579,788.5348,653.95605,-0.218994140625,-0.01702880859375,0.98150634765625,4.18701171875,-1.173858642578125,0.680389404296875,1,1.0,1.0,1.0,1.0,75.00
2021-04-12 09:36:59.028,,,,,,,,,,,,,,,,,,,,,,,,,,,,,,,,,,,,,,/muse/elements/blink
2021-04-12 09:36:59.212,0.08319244,0.10947032,0.54964715,0.2672817,0.32337523,0.12751609,0.16398354,0.09879035,0.12574239,0.4901095,0.12927628,0.07437842,0.031494733,-0.06986757,-0.026549514,0.105634436,-0.35277542,-0.5152229,-0.320844,-0.21427538,834.4689,806.6667,808.68134,832.8571,856.63007,-0.298583984375,0.0172119140625,0.961181640625,6.856231689453125,-2.280426025390625,1.2860107421875,1,1.0,1.0,1.0,1.0,75.00
2021-04-12 09:36:59.727,0.13329916,0.20047636,0.7793272,0.3380367,0.3228422,0.16179709,0.30222613,0.2099058,-0.08025516,0.549648,0.22101898,0.07137625,0.08199621,-0.06954581,-0.048285834,0.17103066,-0.3775143,-0.49240524,-0.35944393,-0.15581325,816.7399,805.8608,803.0403,823.5897,745.42126,-0.272216796875,0.00152587890625,0.9615478515625,4.418792724609375,-6.108551025390625,-0.37384033203125,1,1.0,1.0,1.0,1.0,75.00
2021-04-12 09:37:00.242,0.09376032,0.22548184,0.77075297,0.29860243,0.31885776,0.10029174,0.32465374,0.19179325,-0.08515447,0.549648,0.22101898,0.07137625,0.09056031,-0.04077978,-0.012206133,0.18172504,-0.36570966,-0.42969966,-0.48560965,-0.17115216,806.6667,805.8608,811.9048,809.4872,708.7546,-0.25909423828125,0.00299072265625,0.96783447265625,4.658050537109375,-4.284210205078125,0.456085205078125,1,1.0,1.0,1.0,1.0,75.00
2021-04-12 09:37:00.759,0.16419439,-0.03978746,0.46568397,0.10660929,0.14441878,-0.19542636,0.10529303,0.055631403,0.26445496,0.5274362,0.13717847,0.3989668,0.17947134,-0.024296565,0.011062328,0.22738443,-0.25140876,-0.40591866,-0.45792645,-0.08588249,790.9524,811.0989,809.0842,782.49084,622.9304,-0.26416015625,0.0072021484375,0.96551513671875,4.5159912109375,-4.747772216796875,0.82244873046875,1,1.0,1.0,1.0,1.0,75.00
2021-04-12 09:37:01.135,,,,,,,,,,,,,,,,,,,,,,,,,,,,,,,,,,,,,,/muse/elements/blink
2021-04-12 09:37:01.259,0.25166705,-0.09775251,-0.09790573,0.31631008,0.13067989,-0.48579746,-0.23733313,0.13658464,0.37582237,-0.11092903,0.17821983,0.44385394,0.16515495,0.03899495,0.10669725,0.16332643,-0.22037865,-0.42310813,-0.40495968,-0.095269896,838.0952,815.9341,797.3993,835.2747,795.38464,-0.135009765625,-0.01153564453125,0.96728515625,1.4654541015625,-28.531494140625,-0.5084228515625,1,1.0,1.0,1.0,1.0,75.00
2021-04-12 09:37:01.762,0.25166705,0.7229096,0.31792843,0.31631008,0.13067989,-0.22660583,-0.24175054,0.13658464,0.37582237,-0.02660236,0.22020516,0.44385394,0.16515495,0.017820176,0.0258497,0.16332643,-0.22037865,-0.5186629,-0.3709261,-0.095269896,698.68134,790.14655,806.6667,705.12823,786.9231,-0.13018798828125,-0.0115966796875,0.99456787109375,5.644989013671875,5.674896240234375,4.822540283203125,1,1.0,1.0,1.0,1.0,75.00
2021-04-12 09:37:01.831,,,,,,,,,,,,,,,,,,,,,,,,,,,,,,,,,,,,,,/muse/elements/blink
2021-04-12 09:37:02.271,0.30600688,1.1701484,0.7635948,0.48133066,0.056944862,0.5006696,0.3493681,0.18620674,0.35048786,0.26629,0.34663537,0.403931,0.14570338,-0.012661862,-0.016204525,0.046861526,-0.2039506,-0.5370949,-0.4487638,-0.12653753,796.5934,808.68134,810.696,785.31134,712.381,-0.19580078125,-0.00518798828125,0.98638916015625,5.90667724609375,-2.55706787109375,1.637420654296875,1,1.0,1.0,1.0,1.0,75.00
2021-04-12 09:37:02.779,0.30600688,1.2711667,0.8467775,0.48133066,0.056944862,0.60030544,0.43103155,0.18620674,0.35048786,0.28167754,0.32868227,0.403931,0.14570338,-0.016018758,-0.04981985,0.046861526,-0.2039506,-0.39457825,-0.39179844,-0.12653753,794.9817,800.2198,804.65204,790.54944,714.3956,-0.19708251953125,-0.0126953125,0.980224609375,4.762725830078125,-5.81695556640625,2.100982666015625,1,1.0,1.0,1.0,1.0,75.00
2021-04-12 09:37:03.303,0.30600688,1.1853745,0.7725408,0.48133066,0.056944862,0.58341086,0.40907338,0.18620674,0.35048786,0.27386394,0.28139412,0.403931,0.14570338,-0.044451814,-0.024957348,0.046861526,-0.2039506,-0.3673164,-0.35069427,-0.12653753,808.2784,807.47253,809.0842,816.7399,709.15753,-0.19464111328125,-0.02362060546875,0.98046875,2.97576904296875,-1.428070068359375,3.09539794921875,1,1.0,1.0,1.0,1.0,75.00
2021-04-12 09:37:03.821,0.30274236,0.67566925,0.29842666,0.48836452,-0.20513704,0.08840815,-0.05759792,-0.21633703,0.17206523,0.2554327,0.23033187,0.059514653,0.027977737,-0.05099854,-0.03539626,-0.16999942,-0.43307927,-0.35897696,-0.33567137,-0.491871,826.8132,801.8315,807.8755,832.4542,755.09155,-0.27484130859375,-0.01129150390625,0.96490478515625,2.27294921875,-1.577606201171875,-0.665435791015625,1,1.0,1.0,1.0,1.0,75.00
2021-04-12 09:37:04.338,0.5089613,0.6542617,0.4046715,0.39137164,0.24876755,0.32955098,-0.2720414,0.08381216,0.5134159,0.49973664,0.25318187,0.14140336,0.03730934,-0.017870424,-0.0901601,-0.069125295,-0.2798452,-0.37165487,-0.4041544,-0.55021036,771.6117,795.78754,803.8461,774.0293,660.80585,-0.25714111328125,0.0364990234375,0.9700927734375,5.301055908203125,-3.3197021484375,1.79443359375,1,1.0,1.0,1.0,1.0,75.00
