TimeStamp,Delta_TP9,Delta_AF7,Delta_AF8,Delta_TP10,Theta_TP9,Theta_AF7,Theta_AF8,Theta_TP10,Alpha_TP9,Alpha_AF7,Alpha_AF8,Alpha_TP10,Beta_TP9,Beta_AF7,Beta_AF8,Beta_TP10,Gamma_TP9,Gamma_AF7,Gamma_AF8,Gamma_TP10,RAW_TP9,RAW_AF7,RAW_AF8,RAW_TP10,AUX_RIGHT,Accelerometer_X,Accelerometer_Y,Accelerometer_Z,Gyro_X,Gyro_Y,Gyro_Z,HeadBandOn,HSI_TP9,HSI_AF7,HSI_AF8,HSI_TP10,Battery,Elements
2021-04-10 12:59:38.943,1.1488651,0.31770352,-0.06322005,1.0444227,0.8894957,0.28011143,-0.077367395,0.8767154,0.8558584,0.5897194,0.19857487,0.89738166,0.18720913,0.012994294,-0.16657859,0.5636759,-0.4249809,-0.64237136,-0.533821,-0.19900519,767.1795,792.96704,801.4286,760.7326,834.0659,-0.09088134765625,-0.01312255859375,0.99969482421875,5.121612548828125,-5.121612548828125,2.07855224609375,1,1.0,1.0,1.0,1.0,100.00
2021-04-10 12:59:39.163,,,,,,,,,,,,,,,,,,,,,,,,,,,,,,,,,,,,,,/muse/elements/blink
2021-04-10 12:59:39.454,1.1488651,0.40282676,0.033952616,1.0444227,0.8894957,0.38363984,-0.026380494,0.8767154,0.8558584,0.5906645,0.31251895,0.89738166,0.18720913,0.10865946,-0.09682398,0.5636759,-0.4249809,-0.4925685,-0.5987279,-0.19900519,622.1245,785.31134,815.9341,616.08057,774.43225,-0.08538818359375,0.006591796875,0.99957275390625,5.988922119140625,-4.897308349609375,1.682281494140625,1,1.0,1.0,1.0,1.0,100.00
2021-04-10 12:59:39.645,,,,,,,,,,,,,,,,,,,,,,,,,,,,,,,,,,,,,,/muse/elements/blink
2021-04-10 12:59:39.954,1.1488651,0.31694862,0.3334207,1.0444227,0.8894957,0.43259352,0.18153854,0.8767154,0.8558584,0.75118774,0.466905,0.89738166,0.18720913,0.078431726,-0.034959413,0.5636759,-0.4249809,-0.5072218,-0.63992727,-0.19900519,778.86444,798.60803,799.41394,782.49084,625.34796,-0.09307861328125,0.02166748046875,1.00445556640625,3.267364501953125,-4.05242919921875,-0.43365478515625,1,1.0,1.0,1.0,1.0,100.00
2021-04-10 12:59:40.163,,,,,,,,,,,,,,,,,,,,,,,,,,,,,,,,,,,,,,/muse/elements/blink
2021-04-10 12:59:40.455,1.1488651,0.23819612,0.46323764,1.0444227,0.8894957,0.3075986,0.356603,0.8767154,0.8558584,0.683298,0.48859343,0.89738166,0.18720913,-0.0047465577,-0.0015865349,0.5636759,-0.4249809,-0.5178293,-0.6126531,-0.19900519,803.44324,801.8315,806.26373,799.81683,769.19415,-0.08331298828125,0.00311279296875,1.000732421875,4.306640625,-4.366455078125,0.55328369140625,1,2.0,1.0,1.0,2.0,100.00
2021-04-10 12:59:40.956,1.1488651,0.18129922,0.43907335,1.0444227,0.8894957,0.22405201,0.38500342,0.8767154,0.8558584,0.5824336,0.5937653,0.89738166,0.18720913,-0.14147434,-0.016883772,0.5636759,-0.4249809,-0.6252511,-0.5655271,-0.19900519,808.2784,803.44324,812.3077,811.50183,1038.7546,-0.08184814453125,0.00714111328125,1.00079345703125,5.1739501953125,-3.87298583984375,0.844879150390625,1,2.0,1.0,1.0,2.0,100.00
2021-04-10 12:59:41.466,0.90989923,0.18188633,0.31744903,0.93569714,0.3686369,0.078234784,0.34235713,0.5820682,0.52532154,0.5824336,0.6085222,0.58892345,0.5122594,-0.17243141,-0.026100101,0.5115581,-0.13117242,-0.5798068,-0.5598848,-0.07606807,797.8022,800.2198,804.65204,792.96704,623.3333,-0.08245849609375,0.00970458984375,1.0009765625,5.443115234375,-6.033782958984375,1.4654541015625,1,1.0,1.0,1.0,1.0,100.00
2021-04-10 12:59:41.977,1.0873032,0.2939897,-0.010198769,1.0321654,0.7270831,0.010091939,0.0992837,0.7849977,0.84482396,0.47923625,0.42853922,0.83939177,0.3999811,-0.18883905,-0.016794384,0.54639417,-0.1187553,-0.6086273,-0.5904916,-0.08893076,788.5348,801.4286,806.26373,803.0403,711.5751,-0.06549072265625,0.0263671875,1.00189208984375,6.160888671875,-6.572113037109375,3.54400634765625,1,1.0,1.0,1.0,1.0,100.00
2021-04-10 12:59:42.485,1.1378106,0.7067135,0.40696663,1.1621397,0.77914125,0.4165973,0.23456965,0.9334192,0.8206312,0.6679676,0.5043389,0.8652538,0.33655125,-0.08875992,-0.018469457,0.5489757,-0.09321042,-0.5494975,-0.61789834,0.013653543,803.44324,804.2491,802.6374,798.20514,749.0476,-0.03277587890625,0.03961181640625,1.00384521484375,7.31231689453125,-7.70111083984375,8.4637451171875,1,1.0,1.0,1.0,1.0,100.00
2021-04-10 12:59:42.996,1.2642674,0.7170241,0.44476405,1.1275682,0.99258,0.4503691,0.19938046,0.9722112,0.7899591,0.6679676,0.4433934,0.8555905,0.14619629,-0.07084063,-0.016380748,0.5442224,-0.10077093,-0.55179995,-0.62178177,0.08703474,809.0842,809.0842,801.02563,803.8461,762.3443,0.0050048828125,0.042236328125,1.00299072265625,0.964508056640625,-8.3441162109375,7.962799072265625,1,1.0,1.0,1.0,1.0,100.00
2021-04-10 12:59:43.308,,,,,,,,,,,,,,,,,,,,,,,,,,,,,,,,,,,,,,/muse/elements/blink
2021-04-10 12:59:43.506,1.2642674,0.68852484,0.4014347,1.09637,0.99258,0.42894843,0.14116396,0.9507657,0.7899591,0.6592554,0.4433934,0.72281504,0.14619629,-0.03597812,-0.16718978,0.5123063,-0.10077093,-0.57584375,-0.6194329,0.13978952,808.68134,796.1905,787.72894,802.23444,742.1978,0.0284423828125,0.02752685546875,1.0072021484375,5.084228515625,-5.323486328125,-2.983245849609375,1,1.0,1.0,1.0,1.0,100.00
2021-04-10 12:59:44.006,1.2642674,0.49836597,0.20176584,0.9307784,0.99258,0.27735156,-0.09261367,0.8182023,0.7899591,0.52486616,0.21931446,0.6492585,0.14619629,-0.043484066,-0.17109707,0.49815515,-0.10077093,-0.6220076,-0.5981232,0.11637631,792.1612,801.02563,803.8461,794.9817,783.2967,0.0836181640625,0.05609130859375,1.0091552734375,5.86181640625,-6.56463623046875,-1.981353759765625,1,1.0,1.0,1.0,1.0,100.00
2021-04-10 12:59:44.512,1.2642674,0.40464732,0.23993425,0.737009,0.99258,0.19908811,-0.14267921,0.6745782,0.7899591,0.5132691,0.071762115,0.51148087,0.14619629,0.037832823,-0.062563725,0.4730123,-0.10077093,-0.586177,-0.46216637,0.06486866,885.2381,836.8865,787.72894,852.1978,739.7802,0.0845947265625,0.053466796875,0.98382568359375,-5.93658447265625,-0.949554443359375,-35.72418212890625,1,1.0,1.0,1.0,1.0,100.00
2021-04-10 12:59:44.513,,,,,,,,,,,,,,,,,,,,,,,,,,,,,,,,,,,,,,/muse/elements/blink
2021-04-10 12:59:45.019,1.2642674,0.54881525,0.8590578,0.737009,0.99258,0.2506924,0.4580305,0.6745782,0.7899591,0.5251893,0.5082782,0.51148087,0.14619629,0.08119093,0.038761992,0.4730123,-0.10077093,-0.5360946,-0.3458319,0.06486866,801.02563,796.5934,808.2784,809.89014,937.619,-0.00189208984375,0.00238037109375,0.99932861328125,8.919830322265625,-2.041168212890625,-2.848663330078125,1,1.0,1.0,1.0,1.0,100.00
2021-04-10 12:59:45.327,,,,,,,,,,,,,,,,,,,,,,,,,,,,,,,,,,,,,,/muse/elements/blink
2021-04-10 12:59:45.539,1.2642674,0.3789135,1.0215287,0.737009,0.99258,-0.036805797,0.6192448,0.6745782,0.7899591,0.32446933,0.51395434,0.51148087,0.14619629,0.11062385,0.0982796,0.4730123,-0.10077093,-0.4194181,-0.30934992,0.06486866,787.326,800.2198,799.41394,803.0403,633.4066,-0.0482177734375,0.02294921875,0.99407958984375,1.9439697265625,3.887939453125,-1.6448974609375,1,1.0,1.0,1.0,1.0,100.00
2021-04-10 12:59:45.841,,,,,,,,,,,,,,,,,,,,,,,,,,,,,,,,,,,,,,/muse/elements/blink
2021-04-10 12:59:46.050,1.2642674,0.45753318,1.0076334,0.737009,0.99258,0.017056284,0.56997997,0.6745782,0.7899591,0.31846175,0.5138074,0.51148087,0.14619629,0.11480939,-0.07497871,0.4730123,-0.10077093,-0.407494,-0.53256047,0.06486866,808.2784,818.7546,807.8755,806.6667,751.8681,-0.234375,-0.037353515625,0.9854736328125,2.130889892578125,-3.850555419921875,8.590850830078125,1,2.0,1.0,1.0,2.0,100.00
2021-04-10 12:59:46.578,1.2642674,1.1431702,0.5520057,0.737009,0.99258,0.5147927,-0.003072794,0.6745782,0.7899591,0.2011851,0.03149294,0.51148087,0.14619629,0.1975499,-0.080642276,0.4730123,-0.10077093,-0.5656434,-0.857255,0.06486866,797.8022,813.1135,795.38464,796.5934,759.5238,0.0576171875,-0.0423583984375,1.0999755859375,-5.203857421875,-19.058380126953125,22.886505126953125,1,2.0,1.0,1.0,2.0,100.00
2021-04-10 12:59:47.096,1.2642674,1.1431702,0.5443935,0.737009,0.99258,0.5147927,0.058186512,0.6745782,0.7899591,0.2011851,0.1062825,0.51148087,0.14619629,0.1975499,-0.025705254,0.4730123,-0.10077093,-0.5656434,-0.79323846,0.06486866,807.0696,702.71063,792.96704,796.99634,670.4762,0.3262939453125,-0.24462890625,0.8321533203125,8.314208984375,2.833709716796875,-3.117828369140625,1,2.0,1.0,1.0,2.0,100.00
2021-04-10 12:59:47.614,1.2163262,1.1431702,0.48643354,1.0586253,1.2714659,0.5147927,0.049433738,0.6183955,1.3179239,0.2011851,0.05879653,1.0609717,1.3036689,0.1975499,0.010588346,0.9103795,0.23584007,-0.5656434,-0.6023855,0.19859117,804.65204,799.41394,801.8315,803.8461,730.5128,-0.1104736328125,-0.0140380859375,0.99700927734375,20.32196044921875,12.897491455078125,-6.228179931640625,1,1.0,1.0,1.0,1.0,100.00
2021-04-10 12:59:48.135,1.2163262,1.1431702,0.38474068,1.0317554,1.2714659,0.5147927,-0.20854129,0.59051275,1.3179239,0.2011851,-0.034249097,1.0609717,1.3036689,0.1975499,-0.03147256,0.7553453,0.23584007,-0.5656434,-0.4561527,0.20673874,758.315,818.7546,809.89014,753.0769,757.9121,-0.172607421875,0.14306640625,0.97821044921875,0.814971923828125,0.889739990234375,-19.3798828125,1,1.0,1.0,1.0,1.0,100.00
2021-04-10 12:59:48.663,1.2163262,1.1431702,0.22025819,1.0090996,1.2714659,0.5147927,-0.27910596,0.52290165,1.3179239,0.2011851,-0.039623022,0.61330485,1.3036689,0.1975499,-0.05667022,0.6539559,0.23584007,-0.5656434,-0.35304403,0.21069376,821.5751,814.3223,807.47253,818.3516,749.85345,-0.07989501953125,0.06549072265625,1.01922607421875,9.55535888671875,4.2767333984375,-10.160980224609375,1,1.0,1.0,1.0,1.0,100.00
2021-04-10 12:59:49.190,1.9233074,1.0556978,0.42322028,1.508406,1.3423439,1.0932401,0.10202005,1.3722088,1.2727919,0.1890589,0.15948556,1.356453,0.7960103,0.008189164,0.0018934377,0.48345554,-0.0657529,-0.2555329,-0.32910594,0.09652779,933.1868,823.9927,801.4286,936.0073,711.1722,-0.1253662109375,0.12628173828125,1.01031494140625,5.42816162109375,-6.69921875,2.2430419921875,1,1.0,1.0,1.0,1.0,100.00
2021-04-10 12:59:49.293,,,,,,,,,,,,,,,,,,,,,,,,,,,,,,,,,,,,,,/muse/elements/blink
2021-04-10 12:59:49.717,1.9233074,0.88610494,0.44269592,1.7012228,1.3423439,0.8998323,0.11236642,1.5855818,1.2727919,0.25348648,0.22356401,1.356453,0.7960103,0.07269089,0.11546235,0.58305866,-0.0657529,-0.30006608,-0.36068165,-0.018778965,809.0842,796.5934,801.02563,806.26373,715.6044,0.0860595703125,0.06298828125,1.00006103515625,9.233856201171875,-7.484283447265625,3.416900634765625,1,1.0,1.0,1.0,1.0,100.00
2021-04-10 12:59:50.249,1.9579566,0.8824644,0.4511937,1.7012228,1.3370829,0.78871286,0.012377372,1.5855818,1.2465472,0.36199933,0.24827817,1.356453,0.7112348,0.0712043,0.08186251,0.58305866,-0.12549032,-0.3633533,-0.4443746,-0.018778965,804.2491,805.4579,804.2491,800.2198,855.82416,-0.15594482421875,0.11322021484375,1.001953125,6.317901611328125,18.58734130859375,-6.74407958984375,1,1.0,1.0,1.0,1.0,100.00
2021-04-10 12:59:50.606,,,,,,,,,,,,,,,,,,,,,,,,,,,,,,,,,,,,,,/muse/elements/blink
2021-04-10 12:59:50.771,1.9579566,0.7370286,0.41354036,1.7012228,1.3370829,0.27530235,0.01808557,1.5855818,1.2465472,0.27842042,0.20391291,1.356453,0.7112348,0.08646351,0.0525478,0.58305866,-0.12549032,-0.44897982,-0.5325194,-0.018778965,836.4835,826.0073,795.38464,822.381,774.43225,-0.2666015625,0.1324462890625,0.95501708984375,0.85235595703125,-2.13836669921875,3.69354248046875,1,1.0,1.0,1.0,1.0,100.00
2021-04-10 12:59:51.273,1.9579566,0.9125781,0.45460382,1.7012228,1.3370829,-9.587954E-4,0.13176844,1.5855818,1.2465472,0.21592902,0.049093746,1.356453,0.7112348,0.009942969,-0.040546,0.58305866,-0.12549032,-0.5934832,-0.5692909,-0.018778965,801.02563,801.8315,803.8461,797.8022,715.6044,-0.23883056640625,0.15673828125,0.96826171875,6.482391357421875,-5.091705322265625,2.79632568359375,1,1.0,1.0,1.0,1.0,100.00
2021-04-10 12:59:51.789,1.9579566,0.9125781,0.5167382,1.7012228,1.3370829,-9.587954E-4,0.21111938,1.5855818,1.2465472,0.21592902,0.13682023,1.356453,0.7112348,0.009942969,0.09313762,0.58305866,-0.12549032,-0.5934832,-0.39867562,-0.018778965,796.1905,805.05493,796.5934,799.41394,857.4359,-0.23297119140625,0.136962890625,0.98040771484375,4.5758056640625,-2.624359130859375,-3.887939453125,1,1.0,1.0,1.0,1.0,100.00
2021-04-10 12:59:52.317,0.90797085,0.85665894,0.28811598,0.29133654,0.60771906,0.24539152,-0.13514848,0.010702274,0.8011548,0.3565358,0.051429395,0.7155383,0.3773613,0.26133212,0.17452346,0.40590057,-0.33393854,-0.38976988,-0.27578858,-0.1516524,814.3223,812.71063,803.44324,810.696,765.9707,-0.35809326171875,0.120361328125,0.9927978515625,-8.516082763671875,13.23394775390625,1.854248046875,1,2.0,1.0,1.0,2.0,100.00
2021-04-10 12:59:52.825,1.0715709,1.1362189,0.8276342,0.35533285,0.62576807,0.15601507,-0.13401282,0.11220692,0.80160105,0.36053947,0.21154758,0.7173088,0.27438483,0.17451221,0.085881256,0.2901437,-0.28260037,-0.3319377,-0.26611942,-0.07870004,820.3663,777.25275,808.2784,816.337,912.6374,-0.40240478515625,0.09320068359375,0.96490478515625,2.67669677734375,10.9161376953125,-0.94207763671875,1,1.0,1.0,1.0,1.0,100.00
2021-04-10 12:59:53.336,1.2221502,1.1740723,0.91903156,0.6028042,0.6733101,0.1309162,-0.19317842,0.11704385,0.8733248,0.35625803,0.14798817,0.74565256,0.3073705,0.14815383,0.021290418,0.23851356,-0.26951617,-0.3131378,-0.2817437,-0.028750211,626.9597,794.9817,811.9048,666.8498,936.0073,-0.4075927734375,0.04034423828125,0.92694091796875,0.82244873046875,-3.925323486328125,0.874786376953125,1,1.0,1.0,1.0,1.0,100.00
2021-04-10 12:59:53.567,,,,,,,,,,,,,,,,,,,,,,,,,,,,,,,,,,,,,,/muse/elements/blink
2021-04-10 12:59:53.840,1.341726,1.3826643,0.9738051,0.7084252,0.7036881,0.25811896,0.3977593,0.16572453,0.6451199,0.2544305,0.4286146,0.39588422,0.2501618,-0.021454934,0.0010483057,0.1176008,-0.23513149,-0.26093236,-0.30430678,0.01671331,806.6667,801.8315,798.60803,810.293,583.8461,-0.3970947265625,0.0306396484375,0.88916015625,3.925323486328125,3.760833740234375,2.55706787109375,1,1.0,1.0,1.0,1.0,100.00
2021-04-10 12:59:54.348,1.3889077,1.1308657,0.8159893,0.8525424,0.71046036,0.49647182,0.5339926,0.13622937,0.639931,0.52864885,0.4277074,0.32175213,0.26838782,0.15213129,0.012072872,0.082966514,-0.23359577,-0.28747144,-0.27056023,0.053445395,791.3553,787.72894,805.8608,815.5311,822.381,-0.5435791015625,0.0474853515625,0.8575439453125,4.78515625,17.33123779296875,-1.114044189453125,1,1.0,1.0,1.0,1.0,95.00
2021-04-10 12:59:54.864,1.3889077,1.17071,0.83395416,0.9221055,0.71046036,0.51559234,0.65312916,0.12890562,0.639931,0.6151852,0.45029306,0.32048944,0.26838782,0.123079486,0.027053641,0.073826864,-0.23359577,-0.27911478,-0.34088388,0.07560551,805.4579,821.978,799.41394,788.93774,808.2784,-0.50396728515625,0.08734130859375,0.8985595703125,5.21881103515625,-14.377899169921875,-4.329071044921875,1,1.0,1.0,1.0,1.0,95.00
2021-04-10 12:59:55.390,1.3889077,1.17071,0.8393606,0.9221055,0.71046036,0.51559234,0.57280403,0.12890562,0.639931,0.6151852,0.48567697,0.32048944,0.26838782,0.123079486,0.008658393,0.073826864,-0.23359577,-0.27911478,-0.36521786,0.07560551,683.36993,773.6264,816.7399,672.8938,610.84247,-0.4595947265625,0.02471923828125,0.889404296875,9.92919921875,-15.828399658203125,4.2767333984375,1,1.0,1.0,1.0,1.0,95.00
2021-04-10 12:59:55.492,,,,,,,,,,,,,,,,,,,,,,,,,,,,,,,,,,,,,,/muse/elements/blink
2021-04-10 12:59:55.912,1.3889077,1.1277769,0.92170924,0.9221055,0.71046036,0.44356737,0.45996782,0.12890562,0.639931,0.60779184,0.38550603,0.32048944,0.26838782,0.08925084,-0.05175795,0.073826864,-0.23359577,-0.3140096,-0.52336925,0.07560551,813.91943,803.44324,792.5641,805.4579,668.46155,-0.37261962890625,0.0037841796875,0.913818359375,3.506622314453125,-13.7274169921875,1.136474609375,1,1.0,1.0,1.0,1.0,95.00
2021-04-10 12:59:56.427,1.3889077,1.1277769,0.8180269,0.9221055,0.71046036,0.44356737,0.31248087,0.12890562,0.639931,0.60779184,0.25100133,0.32048944,0.26838782,0.08925084,-0.15446259,0.073826864,-0.23359577,-0.3140096,-0.47579432,0.07560551,795.78754,797.8022,796.5934,796.99634,792.5641,-0.32916259765625,0.00567626953125,0.951171875,1.55517578125,-6.6693115234375,1.62994384765625,1,2.0,1.0,1.0,2.0,95.00
2021-04-10 12:59:56.935,1.3889077,0.43406516,0.8275771,0.9221055,0.71046036,0.41800705,0.45072064,0.12890562,0.639931,0.3270887,0.12330007,0.32048944,0.26838782,-0.03585655,-0.10911646,0.073826864,-0.23359577,-0.6323955,-0.6206911,0.07560551,798.60803,795.78754,796.99634,799.011,826.8132,-0.36688232421875,-6.7138671875E-4,0.94256591796875,4.366455078125,-2.0635986328125,-0.657958984375,1,2.0,1.0,1.0,2.0,95.00
2021-04-10 12:59:56.998,,,,,,,,,,,,,,,,,,,,,,,,,,,,,,,,,,,,,,/muse/elements/blink
2021-04-10 12:59:57.445,1.3889077,0.528797,0.4598656,0.9221055,0.71046036,0.37403318,0.36095405,0.12890562,0.639931,0.40492237,0.13503486,0.32048944,0.26838782,-0.046789065,-0.06572026,0.073826864,-0.23359577,-0.55473024,-0.53569496,0.07560551,814.3223,799.81683,800.6227,819.15753,1055.2748,-0.358154296875,-0.02398681640625,0.94305419921875,4.493560791015625,-6.258087158203125,1.68975830078125,1,2.0,1.0,1.0,2.0,95.00
2021-04-10 12:59:57.946,1.21073,0.50410455,0.41038343,0.9221055,1.1075696,0.27902564,0.18696325,0.12890562,1.0728348,0.41298193,0.1616747,0.32048944,0.3086738,-0.10597855,-0.11493123,0.073826864,-0.41607565,-0.47446707,-0.5321061,0.07560551,776.8498,809.0842,796.1905,772.01465,634.21246,-0.3416748046875,-0.002197265625,0.93890380859375,4.822540283203125,-2.669219970703125,3.132781982421875,1,1.0,1.0,1.0,1.0,95.00
2021-04-10 12:59:58.231,,,,,,,,,,,,,,,,,,,,,,,,,,,,,,,,,,,,,,/muse/elements/blink
2021-04-10 12:59:58.457,1.21073,0.82164204,0.614495,0.9221055,1.1075696,0.56218505,0.35527408,0.12890562,1.0728348,0.7994715,0.6972343,0.32048944,0.3086738,-0.04827773,-0.22325522,0.073826864,-0.41607565,-0.46949774,-0.5265918,0.07560551,799.011,803.44324,793.7729,803.0403,767.1795,-0.35223388671875,0.00244140625,0.93731689453125,3.70849609375,-4.388885498046875,2.115936279296875,1,1.0,1.0,1.0,1.0,95.00
2021-04-10 12:59:58.973,1.21073,1.1655347,0.83967847,0.9221055,1.1075696,0.8668287,0.57163554,0.12890562,1.0728348,0.8460385,0.75671154,0.32048944,0.3086738,0.023233624,-0.24095675,0.073826864,-0.41607565,-0.48121938,-0.5422144,0.07560551,809.89014,799.011,807.47253,813.91943,749.85345,-0.35833740234375,0.0072021484375,0.935302734375,5.30853271484375,-4.6954345703125,1.1962890625,1,1.0,1.0,1.0,1.0,95.00
2021-04-10 12:59:59.501,1.21073,1.1845741,0.8196372,0.9221055,1.1075696,0.8930883,0.6094524,0.12890562,1.0728348,0.8460385,0.75671154,0.32048944,0.3086738,0.06818644,-0.14563015,0.073826864,-0.41607565,-0.5740576,-0.5493801,0.07560551,805.4579,809.89014,791.3553,809.4872,782.49084,-0.35821533203125,0.0048828125,0.93585205078125,4.56085205078125,-3.529052734375,1.24114990234375,1,1.0,1.0,1.0,1.0,95.00
2021-04-10 13:00:00.007,0.30908903,1.0203475,0.6071214,0.4249888,0.22176795,0.68960935,0.44016623,0.5527136,0.40412164,0.8295076,0.7426023,0.6835248,0.4864521,-0.03829773,-0.032125667,0.23837924,-0.2178801,-0.51764476,-0.54815817,-0.3112668,809.89014,807.47253,796.5934,808.68134,645.89746,-0.3568115234375,0.00299072265625,0.9349365234375,4.18701171875,-4.149627685546875,0.755157470703125,1,1.0,1.0,1.0,1.0,95.00
2021-04-10 13:00:00.512,0.2708117,0.13745713,-0.19472978,0.3123679,0.30118603,-0.10315602,-0.15834183,0.5023049,0.8723576,0.4432773,0.12545086,0.8878839,0.37377083,-0.09562427,0.030363178,0.30598602,-0.2758481,-0.45251754,-0.584926,-0.3635082,790.54944,793.7729,794.9817,796.1905,684.9817,-0.35833740234375,0.001220703125,0.935302734375,3.84307861328125,-3.828125,0.171966552734375,1,1.0,1.0,1.0,1.0,95.00
2021-04-10 13:00:01.023,0.33190823,0.2993988,0.07695554,0.38176057,0.275098,0.06462479,-0.17942117,0.4553128,0.8647326,0.4436523,-0.00944039,0.90543735,0.3234344,-0.05817167,0.03814764,0.30077296,-0.34530988,-0.43229288,-0.60975623,-0.3296197,784.90845,799.81683,794.17584,785.7143,613.663,-0.35894775390625,0.00335693359375,0.935302734375,4.194488525390625,-3.985137939453125,2.325286865234375,1,1.0,1.0,1.0,1.0,95.00
2021-04-10 13:00:01.531,0.32648802,0.32041118,0.4448237,0.35647684,0.27824223,0.19306712,-0.107165374,0.3229652,0.85700417,0.46709898,0.0047844714,0.87527066,0.21383506,-0.030408474,0.07315131,0.2759617,-0.35299566,-0.41238493,-0.53789854,-0.33639175,809.89014,799.41394,796.99634,802.23444,740.18317,-0.36505126953125,0.0069580078125,0.93560791015625,4.059906005859375,-4.762725830078125,2.28790283203125,1,1.0,1.0,1.0,1.0,95.00
2021-04-10 13:00:01.609,,,,,,,,,,,,,,,,,,,,,,,,,,,,,,,,,,,,,,/muse/elements/blink
2021-04-10 13:00:02.051,0.38571858,0.67816573,0.69948214,0.873891,0.1877606,0.5008137,0.21911615,0.8482202,0.8185167,0.3989362,0.28757018,1.0645218,0.25377837,-0.06332308,0.03671569,0.42860207,-0.34111357,-0.44193187,-0.5442971,-0.28318733,806.26373,799.41394,795.38464,802.23444,802.23444,-0.35455322265625,0.00811767578125,0.93780517578125,4.23187255859375,-4.59075927734375,0.994415283203125,1,1.0,1.0,1.0,1.0,95.00
2021-04-10 13:00:02.575,0.23994805,0.63817495,0.6931925,0.89274216,0.0415494,0.4695143,0.20910668,0.8981013,0.13542648,0.3903769,0.3034179,1.0602574,0.18314837,-0.12658064,-0.025308792,0.4834421,-0.31174293,-0.40023625,-0.55435276,-0.33357784,799.011,791.75824,803.8461,800.2198,643.8828,-0.35833740234375,0.0157470703125,0.9332275390625,1.697235107421875,-3.81317138671875,12.81524658203125,1,1.0,1.0,1.0,1.0,95.00
2021-04-10 13:00:02.710,,,,,,,,,,,,,,,,,,,,,,,,,,,,,,,,,,,,,,/muse/elements/blink
2021-04-10 13:00:03.103,0.23994805,1.109192,0.77022684,1.0024416,0.0415494,0.74282044,0.30746704,1.027759,0.13542648,0.42694,0.32027674,1.0602574,0.18314837,-0.12570769,-0.12435746,0.580775,-0.31174293,-0.44607055,-0.6334253,-0.36237547,790.54944,810.293,792.1612,784.10254,635.0183,-0.35650634765625,0.02783203125,0.9366455078125,4.702911376953125,-5.443115234375,0.740203857421875,1,1.0,1.0,1.0,1.0,95.00
2021-04-10 13:00:03.532,,,,,,,,,,,,,,,,,,,,,,,,,,,,,,,,,,,,,,/muse/elements/blink
2021-04-10 13:00:03.627,0.23994805,1.2872291,0.7212016,0.46415845,0.0415494,0.80690897,0.10656484,0.44928655,0.13542648,0.4237096,0.015255263,0.53885084,0.18314837,-0.120781936,-0.1518692,0.37724346,-0.31174293,-0.44085523,-0.65879667,-0.41952714,839.707,804.65204,788.93774,847.3626,1073.0037,-0.35614013671875,0.0262451171875,0.9373779296875,4.127197265625,-5.5328369140625,1.547698974609375,1,1.0,1.0,1.0,1.0,95.00
2021-04-10 13:00:04.131,0.23994805,1.5175369,0.8380834,0.46415845,0.0415494,1.0509955,0.1492819,0.44928655,0.13542648,0.44793496,-0.07357303,0.53885084,0.18314837,-0.06746435,-0.12117093,0.37724346,-0.31174293,-0.44800344,-0.67441905,-0.41952714,806.26373,800.6227,799.011,799.41394,845.7509,-0.3487548828125,0.0230712890625,0.93695068359375,4.209442138671875,-4.837493896484375,0.800018310546875,1,1.0,1.0,1.0,1.0,95.00
2021-04-10 13:00:04.647,0.23994805,1.3582076,0.8380834,0.46415845,0.0415494,0.8641976,0.1492819,0.44928655,0.13542648,0.4051211,-0.07357303,0.53885084,0.18314837,0.050936162,-0.12117093,0.37724346,-0.31174293,-0.3760684,-0.67441905,-0.41952714,792.1612,799.41394,801.4286,790.54944,635.42126,-0.35577392578125,0.02264404296875,0.9373779296875,4.42626953125,-4.149627685546875,1.203765869140625,1,1.0,1.0,1.0,1.0,100.00
2021-04-10 13:00:05.172,0.23994805,1.0834724,0.4145343,0.46415845,0.0415494,0.61183345,0.18262646,0.44928655,0.13542648,0.32084927,-0.036271278,0.53885084,0.18314837,0.021344839,-0.037239738,0.37724346,-0.31174293,-0.4101061,-0.5329229,-0.41952714,788.5348,801.02563,801.8315,794.9817,664.83514,-0.363037109375,0.018798828125,0.93341064453125,4.18701171875,-4.807586669921875,1.024322509765625,1,1.0,1.0,1.0,1.0,100.00
2021-04-10 13:00:05.702,0.17577788,0.4491732,0.20753029,0.3987493,0.4764172,0.08398703,0.016561005,0.3101051,0.9167655,0.4626109,0.18581459,0.6403048,0.23471254,0.009406642,-0.052551918,0.26707724,-0.25518563,-0.49948296,-0.56566554,-0.15002035,808.2784,814.3223,796.1905,805.05493,572.96704,-0.3548583984375,0.02679443359375,0.93701171875,4.725341796875,-5.4132080078125,1.62994384765625,1,1.0,1.0,1.0,1.0,100.00
2021-04-10 13:00:06.226,0.4662606,0.17254443,-0.014386843,0.4782519,0.6240119,0.20107372,-0.07026503,0.38121876,1.0374041,0.4767457,0.301894,0.71852374,0.28551048,0.036684774,-0.034580268,0.26139376,-0.3011203,-0.46859488,-0.5772925,-0.105028175,803.8461,796.99634,796.5934,800.6227,751.06226,-0.35931396484375,0.01910400390625,0.93408203125,4.583282470703125,-4.78515625,0.4486083984375,1,1.0,1.0,1.0,1.0,100.00
2021-04-10 13:00:06.753,0.647416,0.15453283,0.08378034,0.5252364,0.7954832,0.31796503,-0.044794094,0.56112427,1.0767975,0.48817125,0.30333576,0.7267068,0.30993173,0.057192583,-0.019206505,0.22122607,-0.3415364,-0.4330021,-0.42895153,-0.104791634,745.0183,800.6227,796.5934,729.707,821.978,-0.3564453125,0.02154541015625,0.9305419921875,4.344024658203125,-5.9515380859375,0.777587890625,1,1.0,1.0,1.0,1.0,100.00
2021-04-10 13:00:06.756,,,,,,,,,,,,,,,,,,,,,,,,,,,,,,,,,,,,,,/muse/elements/blink
2021-04-10 13:00:07.264,0.82149523,0.29814175,0.57639456,0.6369577,0.85505545,0.35737395,0.53783333,0.7444375,1.0753374,0.5159119,0.5805921,0.6768987,0.3476672,0.022962866,0.04386662,0.21456298,-0.41778365,-0.3056073,-0.35535213,0.022981381,811.0989,797.3993,798.20514,806.6667,823.9927,-0.34185791015625,0.022705078125,0.9415283203125,4.44122314453125,-4.673004150390625,0.485992431640625,1,1.0,1.0,1.0,1.0,100.00
2021-04-10 13:00:07.772,0.87448674,0.29418626,0.6128756,0.6725282,0.9292629,0.2544432,0.52137595,0.8815931,1.0698137,0.49593255,0.5776826,0.65440494,0.32874256,-0.061727036,0.0068929764,0.19599797,-0.4229746,-0.3647392,-0.35999373,0.064142376,786.1172,798.60803,791.75824,793.36993,663.6264,-0.34112548828125,0.027587890625,0.9488525390625,4.9945068359375,-5.0244140625,1.21124267578125,1,1.0,1.0,1.0,1.0,100.00
2021-04-10 13:00:08.274,0.87448674,0.19820167,0.58327216,0.6725282,0.9292629,0.20663053,0.51554984,0.8815931,1.0698137,0.4038391,0.5776826,0.65440494,0.32874256,-0.1269732,-0.07995024,0.19599797,-0.4229746,-0.39595816,-0.5152608,0.064142376,782.49084,800.2198,798.60803,790.9524,675.7143,-0.34173583984375,0.02423095703125,0.943359375,4.35150146484375,-4.673004150390625,1.099090576171875,1,1.0,1.0,1.0,1.0,100.00
2021-04-10 13:00:08.793,0.24340057,-0.07360257,0.20859805,-0.10142029,0.55456144,-0.005266224,-0.061832696,0.40212765,0.8469004,0.09376626,0.30123216,0.5755611,0.32368731,-0.11396923,-0.1732948,0.36514896,-0.48732534,-0.49043167,-0.5599241,-0.33321968,811.9048,800.6227,792.96704,810.293,845.7509,-0.340087890625,0.01513671875,0.941650390625,4.38140869140625,-4.448699951171875,0.58319091796875,1,1.0,1.0,1.0,1.0,100.00
2021-04-10 13:00:09.295,0.5769874,-0.34528536,-0.2197186,0.2524351,0.4826699,-0.07814843,-0.5690884,0.33388272,0.8469004,0.20651637,-0.28109708,0.5755611,0.24006273,-0.07064741,-0.21818188,0.28710252,-0.5153736,-0.44185188,-0.5636351,-0.23130968,809.89014,806.26373,797.8022,804.2491,784.90845,-0.3465576171875,0.02587890625,0.93438720703125,4.717864990234375,-0.934600830078125,1.016845703125,1,1.0,1.0,1.0,1.0,100.00
2021-04-10 13:00:09.702,,,,,,,,,,,,,,,,,,,,,,,,,,,,,,,,,,,,,,/muse/elements/blink
2021-04-10 13:00:09.813,0.6270643,-0.06665774,0.0029067227,0.33198965,0.36144376,-0.3000633,-0.5664498,0.29368046,0.6266022,0.24600528,-0.13835636,0.39083776,0.1277739,-0.077278815,-0.23526107,0.1909621,-0.50786304,-0.44143575,-0.51192355,-0.20411365,873.5531,809.4872,791.3553,867.9121,606.0073,-0.32464599609375,-0.00115966796875,0.94000244140625,5.345916748046875,-8.665618896484375,-0.545806884765625,1,1.0,1.0,1.0,1.0,100.00
2021-04-10 13:00:10.319,0.67727774,0.7523439,0.8405725,0.42655256,0.31992248,0.21475808,-0.006262372,0.1377891,0.06606255,0.34421808,0.11630998,0.07390132,0.14447924,-0.06726652,-0.1700651,0.16243619,-0.5142838,-0.36913747,-0.5163822,-0.106415115,800.2198,794.17584,796.99634,795.78754,695.05493,-0.3157958984375,0.0284423828125,0.952392578125,1.443023681640625,-7.274932861328125,-0.500946044921875,1,1.0,1.0,1.0,1.0,100.00
2021-04-10 13:00:10.847,0.33644006,0.78355014,0.86706865,0.20724949,0.15519676,0.24254522,0.03088011,-0.041064646,-0.047250308,0.31090012,0.14072864,0.06594682,0.18996194,-0.16194987,-0.02389475,0.1635456,-0.49423176,-0.36436796,-0.50370026,-0.08666406,805.05493,801.02563,798.20514,806.26373,821.978,-0.2860107421875,0.02130126953125,0.9586181640625,3.66363525390625,-5.1739501953125,-0.6280517578125,1,1.0,1.0,1.0,1.0,100.00
2021-04-10 13:00:11.348,0.33644006,0.7876725,0.84536606,0.20724949,0.15519676,0.24592984,0.06439853,-0.041064646,-0.047250308,0.2689307,0.14315069,0.06594682,0.18996194,-0.13772283,0.0684928,0.1635456,-0.49423176,-0.39958268,-0.500047,-0.08666406,810.293,808.2784,799.81683,803.8461,818.7546,-0.2847900390625,0.01263427734375,0.9609375,4.044952392578125,-3.267364501953125,0.366363525390625,1,1.0,1.0,1.0,1.0,100.00
2021-04-10 13:00:11.858,0.65756786,0.36153153,0.043085277,0.47464186,0.59885633,-0.103699416,-0.31722516,0.3629425,0.3272864,-0.112330444,-0.067917265,0.21714315,0.2872856,-0.18157047,0.062431823,0.16016442,-0.45787483,-0.5412587,-0.5583015,-0.27407628,791.75824,808.68134,799.41394,796.5934,684.17584,-0.30413818359375,0.00836181640625,0.95294189453125,3.09539794921875,-2.64678955078125,-1.039276123046875,1,1.0,1.0,1.0,1.0,100.00
2021-04-10 13:00:12.324,,,,,,,,,,,,,,,,,,,,,,,,,,,,,,,,,,,,,,/muse/elements/blink
2021-04-10 13:00:12.367,0.5272989,0.53775156,-0.06540883,0.5421569,0.36062962,0.7548631,-0.018451205,0.30751154,0.3590411,1.6133397,0.55729496,0.29086083,0.18561362,0.3933055,0.087819144,0.17211546,-0.36256328,-0.40261558,-0.600817,-0.2438174,861.8681,805.05493,796.1905,882.01465,828.4249,-0.3026123046875,-0.01092529296875,0.95062255859375,3.648681640625,-2.938385009765625,-0.79254150390625,1,1.0,1.0,1.0,1.0,100.00
2021-04-10 13:00:12.886,0.39251676,0.93252975,0.5372968,0.49334523,0.123487554,1.2778462,0.5542667,0.2564155,0.14499468,1.734404,0.6332652,0.23067568,0.06383458,0.78835225,0.11318011,0.13620088,-0.32400632,-0.117089845,-0.5706033,-0.26254597,811.0989,796.99634,797.3993,802.6374,789.7436,-0.30914306640625,-0.0052490234375,0.952880859375,4.284210205078125,-6.033782958984375,0.785064697265625,1,1.0,1.0,1.0,1.0,100.00
2021-04-10 13:00:13.388,0.34034687,1.1749846,0.59144145,0.62707865,-0.20916547,1.4930731,0.58522123,0.20831192,0.13435529,1.734404,0.6332652,0.15536253,0.05262036,0.9799877,0.067119926,0.18944715,-0.28445095,0.14772221,-0.4698536,-0.20204873,799.41394,810.293,809.0842,799.81683,718.4249,-0.293212890625,-0.00341796875,0.95916748046875,5.18890380859375,-4.972076416015625,0.934600830078125,1,1.0,1.0,1.0,1.0,100.00
2021-04-10 13:00:13.905,0.58026975,0.86491823,0.549039,0.62707865,0.31389514,1.1033219,0.57604307,0.20831192,-0.03634326,1.734404,0.63009375,0.15536253,0.28167465,0.5818934,-0.02518952,0.18944715,-0.491467,-0.016876597,-0.43665478,-0.20204873,794.17584,808.2784,802.23444,791.75824,640.2564,-0.2900390625,-0.00164794921875,0.96331787109375,4.66552734375,-5.9814453125,0.994415283203125,1,1.0,1.0,1.0,1.0,100.00
2021-04-10 13:00:14.414,0.533582,0.4564944,0.16385312,0.39877024,0.2736595,0.22145848,0.075864315,0.3248952,0.27763444,0.52756286,0.17993179,0.4574164,0.2084314,0.02654201,-0.061736923,0.18974231,-0.4741147,-0.19983944,-0.41384456,-0.032514922,794.57874,803.8461,805.05493,793.7729,794.57874,-0.28204345703125,-0.00543212890625,0.9647216796875,4.2767333984375,-5.1141357421875,0.13458251953125,1,1.0,1.0,1.0,1.0,100.00
2021-04-10 13:00:14.937,0.50989735,0.57140154,0.4829044,0.33708692,0.2539982,0.23794541,0.12361282,0.25623566,0.28170326,0.52762824,0.2950181,0.6994037,0.18815775,0.047787793,-0.0034715426,0.18747689,-0.43749103,-0.30729935,-0.42826143,-0.039326135,856.63007,805.4579,803.8461,850.18317,809.89014,-0.27349853515625,-0.009521484375,0.95660400390625,4.927215576171875,-5.390777587890625,-0.979461669921875,1,1.0,1.0,1.0,1.0,100.00
2021-04-10 13:00:15.000,,,,,,,,,,,,,,,,,,,,,,,,,,,,,,,,,,,,,,/muse/elements/blink
2021-04-10 13:00:15.443,0.46991473,0.5315173,0.60025,0.34716323,0.22063701,0.23553124,0.14963911,0.18782431,0.2743138,0.42971206,0.31722808,0.6994037,0.13257332,0.05692502,0.016938595,0.1537578,-0.41282657,-0.41549742,-0.44055998,-0.03156003,801.02563,809.89014,805.4579,807.47253,607.619,-0.26171875,-0.0096435546875,0.9649658203125,5.3533935546875,-5.091705322265625,0.01495361328125,1,1.0,1.0,1.0,1.0,100.00
2021-04-10 13:00:15.979,0.4330891,0.5389243,0.5967799,0.19005011,0.24407722,0.2537144,0.14000893,0.09943534,0.21396115,0.42971206,0.31498435,0.6994037,0.11317869,-2.24064E-4,0.03176614,0.15579098,-0.34037575,-0.4846732,-0.4703989,-0.012581514,805.8608,808.2784,799.41394,802.23444,697.0696,-0.25543212890625,-0.012451171875,0.96807861328125,4.4561767578125,-4.987030029296875,-0.0,1,1.0,1.0,1.0,1.0,100.00
2021-04-10 13:00:16.492,0.3242939,0.15401249,0.30478802,0.09541531,0.08490386,0.040129293,0.045566835,0.1878007,0.15143143,0.2795242,-0.019650726,-0.054071862,0.18588865,-0.08008827,0.007377743,0.1726086,-0.22287971,-0.40985373,-0.5225572,-0.3440639,797.8022,811.50183,808.68134,801.8315,605.2015,-0.24493408203125,-0.017333984375,0.97283935546875,4.56085205078125,-4.583282470703125,0.5682373046875,1,1.0,1.0,1.0,1.0,100.00
2021-04-10 13:00:17.008,0.5076982,0.1025448,0.12560074,0.317006,0.022652518,-0.08118408,-0.20546284,0.13927254,0.19527355,0.18488327,-0.0782384,0.13510029,0.18299812,-0.083004266,-0.039219555,0.1291162,-0.344027,-0.43799874,-0.49100062,-0.38444436,820.3663,808.2784,806.6667,812.3077,830.0366,-0.25384521484375,-0.011474609375,0.971923828125,4.6356201171875,-4.05242919921875,1.15142822265625,1,1.0,1.0,1.0,1.0,100.00
2021-04-10 13:00:17.513,0.40239373,-0.27287698,-0.06317901,0.24870978,-0.028973248,-0.19323249,-0.29046285,-0.022496095,0.2436104,-0.04481394,-0.11726603,0.13510029,0.22456595,-0.04117186,-0.12647787,0.16826238,-0.41193715,-0.46637627,-0.4470184,-0.4068963,808.68134,795.78754,800.2198,800.6227,804.65204,-0.250732421875,-0.0159912109375,0.97186279296875,4.5758056640625,-4.583282470703125,1.0467529296875,1,1.0,1.0,1.0,1.0,100.00
2021-04-10 13:00:18.024,0.30681187,-0.1701303,-0.16151346,0.23664337,-0.14398065,-0.26811448,-0.40686393,-0.17644072,0.21810488,-0.09847134,-0.12951638,0.14363459,0.235684,-0.1063846,-0.17125413,0.19714151,-0.46264127,-0.5186815,-0.38026747,-0.42464218,793.36993,802.23444,788.93774,790.9524,608.022,-0.25,-0.01531982421875,0.97406005859375,4.209442138671875,-3.970184326171875,1.009368896484375,1,1.0,1.0,1.0,1.0,100.00
2021-04-10 13:00:18.535,0.15266798,0.1418855,-0.035361107,0.19622211,-0.09392693,-6.8344414E-4,-0.16585083,-0.35017532,0.35664535,0.23781136,-0.12371229,0.28916845,0.2266315,-0.10797102,-0.13413276,0.2069405,-0.33607402,-0.53118575,-0.435901,-0.34021598,795.78754,807.47253,801.4286,786.9231,674.10254,-0.2537841796875,-0.017578125,0.9716796875,5.1141357421875,-4.2169189453125,1.3458251953125,1,1.0,1.0,1.0,1.0,100.00
2021-04-10 13:00:18.775,,,,,,,,,,,,,,,,,,,,,,,,,,,,,,,,,,,,,,/muse/elements/blink
2021-04-10 13:00:19.044,0.2988949,0.72264165,0.66391355,0.26246408,0.10282241,0.54453325,0.5911453,-0.15182255,0.40132254,0.63960063,0.2718367,0.43405837,0.23257387,-0.052561164,-0.10573884,0.16693695,-0.22517772,-0.48725706,-0.5638225,-0.28859448,826.4103,806.26373,800.2198,823.1868,878.3883,-0.251953125,-0.015380859375,0.97198486328125,4.8748779296875,-4.5758056640625,0.34393310546875,1,1.0,1.0,1.0,1.0,100.00
2021-04-10 13:00:19.564,0.47851092,0.95009726,0.79283834,0.3822382,0.25131407,0.8084792,0.7176495,-0.03891775,0.3942191,0.67152214,0.2718367,0.43405837,0.26627952,0.062983975,-0.08176178,0.113242336,-0.16914298,-0.47555533,-0.6712457,-0.2455117,774.0293,803.44324,802.6374,778.86444,618.9011,-0.250244140625,-0.02093505859375,0.97503662109375,4.119720458984375,-3.820648193359375,-0.3887939453125,1,1.0,1.0,1.0,1.0,100.00
2021-04-10 13:00:20.071,0.6243288,1.0165546,0.81779075,0.41615793,0.38536406,0.87283194,0.7202247,0.04792796,0.37694925,0.67152214,0.37562856,0.43405837,0.32569325,0.06360815,-0.096906334,0.008129155,-0.12030788,-0.4433033,-0.5865426,-0.24202926,799.011,796.99634,796.99634,797.8022,714.7985,-0.2489013671875,-0.02276611328125,0.97442626953125,4.523468017578125,-4.0673828125,0.5682373046875,1,1.0,1.0,1.0,1.0,100.00
2021-04-10 13:00:20.598,0.21983008,0.80302393,0.5473059,0.104146264,0.24763115,0.69970244,0.2999937,0.09036048,0.33324915,0.63545436,0.37975076,0.14471757,0.07225626,0.005762279,-0.1376961,0.18779643,-0.10224673,-0.37889424,-0.4311473,-0.33370703,806.6667,805.8608,799.011,804.65204,894.90845,-0.2464599609375,-0.02423095703125,0.97613525390625,4.269256591796875,-3.90289306640625,0.40374755859375,1,1.0,1.0,1.0,1.0,100.00
2021-04-10 13:00:21.099,0.22413732,-0.0023027938,0.038197808,0.22505887,0.07971112,-0.20181185,-0.38771,0.24522202,0.3602705,-0.17449033,0.17102896,0.2580968,0.0940794,-0.07896854,-0.1108867,0.20248827,-0.3745618,-0.47299176,-0.5068691,-0.27315074,808.2784,803.44324,802.23444,803.0403,790.54944,-0.26922607421875,-0.0181884765625,0.96514892578125,8.680572509765625,-3.15521240234375,-6.220703125,1,1.0,1.0,1.0,1.0,100.00
2021-04-10 13:00:21.609,0.31183597,0.112809815,0.08885404,0.5472215,0.30544996,-0.0907124,-0.3110715,0.5340768,0.50126016,0.08034248,0.10303234,0.7035146,0.21903457,-0.07748283,-0.068841174,0.41735506,-0.41797888,-0.49962708,-0.61440676,-0.2514374,800.6227,805.8608,809.89014,803.8461,786.52014,-0.27764892578125,0.00396728515625,0.9659423828125,4.53094482421875,-4.77020263671875,6.437530517578125,1,1.0,1.0,1.0,1.0,100.00
2021-04-10 13:00:21.888,,,,,,,,,,,,,,,,,,,,,,,,,,,,,,,,,,,,,,/muse/elements/blink
2021-04-10 13:00:22.119,0.33621812,0.491842,0.7294822,0.6555997,0.35303912,0.38842446,0.50692004,0.65089613,0.4539036,0.5878917,0.67655736,0.69581187,0.28267264,-0.0656672,-0.061177246,0.50234073,-0.65492934,-0.5951104,-0.5924025,-0.22584264,806.6667,803.0403,794.17584,800.2198,812.3077,-0.28802490234375,0.0064697265625,0.96148681640625,3.60382080078125,-5.600128173828125,2.811279296875,1,1.0,1.0,1.0,1.0,100.00
2021-04-10 13:00:22.628,0.44719183,0.6849524,0.9855013,0.8468889,0.5632966,0.49373788,0.72420454,0.8256753,0.44518167,0.5878917,0.67197436,0.6870521,0.39514226,-0.06130166,-0.04911068,0.6742269,-0.52050525,-0.48497933,-0.49230886,-0.22759058,823.5897,806.26373,803.0403,800.6227,782.49084,-0.25726318359375,0.00469970703125,0.97021484375,3.9776611328125,-6.826324462890625,0.6280517578125,1,1.0,1.0,1.0,1.0,100.00
2021-04-10 13:00:23.150,0.49225494,0.6576835,0.9684527,0.87247,0.62333614,0.47832856,0.7185773,0.8820924,0.44518167,0.5933862,0.6709629,0.68680036,0.42844322,-0.041974217,-0.1204247,0.73237795,-0.4909144,-0.46299523,-0.40402997,-0.26711518,857.8388,807.47253,792.1612,849.7802,972.27106,-0.25775146484375,-0.0059814453125,0.97113037109375,3.15521240234375,-6.0113525390625,1.293487548828125,1,1.0,1.0,1.0,1.0,100.00
2021-04-10 13:00:23.297,,,,,,,,,,,,,,,,,,,,,,,,,,,,,,,,,,,,,,/muse/elements/blink
2021-04-10 13:00:23.662,0.49225494,0.6985733,0.9597419,0.87247,0.62333614,0.528411,0.7311434,0.8820924,0.44518167,0.89471185,0.60110855,0.68680036,0.42844322,-0.058093425,-0.14393619,0.73237795,-0.4909144,-0.38026643,-0.46775746,-0.26711518,799.81683,801.8315,799.011,812.71063,693.8461,-0.26007080078125,-0.00665283203125,0.97418212890625,3.27484130859375,-4.583282470703125,1.936492919921875,1,1.0,1.0,1.0,1.0,100.00
2021-04-10 13:00:24.186,0.49225494,0.6201176,0.8472783,0.87247,0.62333614,0.5390809,0.6508382,0.8820924,0.44518167,0.89471185,0.5814345,0.68680036,0.42844322,-0.121836826,-0.19814527,0.73237795,-0.4909144,-0.42956546,-0.546016,-0.26711518,808.2784,801.8315,800.6227,807.47253,695.05493,-0.25244140625,-0.00927734375,0.97198486328125,4.194488525390625,-3.970184326171875,1.443023681640625,1,1.0,1.0,1.0,1.0,100.00
2021-04-10 13:00:24.708,0.49225494,0.6010462,0.83906436,-0.21713658,0.62333614,0.51869035,0.65827644,-0.37656608,0.44518167,0.89471185,0.5814345,0.24097341,0.42844322,-0.17493276,-0.1311396,0.017754443,-0.4909144,-0.4425493,-0.63515633,-0.370949,805.4579,805.8608,798.20514,803.44324,905.38464,-0.25946044921875,-0.0174560546875,0.970947265625,4.658050537109375,-4.344024658203125,2.27294921875,1,2.0,1.0,1.0,2.0,100.00
2021-04-10 13:00:25.220,0.064239904,0.22284219,0.46271884,0.026892804,0.07033587,0.09497301,0.21857074,-0.20628749,0.76763594,0.7665938,0.4264995,0.5258481,0.092496224,-0.16799234,-0.12488225,0.05650474,-0.40231293,-0.42597592,-0.5909661,-0.46828848,792.5641,800.2198,799.011,792.1612,733.3333,-0.256103515625,-0.05279541015625,0.98052978515625,-3.117828369140625,-10.51239013671875,-5.241241455078125,1,1.0,1.0,1.0,1.0,100.00
2021-04-10 13:00:25.743,0.26993355,-0.25525373,0.07612807,0.28007585,0.14865486,-0.5061703,-0.17827313,-0.05244995,0.76859206,0.21874404,0.07243979,0.632969,0.025632055,-0.13987657,-0.13602166,0.15067804,-0.40634808,-0.37711027,-0.54596055,-0.34455562,838.49817,804.65204,792.96704,850.989,678.1319,-0.2532958984375,-0.02001953125,0.9781494140625,13.884429931640625,-8.08990478515625,12.583465576171875,1,1.0,1.0,1.0,1.0,100.00
2021-04-10 13:00:25.747,,,,,,,,,,,,,,,,,,,,,,,,,,,,,,,,,,,,,,/muse/elements/blink
2021-04-10 13:00:26.271,0.27372923,0.40225005,0.6692881,0.3950182,0.1948601,0.04849553,0.45168954,0.038768977,0.76839906,0.3993115,0.5302913,0.6179389,0.028249662,-0.13606696,-0.1855664,0.19880264,-0.4065621,-0.3610584,-0.51235867,-0.33332112,798.60803,801.02563,796.99634,798.60803,636.2271,-0.2169189453125,-0.05413818359375,0.976806640625,2.878570556640625,-7.55157470703125,-0.216827392578125,1,1.0,1.0,1.0,1.0,100.00
2021-04-10 13:00:26.775,0.51409215,0.56025404,0.809504,0.5797948,0.27251336,0.13286316,0.58024824,0.1705616,0.3884097,0.38596424,0.5218261,0.54803836,-0.15017016,-0.19126159,-0.22146192,0.30862457,-0.41453257,-0.40220752,-0.44477743,-0.15204169,786.52014,803.44324,801.4286,787.72894,593.1135,-0.232666015625,-0.05169677734375,0.98114013671875,6.243133544921875,-4.463653564453125,4.628143310546875,1,1.0,1.0,1.0,1.0,100.00
2021-04-10 13:00:27.303,0.47791135,0.62731636,0.828731,0.30558306,0.12192511,0.16640115,0.5544202,0.3172756,0.5535078,0.39664745,0.44610152,0.53949106,0.076378606,-0.2056725,-0.24743165,0.111177154,-0.32726824,-0.41073948,-0.43097016,-0.2857247,803.8461,801.8315,803.0403,803.0403,738.97437,-0.17413330078125,-0.0423583984375,0.99139404296875,3.66363525390625,-5.72723388671875,-0.351409912109375,1,1.0,1.0,1.0,1.0,100.00
2021-04-10 13:00:27.805,0.64068156,0.3303438,0.41682374,0.7288472,0.112318695,-0.28179672,-0.024919217,0.39243335,0.57437813,0.0796598,0.18312612,0.6016873,0.058272585,-0.24633062,-0.22612388,0.13926812,-0.258216,-0.39618385,-0.37717697,-0.30391642,811.0989,731.31866,811.0989,803.0403,832.0513,-0.18157958984375,-0.05047607421875,0.981201171875,4.882354736328125,-4.224395751953125,0.52337646484375,1,1.0,1.0,1.0,1.0,100.00
2021-04-10 13:00:28.316,0.51973027,0.23094562,0.52054244,0.60854423,0.033678763,-0.35623896,-0.0301973,0.29923874,0.59180135,-0.047533944,0.08418759,0.6016873,0.06371414,-0.22698332,-0.20567338,0.14230347,-0.23583354,-0.3794054,-0.41940287,-0.31053916,821.1722,811.0989,802.6374,821.1722,753.47986,-0.20904541015625,-0.04156494140625,0.98406982421875,8.396453857421875,4.844970703125,-10.2581787109375,1,1.0,1.0,1.0,1.0,100.00
2021-04-10 13:00:28.832,0.87194055,0.23094562,0.69724673,1.066411,0.44331753,-0.35623896,0.30527234,0.77618265,0.664526,-0.047533944,0.35090947,0.7589032,0.25568092,-0.22698332,-0.096413895,0.3372636,-0.24051148,-0.3794054,-0.4600873,-0.30435994,777.6557,794.9817,804.2491,785.7143,603.9927,-0.29541015625,-0.04681396484375,0.952880859375,4.299163818359375,1.547698974609375,-1.60003662109375,1,1.0,1.0,1.0,1.0,100.00
2021-04-10 13:00:29.361,0.9539211,0.23094562,0.72428167,1.0406051,0.5745498,-0.35623896,0.35191435,0.8306634,0.84002155,-0.047533944,0.35090947,0.80063933,0.35082498,-0.22698332,-0.06130354,0.37171006,-0.2740113,-0.3794054,-0.53932536,-0.24343692,799.41394,801.02563,808.2784,801.4286,664.83514,-0.29254150390625,-0.029296875,0.96044921875,8.14971923828125,-6.706695556640625,-1.7645263671875,1,1.0,1.0,1.0,1.0,100.00
2021-04-10 13:00:29.886,0.9977022,0.5089792,0.68087196,1.1014354,0.63705164,0.07989197,0.2995382,0.9147465,0.84118253,0.012365934,0.34031355,0.8050134,0.4514924,-0.06360844,0.036892537,0.45149228,-0.3556705,-0.24684648,-0.43911746,-0.13652581,833.663,801.8315,801.8315,824.7985,898.93774,-0.25982666015625,-0.02197265625,0.96514892578125,5.21881103515625,-5.241241455078125,-0.7476806640625,1,1.0,1.0,1.0,1.0,100.00
2021-04-10 13:00:30.004,,,,,,,,,,,,,,,,,,,,,,,,,,,,,,,,,,,,,,/muse/elements/blink
2021-04-10 13:00:30.394,0.8393959,0.55478823,0.8489782,0.5955609,0.50299525,0.3155705,0.33209303,0.6099592,0.8254877,0.2924544,0.51403415,0.6807312,0.42554513,-0.100080505,-0.011075376,0.35035458,-0.36180112,-0.3690263,-0.42765757,-0.062035922,812.3077,812.3077,807.8755,813.1135,802.6374,-0.265380859375,-0.00152587890625,0.9718017578125,4.3963623046875,-3.970184326171875,2.833709716796875,1,1.0,1.0,1.0,1.0,100.00
2021-04-10 13:00:30.896,0.4099241,0.55975544,0.9866223,0.60670376,0.2810105,0.32972258,0.5025367,0.5959894,0.5628965,0.29775542,0.51403415,0.58637875,0.47285816,-0.0966354,-0.050526876,0.41401502,-0.45973006,-0.43476555,-0.37174937,-0.032453246,793.7729,809.4872,797.8022,791.3553,616.8865,-0.26214599609375,-0.0111083984375,0.9696044921875,4.3963623046875,-5.450592041015625,0.8673095703125,1,1.0,1.0,1.0,1.0,100.00
2021-04-10 13:00:31.413,0.4099241,0.46745256,0.9310419,0.60670376,0.2810105,0.29862398,0.48537332,0.5959894,0.5628965,0.31009814,0.5042419,0.58637875,0.47285816,-0.038153086,-0.15539393,0.41401502,-0.45973006,-0.509535,-0.449814,-0.032453246,792.5641,795.38464,807.0696,800.6227,705.12823,-0.25714111328125,-0.00732421875,0.97216796875,4.628143310546875,-3.925323486328125,0.755157470703125,1,1.0,1.0,1.0,1.0,100.00
2021-04-10 13:00:31.923,0.60836196,0.5465617,0.6794923,0.49862412,0.110042155,0.19495451,0.3116983,0.37485266,0.74843997,0.40054923,0.62648165,0.80395204,0.2533949,0.12328675,-0.008693589,0.35592186,-0.4346238,-0.45134106,-0.44852754,-0.2787276,801.4286,811.0989,805.4579,801.4286,698.68134,-0.25506591796875,-0.0126953125,0.9677734375,4.418792724609375,-4.23187255859375,0.91217041015625,1,1.0,1.0,1.0,1.0,100.00
2021-04-10 13:00:32.451,0.6376717,0.5080121,0.26243204,0.5578808,0.21498536,0.07393026,-0.13746242,0.29940158,0.8502412,0.32368544,0.6502878,0.8728193,0.35325465,0.103021495,0.13007112,0.42949426,-0.49267158,-0.45173633,-0.44386205,-0.34338117,810.293,798.60803,803.8461,802.23444,867.1062,-0.25738525390625,-0.01092529296875,0.974365234375,4.463653564453125,-3.8580322265625,1.368255615234375,1,1.0,1.0,1.0,1.0,100.00
2021-04-10 13:00:32.586,,,,,,,,,,,,,,,,,,,,,,,,,,,,,,,,,,,,,,/muse/elements/blink
2021-04-10 13:00:32.953,0.7039045,0.6457285,0.79390746,0.63162935,0.26721448,0.28595966,0.6341889,0.32975975,0.8502412,0.2917115,0.7449907,0.8728193,0.36256364,0.06988701,0.12912452,0.4758629,-0.5295529,-0.42444307,-0.39180696,-0.3423433,806.6667,797.8022,803.0403,801.02563,812.3077,-0.25787353515625,-0.01373291015625,0.97137451171875,4.486083984375,-4.583282470703125,1.09161376953125,1,1.0,1.0,1.0,1.0,100.00
2021-04-10 13:00:33.468,0.6846376,0.5837979,1.0424634,0.6453793,0.35349578,0.28054357,0.8520143,0.12415181,0.84854406,0.079277016,0.66914433,0.8596542,0.48662636,-0.11821133,7.3032884E-4,0.5342238,-0.6177593,-0.30957258,-0.27931166,-0.4866006,791.3553,802.23444,799.81683,793.36993,610.4396,-0.25958251953125,-0.009521484375,0.9697265625,4.418792724609375,-3.78326416015625,0.9869384765625,1,1.0,1.0,1.0,1.0,100.00
2021-04-10 13:00:33.981,0.6846376,0.5526014,1.0577728,0.2675901,0.35349578,0.25200686,0.85650116,0.050134446,0.84854406,-0.094017036,0.5740735,-0.15956232,0.48662636,-0.12340027,-0.10672486,0.41712028,-0.6177593,-0.2907648,-0.30468163,-0.20691842,803.44324,796.99634,800.6227,803.8461,807.8755,-0.2569580078125,-0.01123046875,0.96832275390625,4.32159423828125,-3.775787353515625,0.5084228515625,1,1.0,1.0,1.0,1.0,100.00
2021-04-10 13:00:34.494,0.112886555,0.20250705,0.6923739,0.27000797,0.28287223,-0.09533657,0.33852285,0.26350805,0.063230366,0.055934276,0.3941071,0.0201873,0.075127326,-0.117262386,-0.084316805,0.2823357,-0.46459073,-0.31717196,-0.33291796,-0.30547315,809.0842,805.05493,812.3077,807.0696,760.32965,-0.27606201171875,0.01202392578125,0.97064208984375,2.332763671875,1.55517578125,1.65985107421875,1,1.0,1.0,1.0,1.0,100.00
2021-04-10 13:00:35.018,0.37196597,0.5725159,0.43175453,0.46976423,0.4248629,0.09584474,0.017249951,0.4333921,0.45883635,0.41996753,0.12216762,0.35198864,0.092803866,-0.008325423,-0.0073484164,0.30434382,-0.26180708,-0.40350085,-0.34632576,-0.3351932,820.7692,794.9817,803.0403,827.619,664.83514,-0.32891845703125,-0.0328369140625,0.9603271484375,5.226287841796875,-5.87677001953125,2.684173583984375,1,1.0,1.0,1.0,1.0,100.00
2021-04-10 13:00:35.542,0.6424993,0.70408183,0.3376216,0.8124773,0.49241132,0.21725519,-0.004311241,0.584179,0.7313212,0.42707056,0.050794594,0.5360945,0.09504371,-0.045047436,-2.5243082E-4,0.2530975,-0.19919397,-0.45255485,-0.38541165,-0.29786623,815.12823,807.0696,808.2784,809.0842,944.87177,-0.3238525390625,0.0419921875,0.95526123046875,6.721649169921875,-4.702911376953125,6.228179931640625,1,1.0,1.0,1.0,1.0,100.00
2021-04-10 13:00:35.894,,,,,,,,,,,,,,,,,,,,,,,,,,,,,,,,,,,,,,/muse/elements/blink
2021-04-10 13:00:36.051,0.7796127,0.767714,0.3354795,0.9562746,0.55205923,0.3233928,-0.02600526,0.652675,0.7587352,0.44161552,0.06391157,0.5440269,0.18118058,-0.03571022,-0.019098774,0.31712157,-0.13452765,-0.5366453,-0.40142417,-0.2454397,805.05493,794.57874,807.8755,796.5934,784.90845,-0.32275390625,0.01080322265625,0.94964599609375,0.82244873046875,-4.418792724609375,5.87677001953125,1,1.0,1.0,1.0,1.0,100.00
2021-04-10 13:00:36.553,0.86197275,0.8530228,0.34958646,1.0870327,0.51350576,0.4943551,0.021218438,0.6681438,0.7531597,0.41884616,0.1788227,0.5190879,0.24234381,0.02143781,-0.13999851,0.3189154,-0.23543182,-0.56978756,-0.37839583,-0.16215914,799.41394,797.3993,799.41394,807.8755,815.9341,-0.31890869140625,0.0181884765625,0.952392578125,4.08233642578125,-4.29168701171875,-0.052337646484375,1,1.0,1.0,1.0,1.0,100.00
2021-04-10 13:00:37.066,0.8768234,0.83599305,0.45791408,1.123299,0.52734154,0.46139398,0.11870911,0.72227794,0.75170845,0.40751562,0.20494379,0.5104296,0.34253684,0.08584219,-0.1605327,0.39111954,-0.280368,-0.5877965,-0.3440682,-0.16101184,798.20514,799.41394,800.2198,796.99634,672.49084,-0.3133544921875,0.009033203125,0.95440673828125,4.628143310546875,-4.897308349609375,-2.452392578125,1,1.0,1.0,1.0,1.0,100.00
2021-04-10 13:00:37.572,1.188825,0.7966218,0.410966,1.123299,0.6369113,0.3681431,0.15545991,0.72227794,0.8448353,0.40751562,0.20446,0.5104296,0.4755825,0.06751877,-0.11276783,0.39111954,-0.18184777,-0.49104816,-0.3621689,-0.16101184,733.3333,826.8132,778.46155,696.6667,819.9634,-0.32879638671875,0.0098876953125,0.95361328125,6.7889404296875,-4.643096923828125,-8.7628173828125,1,1.0,1.0,1.0,1.0,100.00
2021-04-10 13:00:37.740,,,,,,,,,,,,,,,,,,,,,,,,,,,,,,,,,,,,,,/muse/elements/blink
2021-04-10 13:00:38.081,1.188825,0.593683,0.6295313,1.123299,0.6369113,0.23083194,0.31092128,0.72227794,0.8448353,0.3535878,0.390496,0.5104296,0.4755825,-0.1194413,-0.011426026,0.39111954,-0.18184777,-0.47067812,-0.48668912,-0.16101184,809.4872,800.6227,802.6374,810.293,724.4689,-0.31805419921875,0.0084228515625,0.953857421875,3.910369873046875,-5.271148681640625,-0.0897216796875,1,1.0,1.0,1.0,1.0,100.00
2021-04-10 13:00:38.587,1.3682643,0.7677735,0.8417699,1.123299,0.9936738,0.3993432,0.46036378,0.72227794,1.0601807,0.3946012,0.4005514,0.5104296,0.5044955,-0.10324277,0.06924999,0.39111954,-0.2466933,-0.45425957,-0.5435325,-0.16101184,790.14655,793.7729,802.23444,803.0403,672.8938,-0.30810546875,0.0032958984375,0.96087646484375,4.762725830078125,-3.925323486328125,0.0299072265625,1,1.0,1.0,1.0,1.0,100.00
2021-04-10 13:00:39.094,1.0963515,0.7304706,0.84634346,1.123299,0.91916203,0.40276033,0.4393052,0.72227794,1.0601807,0.39820594,0.4005514,0.5104296,0.36663386,-0.07690797,0.09090515,0.39111954,-0.48808816,-0.52435416,-0.6078656,-0.16101184,807.8755,801.8315,798.60803,802.23444,826.4103,-0.31170654296875,1.220703125E-4,0.9522705078125,5.166473388671875,-4.553375244140625,0.35888671875,1,1.0,1.0,1.0,1.0,100.00
2021-04-10 13:00:39.474,,,,,,,,,,,,,,,,,,,,,,,,,,,,,,,,,,,,,,/muse/elements/blink
2021-04-10 13:00:39.602,1.0298618,0.48187518,0.618117,0.03235319,0.8505937,0.17060822,0.22872889,-0.20522864,1.0601807,0.38690156,0.31415096,0.46049416,0.33926108,-0.06505737,0.089608856,0.15401651,-0.4728195,-0.50882584,-0.5651682,-0.2848685,831.6484,805.05493,791.3553,815.9341,850.58606,-0.301025390625,-0.00225830078125,0.950439453125,4.568328857421875,-4.568328857421875,0.13458251953125,1,1.0,1.0,1.0,1.0,100.00
2021-04-10 13:00:40.105,0.21483245,0.19761388,0.38388702,0.03235319,-0.14860728,0.061329104,-0.01791243,-0.20522864,-0.11755061,-0.008217406,-0.14318067,0.46049416,0.24284369,-0.08308507,0.076953605,0.15401651,-0.445892,-0.45884898,-0.5576522,-0.2848685,795.78754,802.23444,795.78754,803.44324,640.65936,-0.29852294921875,0.0013427734375,0.95867919921875,4.94964599609375,-4.50103759765625,2.684173583984375,1,1.0,1.0,1.0,1.0,100.00
2021-04-10 13:00:40.612,0.21483245,0.79132545,0.6340553,0.03235319,-0.14860728,0.44139108,0.26607934,-0.20522864,-0.11755061,0.04669584,0.27368748,0.46049416,0.24284369,-0.050487608,0.03145518,0.15401651,-0.445892,-0.4302648,-0.48850444,-0.2848685,804.65204,807.0696,800.2198,804.2491,747.03296,-0.2991943359375,-0.00115966796875,0.95379638671875,4.822540283203125,-4.104766845703125,1.024322509765625,1,1.0,1.0,1.0,1.0,100.00
2021-04-10 13:00:41.119,1.2408301,0.83728325,0.6362157,0.03235319,0.8635795,0.48509848,0.26383567,-0.20522864,1.0289791,0.027048813,0.2821924,0.46049416,0.37898526,-0.028740602,-0.07766047,0.15401651,-0.3640945,-0.3887315,-0.50633824,-0.2848685,812.3077,802.23444,804.65204,810.293,900.9524,-0.296630859375,-0.0087890625,0.95489501953125,4.47113037109375,-3.81317138671875,0.665435791015625,1,1.0,1.0,1.0,1.0,100.00
2021-04-10 13:00:41.642,1.0438032,0.7999269,0.45679358,0.7175727,0.6918098,0.42001688,0.21238728,0.50592726,1.0289791,0.06061578,0.30028045,0.9134981,0.27954206,-0.036120072,-0.15660533,0.43736178,-0.33755276,-0.43085617,-0.4325211,-0.12828739,791.75824,805.05493,798.60803,795.78754,749.85345,-0.29833984375,-0.0064697265625,0.95892333984375,4.42626953125,-4.47113037109375,0.725250244140625,1,1.0,1.0,1.0,1.0,100.00
2021-04-10 13:00:42.168,0.9789317,0.32486907,0.080348134,0.9122183,0.6586282,0.03084658,-0.14282124,0.45758504,1.027195,-0.03818522,0.23020391,0.91618836,0.2322862,-0.12586865,-0.13994305,0.3852101,-0.30524015,-0.42118412,-0.50461936,-0.17461783,786.9231,807.47253,801.02563,792.5641,606.0073,-0.2962646484375,-0.00616455078125,0.95294189453125,4.127197265625,-4.194488525390625,0.037384033203125,1,1.0,1.0,1.0,1.0,100.00
2021-04-10 13:00:42.669,0.7852198,0.21566394,0.011725716,0.88480675,0.5447583,-0.07908338,-0.22454,0.55912316,0.75162125,0.035802238,0.26233342,0.9844306,0.2184425,-0.08675666,-0.056799255,0.39275962,-0.31133217,-0.5050876,-0.54500175,-0.2461619,813.91943,804.2491,805.4579,811.0989,917.0696,-0.30511474609375,-0.00860595703125,0.95703125,4.628143310546875,-3.99261474609375,0.9869384765625,1,1.0,1.0,1.0,1.0,100.00
2021-04-10 13:00:43.201,0.94154876,0.5044557,0.1383468,0.9553665,0.7660413,-0.005747487,-0.26360485,0.7780344,0.7880322,0.055820577,-0.03858096,1.113298,0.4332763,-0.025689628,0.00423313,0.5353097,-0.3523735,-0.4888306,-0.66208416,-0.29680058,805.4579,803.8461,799.41394,803.44324,840.10986,-0.294921875,-0.0059814453125,0.95672607421875,4.463653564453125,-5.66741943359375,0.785064697265625,1,1.0,1.0,1.0,1.0,100.00
2021-04-10 13:00:43.734,0.7194012,0.5132646,0.07465487,0.6950328,0.6179765,0.014870767,-0.37718305,0.702696,0.81768274,0.16963366,-0.0539845,1.1080769,0.40587673,0.12108342,0.07645653,0.48374528,-0.36880428,-0.46237805,-0.5626043,-0.23121461,814.3223,801.4286,802.23444,817.9487,964.21246,-0.29766845703125,-0.01141357421875,0.959228515625,4.1571044921875,-4.912261962890625,0.9869384765625,1,1.0,1.0,1.0,1.0,100.00
2021-04-10 13:00:44.249,0.5579845,0.54352134,0.050123874,0.56717694,0.53622025,-0.0500499,-0.3276314,0.6103151,0.8515491,0.35170463,0.10024808,1.1027193,0.34132674,0.09010859,0.097685225,0.45422742,-0.3544933,-0.4439391,-0.5286795,-0.20177728,796.5934,803.0403,804.65204,804.65204,637.8388,-0.29498291015625,-0.0037841796875,0.95721435546875,5.091705322265625,-4.62066650390625,1.114044189453125,1,1.0,1.0,1.0,1.0,100.00
2021-04-10 13:00:44.780,-0.168285,0.2507522,-0.40287822,0.03811577,0.2455576,-0.24071139,-0.17377351,0.16561297,0.7748308,0.32057923,0.26140395,0.6055038,0.14928351,-0.046978254,0.09239528,0.29652634,-0.36114213,-0.54132384,-0.5447425,-0.24628721,759.92676,799.81683,807.8755,750.65936,781.28204,-0.29412841796875,-0.00341796875,0.96063232421875,4.53094482421875,-4.687957763671875,0.994415283203125,1,1.0,1.0,1.0,1.0,100.00
2021-04-10 13:00:44.846,,,,,,,,,,,,,,,,,,,,,,,,,,,,,,,,,,,,,,/muse/elements/blink
2021-04-10 13:00:45.302,-0.43224615,0.17010891,0.5047655,-0.03871643,0.34008414,-0.35223678,0.28057235,0.1819352,0.75145084,0.32479548,0.39119446,0.5750412,0.056731585,-0.16648397,-0.02930016,0.36445972,-0.39409593,-0.64264417,-0.47327584,-0.30739132,801.02563,796.1905,809.89014,807.47253,822.7839,-0.28839111328125,-0.0125732421875,0.9659423828125,4.553375244140625,-5.33843994140625,0.351409912109375,1,1.0,1.0,1.0,1.0,100.00
2021-04-10 13:00:45.808,-0.40774754,-0.04712485,0.64060163,0.036379453,0.35127887,-0.33970043,0.36222127,0.044996373,0.5602828,0.05089917,0.39119446,0.459326,0.10085669,-0.16659445,-0.094356075,0.4205411,-0.44326976,-0.6235286,-0.42167,-0.3994488,812.71063,804.65204,811.0989,801.02563,860.2564,-0.27685546875,-0.01251220703125,0.96343994140625,4.71038818359375,-4.747772216796875,0.91217041015625,1,1.0,1.0,1.0,1.0,95.00
2021-04-10 13:00:46.317,0.14838126,0.11739165,0.6797645,0.036379453,0.405971,-0.06920883,0.3307436,0.044996373,0.45570087,0.13655585,0.22360949,0.459326,0.09017428,-0.051972806,-0.08801164,0.4205411,-0.5500047,-0.53666854,-0.3970955,-0.3994488,800.2198,799.41394,804.2491,811.0989,716.4103,-0.27813720703125,-0.0107421875,0.962646484375,4.658050537109375,-3.895416259765625,0.95703125,1,1.0,1.0,1.0,1.0,95.00
2021-04-10 13:00:46.828,0.27692252,0.26143414,0.31849995,0.01767622,0.39884755,-0.0103862,0.03190694,0.2357928,0.5277336,0.20356649,0.08142255,0.47960466,0.12189552,-0.042869706,-0.05997923,0.0040367134,-0.523484,-0.5098368,-0.51455927,-0.26873696,791.75824,798.60803,793.36993,797.8022,604.7985,-0.27984619140625,-0.01141357421875,0.96441650390625,4.35150146484375,-3.5589599609375,1.1663818359375,1,1.0,1.0,1.0,1.0,95.00
2021-04-10 13:00:47.361,0.26538056,0.3397104,-0.0029716312,0.2958917,0.33280805,0.027366629,-0.11227555,0.27788964,0.60824156,0.21458963,-0.026006367,0.5477587,0.15052743,-0.013067325,-0.058888875,0.11774653,-0.5403573,-0.48870912,-0.6451624,-0.27376813,803.8461,808.68134,799.41394,805.8608,857.4359,-0.278564453125,-0.010986328125,0.9615478515625,4.433746337890625,-3.84307861328125,0.83740234375,1,1.0,1.0,1.0,1.0,95.00
2021-04-10 13:00:47.882,0.30070847,0.3137208,-0.013942937,0.3558435,0.3350663,-0.08785917,-0.15422836,0.21565676,0.7412123,0.28116828,0.10151921,0.6187369,0.15373519,0.053372588,-0.072346345,0.1782942,-0.58228844,-0.402868,-0.7154138,-0.25854525,815.12823,803.8461,801.4286,805.4579,900.14655,-0.2872314453125,-0.0128173828125,0.959228515625,4.792633056640625,-3.648681640625,2.100982666015625,1,1.0,1.0,1.0,1.0,95.00
2021-04-10 13:00:48.389,0.4896509,0.43053153,0.08536485,0.503523,0.5989625,0.16369009,-0.10485176,0.36064917,0.7947073,0.30471107,0.26023325,0.5801958,0.21652037,0.03864736,-5.1172334E-4,0.30464447,-0.54895335,-0.41940376,-0.5663813,-0.2355823,812.71063,807.8755,799.81683,803.8461,752.674,-0.29052734375,-0.00970458984375,0.9588623046875,4.246826171875,-2.4822998046875,2.953338623046875,1,1.0,1.0,1.0,1.0,95.00
2021-04-10 13:00:48.903,0.86525726,0.48006067,0.10629715,0.7376873,0.6821006,0.2395825,-0.1331319,0.38153824,0.7791569,0.3669274,0.3034889,0.8670607,0.22123653,0.05316259,0.013592273,0.3332062,-0.46589348,-0.38821244,-0.38812697,-0.16369295,795.38464,800.2198,799.41394,794.9817,564.90845,-0.31494140625,0.0048828125,0.95318603515625,4.3963623046875,-4.246826171875,7.917938232421875,1,1.0,1.0,1.0,1.0,95.00
2021-04-10 13:00:49.407,0.9437868,0.70790315,0.1989888,0.87375724,0.70420045,0.3585347,-0.11952932,0.63601005,0.8669015,0.4062121,0.2969843,0.87668854,0.20842983,0.029928371,-0.022682108,0.2400561,-0.40172112,-0.45262575,-0.36100867,-0.21285787,791.3553,801.4286,803.44324,793.36993,762.74725,-0.29559326171875,0.0244140625,0.9595947265625,4.224395751953125,-5.226287841796875,-0.171966552734375,1,1.0,1.0,1.0,1.0,95.00
2021-04-10 13:00:49.928,0.89358926,0.63109374,0.13376103,0.86290854,0.59561,0.23892897,-0.17793684,0.63910073,0.77326864,0.34246236,0.2328336,0.87598,0.13756514,-0.010394119,-0.09695414,0.11834642,-0.44912738,-0.40091208,-0.37542868,-0.26833776,808.68134,786.9231,812.3077,826.8132,753.47986,-0.30047607421875,0.01629638671875,0.95947265625,4.8150634765625,-5.5328369140625,3.30474853515625,1,1.0,1.0,1.0,1.0,95.00
2021-04-10 13:00:50.433,0.73823357,0.66230583,0.29378483,0.76337326,0.48595923,0.3371826,-0.22586966,0.6801278,0.83795553,0.41462228,0.38364956,0.84018934,0.21534933,-0.03753688,-0.13888364,0.055067956,-0.526042,-0.48343706,-0.465077,-0.4239368,806.26373,805.8608,799.41394,799.41394,758.71796,-0.28900146484375,0.02593994140625,0.9637451171875,3.75335693359375,-4.56085205078125,-0.306549072265625,1,1.0,1.0,1.0,1.0,95.00
2021-04-10 13:00:50.938,0.89355254,0.6571052,0.50548524,1.0084352,0.44025755,0.4673413,-0.03133796,0.7100937,1.0431077,0.5094085,0.581994,1.3435309,0.3459806,-6.308405E-4,-0.11016532,0.37901327,-0.3977557,-0.4981108,-0.41188088,-0.34289014,803.0403,800.2198,799.011,808.2784,767.98535,-0.29541015625,0.01275634765625,0.96319580078125,4.11224365234375,-2.91595458984375,0.40374755859375,1,1.0,1.0,1.0,1.0,95.00
2021-04-10 13:00:51.454,0.9000899,0.695379,0.52326715,1.1147611,0.41400144,0.5435788,0.113322,0.8068626,1.0205687,0.5094085,0.581994,1.3435309,0.36834404,4.6141882E-4,-0.05871095,0.518464,-0.32198215,-0.6009823,-0.3981755,-0.2138195,817.5458,806.26373,796.5934,809.0842,817.9487,-0.3218994140625,-0.004150390625,0.94720458984375,4.074859619140625,-2.25799560546875,-0.35888671875,1,1.0,1.0,1.0,1.0,95.00
2021-04-10 13:00:51.956,0.78901803,0.6098005,0.41753832,1.0235847,0.4298332,0.42910433,0.12483037,0.71886903,1.0124463,0.50834,0.5472588,1.3435309,0.30102438,-0.037876856,-0.06676742,0.44076735,-0.30838442,-0.54764044,-0.36985275,-0.26627037,813.1135,809.0842,807.8755,801.4286,699.4872,-0.32171630859375,0.00579833984375,0.94482421875,4.74029541015625,-4.35150146484375,1.308441162109375,1,1.0,1.0,1.0,1.0,95.00
2021-04-10 13:00:52.488,0.27418295,0.18605757,-0.10722729,0.43375182,0.2220885,0.046830818,-0.039972667,0.40979064,0.7279089,0.094335645,0.17239243,0.8143252,0.11084314,-0.14910454,-0.1109504,0.13010827,-0.43322203,-0.51750135,-0.45662203,-0.36238176,789.7436,802.23444,801.02563,779.67035,842.1245,-0.32855224609375,0.0015869140625,0.95074462890625,5.510406494140625,-6.213226318359375,0.6280517578125,1,1.0,1.0,1.0,1.0,95.00
2021-04-10 13:00:52.686,,,,,,,,,,,,,,,,,,,,,,,,,,,,,,,,,,,,,,/muse/elements/blink
2021-04-10 13:00:53.013,0.10781213,-0.17577897,0.2996228,0.35982507,0.0955533,-0.6219213,-0.049652733,0.22099315,0.37878194,-0.0339412,0.07596545,0.23624764,0.09465404,-0.14518553,-0.12994605,0.09770658,-0.47564247,-0.46668288,-0.48301548,-0.3976669,804.2491,804.2491,800.2198,810.293,735.34796,-0.319091796875,0.01226806640625,0.947998046875,5.345916748046875,-6.198272705078125,1.607513427734375,1,1.0,1.0,1.0,1.0,95.00
2021-04-10 13:00:53.523,-0.043540835,0.21337289,0.5803638,0.25201598,0.06888254,-0.23359996,0.03677864,0.28965726,0.3692017,0.1401503,0.30269408,0.18169108,0.059034307,-0.13286266,-0.101334214,0.039759222,-0.4138127,-0.40501922,-0.47178417,-0.33736035,808.68134,804.65204,805.4579,801.8315,838.49817,-0.30804443359375,0.012939453125,0.95062255859375,2.549591064453125,-4.358978271484375,4.9346923828125,1,1.0,1.0,1.0,1.0,95.00
2021-04-10 13:00:53.757,,,,,,,,,,,,,,,,,,,,,,,,,,,,,,,,,,,,,,/muse/elements/blink
2021-04-10 13:00:54.050,-0.042200264,0.5784146,0.76100343,0.29851255,0.10341107,0.17949961,0.11666556,0.31966,0.3692017,0.18093155,0.4597999,0.17512092,0.039743595,-0.062062003,-0.07508488,0.059751462,-0.35633367,-0.41315952,-0.41729486,-0.31533247,816.7399,817.5458,799.81683,807.8755,772.8205,-0.35443115234375,0.00543212890625,0.937255859375,5.854339599609375,-4.83001708984375,2.071075439453125,1,1.0,1.0,1.0,1.0,95.00
2021-04-10 13:00:54.560,-0.042200264,0.6779142,0.72168845,0.29851255,0.10341107,0.30011198,0.10424414,0.31966,0.3692017,0.21715906,0.4597999,0.17512092,0.039743595,-0.055195715,-0.027562667,0.059751462,-0.35633367,-0.4416111,-0.39420238,-0.31533247,785.31134,802.6374,806.26373,787.326,571.3553,-0.33978271484375,-0.0018310546875,0.93731689453125,4.882354736328125,-4.717864990234375,2.9010009765625,1,1.0,1.0,1.0,1.0,95.00
2021-04-10 13:00:55.086,0.95102304,0.61829394,0.5338669,0.29851255,0.7635842,0.21155371,0.07356474,0.31966,0.8733819,0.12855724,0.4597999,0.17512092,0.2608514,-0.078364,-0.013142408,0.059751462,-0.27531716,-0.5407823,-0.46974072,-0.31533247,797.8022,798.20514,794.9817,795.78754,806.26373,-0.3065185546875,0.0489501953125,0.9459228515625,7.43194580078125,-9.727325439453125,13.51806640625,1,1.0,1.0,1.0,1.0,95.00
2021-04-10 13:00:55.596,0.7741269,0.33431458,0.121803656,0.4051919,0.6178854,-0.14905418,-0.01621233,0.24014199,0.8833614,0.074535556,0.15089653,0.22927856,0.2466336,-0.22134052,-0.04749126,0.14688443,-0.27035913,-0.5111752,-0.57707256,-0.18548413,815.12823,805.05493,801.02563,804.65204,866.7033,-0.20526123046875,0.143310546875,0.974853515625,5.90667724609375,-15.491943359375,4.71038818359375,1,1.0,1.0,1.0,1.0,95.00
2021-04-10 13:00:56.117,0.34367043,-0.13146278,-0.44583142,0.23326086,0.24463992,-0.6856886,-0.30432215,0.17978452,0.33955288,-0.059825998,0.042179517,0.29644212,0.15127611,-0.09890734,-0.067657806,0.11214187,-0.33072355,-0.4780179,-0.5558906,-0.2702709,815.9341,807.47253,811.50183,813.1135,805.05493,-0.16278076171875,0.12896728515625,0.98748779296875,3.4393310546875,-2.699127197265625,-1.9439697265625,1,1.0,1.0,1.0,1.0,95.00
2021-04-10 13:00:56.634,0.23587349,-0.30507362,-0.2656019,0.1789396,0.19666153,-0.6611015,-0.44995606,0.2062747,0.43986788,-0.010204695,-0.012951428,0.3913223,0.2368319,-0.062401485,-0.013955312,0.22518897,-0.40608615,-0.4742375,-0.5148417,-0.28513095,816.337,801.8315,810.293,804.65204,907.3993,-0.17645263671875,0.11798095703125,0.98114013671875,3.7982177734375,-4.329071044921875,0.366363525390625,1,1.0,1.0,1.0,1.0,95.00
2021-04-10 13:00:57.145,0.25914586,-0.29881585,-0.2808394,0.092343435,0.10295568,-0.40546346,-0.4281103,0.042976364,0.41804698,0.08179572,0.03140281,0.40582046,0.2528364,0.046419505,0.039152898,0.36372733,-0.42820993,-0.52396995,-0.5504981,-0.24906026,799.81683,800.2198,806.6667,803.0403,670.87915,-0.1920166015625,0.0982666015625,0.98016357421875,2.699127197265625,0.10467529296875,-4.5458984375,1,1.0,1.0,1.0,1.0,95.00
2021-04-10 13:00:57.658,0.2514972,-0.2349371,-0.30039483,0.1533139,0.16996272,-0.3367853,-0.4201137,0.15560806,0.42693305,0.06714802,0.02812864,0.44828984,0.254781,-0.013618725,-0.020134466,0.37427065,-0.3666592,-0.4975353,-0.589803,-0.20727533,808.68134,800.2198,803.8461,801.02563,784.5055,-0.2427978515625,0.07403564453125,0.96881103515625,4.299163818359375,-3.6187744140625,-0.52337646484375,1,1.0,1.0,1.0,1.0,95.00
2021-04-10 13:00:58.162,0.27627447,-0.11850177,-0.46272087,0.16317494,0.21996194,-0.26925522,-0.3329923,0.22027564,0.3720096,0.049617313,0.024685003,0.45876846,0.2744989,0.020950321,-0.17034137,0.36209202,-0.23767531,-0.45838267,-0.5698354,-0.18071017,809.0842,805.05493,806.6667,816.7399,755.89746,-0.23760986328125,0.06976318359375,0.9708251953125,4.18701171875,-4.418792724609375,-6.89361572265625,1,1.0,1.0,1.0,1.0,95.00
2021-04-10 13:00:58.682,0.22085485,0.44109175,0.061807267,0.4096889,0.18713963,0.37362152,0.1939708,0.3129623,0.43816203,0.36144656,0.30823568,0.5399441,0.32058024,0.004210862,-0.30856386,0.3601305,-0.16821796,-0.46604258,-0.5778223,-0.1541597,833.663,793.7729,800.2198,843.73627,644.68866,-0.23321533203125,0.04302978515625,0.97589111328125,4.912261962890625,-3.730926513671875,-9.308624267578125,1,1.0,1.0,1.0,1.0,95.00
2021-04-10 13:00:58.780,,,,,,,,,,,,,,,,,,,,,,,,,,,,,,,,,,,,,,/muse/elements/blink
2021-04-10 13:00:59.211,0.29050714,0.64918095,0.30677485,0.6130269,0.1090682,0.4796013,0.23135826,0.26941082,0.4090247,0.36775428,0.3357802,0.5255645,0.3856702,0.0069016824,-0.18818982,0.5166979,-0.12748864,-0.4849616,-0.62882817,-0.11714927,759.5238,763.95605,832.0513,787.72894,645.4945,-0.248046875,0.01861572265625,0.973388671875,3.820648193359375,-4.20196533203125,1.263580322265625,1,1.0,1.0,1.0,1.0,95.00
2021-04-10 13:00:59.713,0.33744222,0.8156604,0.5492308,0.6130269,0.10109569,0.59222335,0.3634321,0.26941082,0.38402072,0.64571357,0.43375754,0.5255645,0.45485145,-0.01616831,0.08075987,0.5166979,-0.15884985,-0.51092726,-0.57774705,-0.11714927,786.1172,804.65204,800.2198,791.75824,585.8608,-0.23370361328125,0.0430908203125,0.97869873046875,4.687957763671875,-4.5458984375,2.01873779296875,1,1.0,1.0,1.0,1.0,95.00
2021-04-10 13:01:00.215,0.33744222,0.87556124,0.6414883,0.81563103,0.10109569,0.47980508,0.28643095,0.2988713,0.38402072,0.62211746,0.41427806,0.41038352,0.45485145,-0.037157558,0.13759659,0.21597101,-0.15884985,-0.51241124,-0.54787916,-0.1337383,805.05493,808.2784,794.9817,801.4286,788.5348,-0.2391357421875,0.0240478515625,0.97357177734375,4.725341796875,-4.508514404296875,-0.261688232421875,1,1.0,1.0,1.0,1.0,95.00
2021-04-10 13:01:00.694,,,,,,,,,,,,,,,,,,,,,,,,,,,,,,,,,,,,,,/muse/elements/blink
2021-04-10 13:01:00.724,0.33744222,0.9472764,0.9027594,0.8542233,0.10109569,0.5444479,0.5678356,0.48865783,0.38402072,0.62211746,0.52925205,0.78328514,0.45485145,-0.03422462,0.15987062,0.27127162,-0.15884985,-0.5800441,-0.5072992,-0.103075795,844.5421,807.8755,794.9817,848.5714,748.6447,-0.2486572265625,0.02972412109375,0.97003173828125,4.015045166015625,-0.590667724609375,2.803802490234375,1,1.0,1.0,1.0,1.0,95.00
2021-04-10 13:01:01.226,0.33744222,1.092399,1.0026953,0.8542233,0.10109569,0.6894002,0.6592162,0.48865783,0.38402072,0.62211746,0.505217,0.78328514,0.45485145,0.02027436,0.004431703,0.27127162,-0.15884985,-0.669374,-0.6006193,-0.103075795,798.60803,812.71063,794.17584,811.9048,619.304,-0.31854248046875,0.0030517578125,0.94927978515625,1.099090576171875,5.375823974609375,6.6693115234375,1,1.0,1.0,1.0,1.0,95.00
2021-04-10 13:01:01.735,0.33744222,1.092399,1.142336,0.81592464,0.10109569,0.6894002,0.7770196,0.53429335,0.38402072,0.62211746,0.408605,0.78328514,0.45485145,0.02027436,-0.12915975,0.29876867,-0.15884985,-0.669374,-0.55997974,-0.064209834,822.381,801.02563,800.2198,818.3516,767.5824,-0.4527587890625,-0.00775146484375,0.89630126953125,4.388885498046875,6.4300537109375,3.147735595703125,1,1.0,1.0,1.0,1.0,95.00
2021-04-10 13:01:02.182,,,,,,,,,,,,,,,,,,,,,,,,,,,,,,,,,,,,,,/muse/elements/blink
2021-04-10 13:01:02.248,0.33744222,0.44687837,0.46279633,0.81592464,0.10109569,0.13752034,0.13225794,0.53429335,0.38402072,0.5169926,0.25345948,0.78328514,0.45485145,0.16935967,0.0041160113,0.29876867,-0.15884985,-0.36786342,-0.55991644,-0.064209834,853.4066,792.1612,840.10986,853.8095,957.3626,-0.45526123046875,0.00347900390625,0.89715576171875,5.27862548828125,-5.899200439453125,3.102874755859375,1,1.0,1.0,1.0,1.0,95.00
2021-04-10 13:01:02.755,0.33744222,0.740324,0.46279633,0.81592464,0.10109569,0.50897354,0.13225794,0.53429335,0.38402072,0.6485609,0.25345948,0.78328514,0.45485145,0.14024492,0.0041160113,0.29876867,-0.15884985,-0.35425308,-0.55991644,-0.064209834,784.90845,807.0696,782.49084,791.3553,718.022,-0.43963623046875,0.018798828125,0.9027099609375,4.792633056640625,-7.28240966796875,2.22808837890625,1,1.0,1.0,1.0,1.0,95.00
2021-04-10 13:01:03.272,0.33744222,0.78828424,0.46279633,0.81592464,0.10109569,0.5565692,0.13225794,0.53429335,0.38402072,0.6382712,0.25345948,0.78328514,0.45485145,0.148164,0.0041160113,0.29876867,-0.15884985,-0.3602172,-0.55991644,-0.064209834,656.3736,776.4469,946.8865,656.77655,736.9597,-0.4112548828125,0.0186767578125,0.9124755859375,5.001983642578125,-5.9515380859375,0.515899658203125,1,2.0,1.0,1.0,2.0,95.00
2021-04-10 13:01:03.397,,,,,,,,,,,,,,,,,,,,,,,,,,,,,,,,,,,,,,/muse/elements/blink
2021-04-10 13:01:03.799,0.33744222,1.2279253,0.46279633,0.81592464,0.10109569,0.99514836,0.13225794,0.53429335,0.38402072,0.529685,0.25345948,0.78328514,0.45485145,0.0026891406,0.0041160113,0.29876867,-0.15884985,-0.31850243,-0.55991644,-0.064209834,823.9927,811.50183,782.0879,810.293,876.77655,-0.40618896484375,0.01361083984375,0.91925048828125,4.224395751953125,-3.7982177734375,1.009368896484375,1,2.0,1.0,1.0,2.0,95.00
2021-04-10 13:01:04.307,0.33744222,1.1128024,0.46279633,0.81592464,0.10109569,0.73944366,0.13225794,0.53429335,0.38402072,0.3944592,0.25345948,0.78328514,0.45485145,-0.042539176,0.0041160113,0.29876867,-0.15884985,-0.29722542,-0.55991644,-0.064209834,801.02563,803.0403,797.3993,805.8608,695.8608,-0.4049072265625,0.01129150390625,0.91693115234375,5.211334228515625,-5.136566162109375,1.742095947265625,1,2.0,1.0,1.0,2.0,95.00
2021-04-10 13:01:04.835,0.33744222,0.91372,0.46279633,0.81592464,0.10109569,0.5433405,0.13225794,0.53429335,0.38402072,0.40526316,0.25345948,0.78328514,0.45485145,-0.05358096,0.0041160113,0.29876867,-0.15884985,-0.24442914,-0.55991644,-0.064209834,792.96704,795.78754,800.2198,787.326,610.4396,-0.39874267578125,0.0245361328125,0.92327880859375,4.53094482421875,-5.48797607421875,-1.128997802734375,1,2.0,1.0,1.0,2.0,95.00
2021-04-10 13:01:05.340,0.38820252,0.93932074,0.7435478,0.4645014,0.038207646,0.5890259,0.48035434,0.3634113,0.25648788,0.7438498,0.40201724,0.79814947,0.14980632,0.014345136,-0.10640891,0.22325733,-0.36894304,-0.2673206,-0.3135281,-0.33574867,794.17584,813.5165,795.38464,801.4286,645.4945,-0.3751220703125,0.0101318359375,0.938232421875,5.5328369140625,-7.394561767578125,2.938385009765625,1,1.0,1.0,1.0,1.0,95.00
2021-04-10 13:01:05.852,0.55274045,1.0769799,0.873243,0.70218945,0.09385579,0.79279983,0.6086042,0.5833675,0.26909915,0.76247615,0.50719887,0.8554958,0.13173175,0.07096399,-0.08127237,0.25172505,-0.38432866,-0.26519823,-0.31009078,-0.30307743,810.696,811.50183,785.7143,803.0403,787.326,-0.3511962890625,0.0252685546875,0.94024658203125,4.628143310546875,-6.063690185546875,0.261688232421875,1,1.0,1.0,1.0,1.0,95.00
2021-04-10 13:01:06.367,0.9961278,1.3487868,1.2506433,0.7975938,0.6854414,1.0660849,0.8048346,0.62898225,0.98082364,0.76247615,0.6457216,0.8500527,0.12359904,0.17746042,0.012173721,0.32739586,-0.45705074,-0.3299247,-0.2752896,-0.26374906,811.50183,795.78754,798.60803,803.0403,883.22345,-0.345947265625,0.01422119140625,0.935791015625,4.687957763671875,-5.42816162109375,1.18133544921875,1,1.0,1.0,1.0,1.0,100.00
2021-04-10 13:01:06.886,0.99461514,1.504694,1.2142748,0.7607857,0.6820497,1.2238783,0.7282448,0.5972852,0.98082364,0.76247615,0.6456785,0.8500527,0.21017283,0.26057515,-0.079826064,0.36681962,-0.42921793,-0.27387738,-0.24610162,-0.18719295,795.78754,796.5934,801.4286,798.60803,633.8095,-0.33831787109375,0.01123046875,0.94134521484375,4.50103759765625,-5.12908935546875,1.039276123046875,1,1.0,1.0,1.0,1.0,100.00
2021-04-10 13:01:07.390,0.8825823,0.65673274,0.9822215,0.43744323,0.6247426,0.019650282,0.4019094,0.35133827,0.9812287,-0.04706506,0.6162631,0.54015803,0.31387717,0.006677313,-0.1539517,0.34699312,-0.44999778,-0.57606035,-0.31224045,-0.15678203,628.5714,783.69965,804.65204,634.21246,751.4652,-0.32421875,0.01446533203125,0.94903564453125,4.44122314453125,-7.29736328125,-0.276641845703125,1,1.0,1.0,1.0,1.0,100.00
2021-04-10 13:01:07.590,,,,,,,,,,,,,,,,,,,,,,,,,,,,,,,,,,,,,,/muse/elements/blink
2021-04-10 13:01:07.900,0.5569196,0.6052782,0.53682375,0.124652505,0.23312709,0.110148415,0.19743776,0.27095985,0.2918068,0.2780172,0.30294386,0.316584,0.3564679,-0.07392868,-0.15653554,0.31697366,-0.4396813,-0.5598839,-0.33031577,-0.15914382,818.3516,804.2491,784.90845,805.4579,955.34796,-0.30908203125,0.0086669921875,0.95391845703125,4.1571044921875,-4.17205810546875,0.70281982421875,1,1.0,1.0,1.0,1.0,100.00
2021-04-10 13:01:08.421,0.66014796,0.7612985,0.5004607,0.05815778,0.38306466,0.37334284,0.30913746,0.387174,0.260572,0.34339243,0.37474918,0.29581112,0.41957465,0.005334211,-0.03229085,0.2513048,-0.62267596,-0.46550727,-0.35314488,-0.24903888,804.2491,805.8608,795.38464,805.4579,781.28204,-0.30718994140625,0.0108642578125,0.95220947265625,4.725341796875,-3.970184326171875,0.859832763671875,1,1.0,1.0,1.0,1.0,100.00
2021-04-10 13:01:08.946,0.66014796,0.73549163,0.41018632,0.05815778,0.38306466,0.5038162,0.27480346,0.387174,0.260572,0.33597767,0.37698388,0.29581112,0.41957465,0.047192752,-0.030732177,0.2513048,-0.62267596,-0.42247912,-0.36200997,-0.24903888,816.337,806.6667,794.17584,813.1135,861.8681,-0.3076171875,0.01739501953125,0.9527587890625,5.046844482421875,-3.431854248046875,3.401947021484375,1,1.0,1.0,1.0,1.0,100.00
2021-04-10 13:01:09.448,1.1311427,0.8895242,0.5100638,0.64438725,0.8701084,0.62602234,0.2672828,0.22595336,0.59887433,0.4761038,0.45313433,0.41057295,0.56127137,0.17020012,0.009450877,0.37082973,-0.17273805,-0.45041892,-0.36416814,-0.34450012,796.5934,803.8461,803.8461,799.011,726.08057,-0.318359375,0.02374267578125,0.95513916015625,4.18701171875,-4.246826171875,1.4654541015625,1,1.0,1.0,1.0,1.0,100.00
2021-04-10 13:01:09.959,0.9939284,0.7689634,0.35510477,0.57737386,0.72743547,0.5029656,0.060446545,0.1530038,0.59887433,0.4561781,0.3311355,0.42384285,0.42559958,0.13357037,-0.06703033,0.30237463,-0.28478473,-0.5408551,-0.39337698,-0.39359137,803.0403,804.2491,790.9524,788.5348,745.82416,-0.3167724609375,0.0142822265625,0.95220947265625,4.015045166015625,-3.626251220703125,0.142059326171875,1,1.0,1.0,1.0,1.0,100.00
2021-04-10 13:01:10.473,0.8517625,0.6307972,0.26332173,0.49722943,0.6440413,0.3796835,-0.034661192,0.20843513,0.63593775,0.4821079,0.3311355,0.4554923,0.32656017,0.04699815,2.4888717E-4,0.37456092,-0.3462763,-0.59278077,-0.41593012,-0.48192844,807.47253,798.60803,793.7729,803.8461,813.1135,-0.32806396484375,0.01031494140625,0.947509765625,4.366455078125,-3.835601806640625,0.94207763671875,1,1.0,1.0,1.0,1.0,100.00
2021-04-10 13:01:10.986,0.15034267,-0.045341756,-0.25056037,0.26285148,0.23538533,-0.029411996,-0.40694797,0.210109,0.5443452,0.33555767,0.13798453,0.45028418,0.19098909,-0.13105755,0.0327097,0.3549239,-0.47910613,-0.5419423,-0.48580533,-0.5188601,875.9707,818.7546,792.5641,873.5531,729.304,-0.316650390625,-0.01947021484375,0.94207763671875,0.8673095703125,-29.59320068359375,-3.192596435546875,1,1.0,1.0,1.0,1.0,100.00
2021-04-10 13:01:11.486,-0.22224899,0.30348778,-0.049729537,0.13432029,0.23681533,0.12482958,-0.29279643,0.2856196,0.52665615,0.30414793,0.14696069,0.39776674,0.25320318,-0.12802625,0.033277944,0.42606834,-0.43906626,-0.43265742,-0.4551136,-0.53632885,799.41394,799.41394,813.1135,801.4286,697.8755,-0.16253662109375,0.00537109375,0.99017333984375,3.342132568359375,-4.80010986328125,1.3458251953125,1,1.0,1.0,1.0,1.0,100.00
2021-04-10 13:01:11.853,,,,,,,,,,,,,,,,,,,,,,,,,,,,,,,,,,,,,,/muse/elements/blink
2021-04-10 13:01:12.020,-0.4109043,0.4730009,0.49397564,0.07089588,0.23882703,0.1153165,-0.2719624,0.35380813,0.49526072,0.1922364,0.14696069,0.39776674,0.3491666,-0.05935645,-0.016530203,0.36261806,-0.5594403,-0.37931457,-0.39179933,-0.4075022,822.7839,809.89014,769.59705,826.4103,729.707,-0.23516845703125,0.0291748046875,0.974365234375,4.83001708984375,4.85992431640625,10.160980224609375,1,1.0,1.0,1.0,1.0,100.00
2021-04-10 13:01:12.542,-0.45853814,0.7699089,0.71621543,-0.015509752,0.26194203,0.23487355,-0.18759325,0.37781093,0.4790336,-0.081477165,-0.038676873,0.39776674,0.3301164,-0.009228432,-0.20411202,0.32348496,-0.5922349,-0.31567678,-0.34547922,-0.37314835,823.5897,831.2454,784.90845,811.0989,796.99634,-0.29644775390625,0.03387451171875,0.95660400390625,6.1907958984375,0.67291259765625,-9.383392333984375,1,1.0,1.0,1.0,1.0,100.00
2021-04-10 13:01:13.047,-0.45853814,0.7699089,0.9310488,-0.015509752,0.26194203,0.23487355,-0.11677456,0.37781093,0.4790336,-0.081477165,-0.084533766,0.39776674,0.3301164,-0.009228432,-0.28641102,0.32348496,-0.5922349,-0.31567678,-0.36125907,-0.37314835,775.64105,790.9524,809.89014,779.67035,666.4469,-0.29486083984375,0.01873779296875,0.95263671875,5.151519775390625,-4.583282470703125,-7.364654541015625,1,1.0,1.0,1.0,1.0,100.00
2021-04-10 13:01:13.564,1.0447288,0.7699089,0.9310488,0.87430584,0.23360403,0.23487355,-0.11677456,0.5521331,0.3132102,-0.081477165,-0.084533766,0.51745987,0.11995402,-0.009228432,-0.28641102,0.33915797,-0.5295557,-0.31567678,-0.36125907,-0.5230358,791.3553,804.2491,794.9817,796.99634,677.72894,-0.298828125,0.02313232421875,0.96142578125,4.3365478515625,-5.263671875,2.639312744140625,1,1.0,1.0,1.0,1.0,100.00
2021-04-10 13:01:14.067,0.9126899,0.7699089,0.9310488,0.7488205,0.34107354,0.23487355,-0.11677456,0.52987427,0.31776178,-0.081477165,-0.084533766,0.51745987,0.021880142,-0.009228432,-0.28641102,0.17863974,-0.580971,-0.31567678,-0.36125907,-0.44568688,819.9634,806.6667,802.23444,821.1722,785.31134,-0.3094482421875,0.01776123046875,0.95355224609375,2.235565185546875,-4.83001708984375,11.23016357421875,1,1.0,1.0,1.0,1.0,100.00
2021-04-10 13:01:14.576,0.88080794,0.7699089,1.3529752,0.8084832,0.6293182,0.23487355,0.8972343,0.5309599,0.55779076,-0.081477165,0.5590919,0.51745987,0.004615434,-0.009228432,-0.053187836,0.13839735,-0.5337493,-0.31567678,-0.33196387,-0.41698453,792.5641,791.3553,804.65204,800.2198,850.58606,-0.30389404296875,0.0235595703125,0.954833984375,3.36456298828125,-2.893524169921875,-0.97198486328125,1,1.0,1.0,1.0,1.0,100.00
2021-04-10 13:01:15.092,0.7379911,0.7699089,1.1514522,0.8467406,0.65928197,0.23487355,0.7371134,0.4789533,0.537144,-0.081477165,0.5590919,0.47519422,0.0030362557,-0.009228432,-0.020035196,0.10332708,-0.42796814,-0.31567678,-0.4028112,-0.3745314,811.0989,815.9341,796.99634,803.8461,774.43225,-0.31500244140625,0.0052490234375,0.94305419921875,3.491668701171875,-1.7645263671875,-2.250518798828125,1,1.0,1.0,1.0,1.0,100.00
2021-04-10 13:01:15.501,,,,,,,,,,,,,,,,,,,,,,,,,,,,,,,,,,,,,,/muse/elements/blink
2021-04-10 13:01:15.594,0.7154182,1.1137401,1.0745283,0.91796774,0.6547044,0.5914702,0.71345884,0.49774078,0.54706496,0.5273229,0.5656958,0.54006124,0.17943546,0.18316972,0.14608507,0.21647611,-0.3536366,-0.66547894,-0.44166186,-0.38537544,853.4066,805.8608,802.23444,855.0183,724.4689,-0.36175537109375,-0.0042724609375,0.93414306640625,5.21881103515625,-5.203857421875,2.01873779296875,1,1.0,1.0,1.0,1.0,100.00
2021-04-10 13:01:16.104,0.6446666,1.2868752,0.99517864,0.8997253,0.32083446,0.8496441,0.71714336,0.4830873,0.2565105,0.7303089,0.34225112,0.54006124,0.2732094,0.15193519,0.17791393,0.2820926,-0.30167127,-0.52607185,-0.5830818,-0.40674105,811.9048,794.9817,797.3993,813.1135,809.89014,-0.3406982421875,0.00982666015625,0.94573974609375,5.36834716796875,-3.70849609375,0.31402587890625,1,1.0,1.0,1.0,1.0,100.00
2021-04-10 13:01:16.620,0.6297192,1.2108499,0.90157527,0.7345058,0.06391606,0.7155495,0.6330234,0.5007868,0.12498027,0.7303089,0.3400529,0.4708898,0.42975992,0.07879491,0.15270431,0.30164382,-0.33828935,-0.5080266,-0.49797636,-0.4415819,746.2271,809.89014,817.5458,747.4359,623.3333,-0.34014892578125,0.0018310546875,0.94049072265625,3.648681640625,-4.015045166015625,-0.829925537109375,1,1.0,1.0,1.0,1.0,95.00
2021-04-10 13:01:16.820,,,,,,,,,,,,,,,,,,,,,,,,,,,,,,,,,,,,,,/muse/elements/blink
2021-04-10 13:01:17.144,0.6297192,1.1702598,0.8095145,0.7345058,0.06391606,0.6589957,0.5759302,0.5007868,0.12498027,0.7181179,0.34657508,0.4708898,0.42975992,-0.038918745,0.05829191,0.30164382,-0.33828935,-0.33553988,-0.43228823,-0.4415819,826.4103,802.23444,805.8608,814.3223,722.8571,-0.35089111328125,0.00958251953125,0.938232421875,4.59075927734375,-5.72723388671875,0.605621337890625,1,1.0,1.0,1.0,1.0,95.00
2021-04-10 13:01:17.657,0.6297192,1.0016555,0.72374654,0.7345058,0.06391606,0.35489607,0.5323717,0.5007868,0.12498027,0.5003708,0.36803034,0.4708898,0.42975992,-0.1038245,-0.008534586,0.30164382,-0.33828935,-0.2588392,-0.35718003,-0.4415819,807.0696,815.12823,803.0403,804.2491,845.7509,-0.3411865234375,0.0057373046875,0.94183349609375,3.342132568359375,-3.252410888671875,0.897216796875,1,1.0,1.0,1.0,1.0,95.00
2021-04-10 13:01:18.180,0.6297192,0.8441831,0.71273255,0.7345058,0.06391606,0.2849891,0.55878955,0.5007868,0.12498027,0.47932196,0.36962456,0.4708898,0.42975992,-0.09226818,-0.011164827,0.30164382,-0.33828935,-0.24170397,-0.319476,-0.4415819,811.0989,811.9048,812.3077,809.89014,682.96704,-0.34478759765625,0.00592041015625,0.95025634765625,2.773895263671875,4.059906005859375,-1.233673095703125,1,2.0,1.0,1.0,2.0,95.00
2021-04-10 13:01:18.547,,,,,,,,,,,,,,,,,,,,,,,,,,,,,,,,,,,,,,/muse/elements/blink
2021-04-10 13:01:18.708,0.6297192,0.67107767,0.5476769,0.7345058,0.06391606,0.15204342,0.40899867,0.5007868,0.12498027,0.45022997,0.3446198,0.4708898,0.42975992,-0.06536176,-0.043246534,0.30164382,-0.33828935,-0.36493787,-0.35853824,-0.4415819,834.0659,809.4872,807.8755,825.6044,689.81683,-0.55377197265625,0.01239013671875,0.85791015625,5.166473388671875,6.9384765625,10.12359619140625,1,2.0,1.0,1.0,2.0,95.00
2021-04-10 13:01:19.219,0.6297192,0.8226517,0.6219055,0.7345058,0.06391606,0.35669404,0.5709154,0.5007868,0.12498027,0.64874,0.44479996,0.4708898,0.42975992,-0.087023035,-0.02629385,0.30164382,-0.33828935,-0.42860636,-0.3634229,-0.4415819,791.3553,813.5165,802.6374,790.54944,649.12085,-0.52410888671875,0.0557861328125,0.8612060546875,5.5328369140625,-13.59283447265625,4.56085205078125,1,2.0,1.0,1.0,2.0,95.00
2021-04-10 13:01:19.742,0.6297192,0.9064743,0.6283891,0.7345058,0.06391606,0.38431206,0.5423255,0.5007868,0.12498027,0.6499407,0.45428094,0.4708898,0.42975992,-0.0933274,-0.0639263,0.30164382,-0.33828935,-0.40315294,-0.38684866,-0.4415819,777.6557,807.8755,804.2491,786.9231,687.3993,-0.41461181640625,0.07440185546875,0.91156005859375,6.258087158203125,-16.770477294921875,2.788848876953125,1,2.0,1.0,1.0,2.0,95.00
2021-04-10 13:01:20.252,0.6297192,0.9249781,0.57186174,0.7345058,0.06391606,0.36767498,0.48090592,0.5007868,0.12498027,0.6499407,0.45004728,0.4708898,0.42975992,-0.17278107,-0.10308956,0.30164382,-0.33828935,-0.4240073,-0.3165478,-0.4415819,809.89014,812.71063,803.8461,804.65204,910.2198,-0.2626953125,0.05224609375,0.96209716796875,3.42437744140625,-14.54986572265625,5.96649169921875,1,2.0,1.0,1.0,2.0,95.00
2021-04-10 13:01:20.783,0.63332474,0.5672167,-0.09003878,0.3746191,0.05886192,0.014309532,-0.25049424,-0.13425836,0.35018107,0.39856777,0.13987203,0.041088153,0.26871055,-0.16353525,-0.13733333,0.31892487,-0.27800903,-0.44946826,-0.30041963,-0.43515936,814.3223,810.696,806.6667,812.71063,854.21246,-0.23101806640625,0.0693359375,0.9710693359375,4.942169189453125,-7.753448486328125,3.237457275390625,1,1.0,1.0,1.0,1.0,95.00
2021-04-10 13:01:21.305,0.47187737,0.18474941,-0.2056453,0.33075765,-0.1211305,-0.10671653,-0.27882642,-0.107741155,0.35264656,0.20480917,-0.07558702,0.0788901,0.22940496,-0.16589378,-0.14319985,0.27673408,-0.28975224,-0.44431406,-0.38196832,-0.49408862,782.8938,800.2198,803.0403,796.1905,747.03296,-0.2596435546875,0.0733642578125,0.99908447265625,3.349609375,-4.9346923828125,1.009368896484375,1,1.0,1.0,1.0,1.0,95.00
2021-04-10 13:01:21.830,0.2585874,-0.44648188,-0.2753106,0.21726294,-0.28448534,-0.39529163,-0.19607794,0.027390253,0.41650707,0.113280155,-0.008103346,0.2013766,0.20171097,-0.070027314,-0.04873187,0.27168006,-0.23653853,-0.2932734,-0.48777273,-0.41988337,791.75824,808.2784,798.60803,795.38464,749.45056,-0.2149658203125,0.08465576171875,0.98175048828125,9.114227294921875,-4.6356201171875,2.714080810546875,1,1.0,1.0,1.0,1.0,95.00
2021-04-10 13:01:22.333,0.3293281,0.027705794,-0.1839789,0.27334207,-0.13487285,-0.47934547,-0.12945344,0.16317965,0.34796396,0.14567168,0.017210394,0.2560946,0.14368196,0.007913276,-0.050588068,0.25335968,-0.25485554,-0.2642087,-0.47966585,-0.37584108,770.80585,797.3993,796.99634,765.9707,766.77655,-0.23809814453125,0.12591552734375,0.98150634765625,4.8748779296875,-8.2244873046875,0.770111083984375,1,1.0,1.0,1.0,1.0,95.00
2021-04-10 13:01:22.411,,,,,,,,,,,,,,,,,,,,,,,,,,,,,,,,,,,,,,/muse/elements/blink
2021-04-10 13:01:22.849,0.4484782,0.59796906,0.30875438,0.24343154,0.023944724,-0.24232489,0.12674335,0.22853453,0.3246811,0.15688354,0.3546709,0.24010609,0.15167087,0.08728064,0.016850118,0.27793065,-0.2224867,-0.25872165,-0.4295808,-0.3000692,805.8608,866.30035,794.17584,801.4286,893.2967,-0.20697021484375,0.06878662109375,1.0018310546875,2.930908203125,-13.05450439453125,-0.814971923828125,1,1.0,1.0,1.0,1.0,95.00
2021-04-10 13:01:23.374,0.5603666,0.8086895,0.9545752,0.43219247,0.1434017,-0.08097646,0.36022186,0.2625973,0.09543319,0.06522666,0.39386407,0.17273383,0.1506926,0.15943472,0.058891475,0.17692252,-0.30682188,-0.3421612,-0.345426,-0.32465035,796.99634,821.978,801.02563,802.23444,670.07324,-0.1619873046875,0.0706787109375,0.99053955078125,4.493560791015625,-5.061798095703125,1.353302001953125,1,1.0,1.0,1.0,1.0,95.00
2021-04-10 13:01:23.611,,,,,,,,,,,,,,,,,,,,,,,,,,,,,,,,,,,,,,/muse/elements/blink
2021-04-10 13:01:23.900,0.5603666,1.0293398,1.0470624,0.43219247,0.1434017,0.06874147,0.42860946,0.2625973,0.09543319,-0.07448369,0.43027115,0.17273383,0.1506926,0.2451407,0.0899325,0.17692252,-0.30682188,-0.37935865,-0.31890866,-0.32465035,800.2198,802.23444,807.47253,804.65204,618.49817,-0.18017578125,0.06781005859375,0.98516845703125,3.7384033203125,-3.84307861328125,0.186920166015625,1,1.0,1.0,1.0,1.0,95.00
2021-04-10 13:01:24.408,0.5603666,1.0293398,1.1765003,0.43219247,0.1434017,0.06874147,0.47879803,0.2625973,0.09543319,-0.07448369,0.5053093,0.17273383,0.1506926,0.2451407,0.050207533,0.17692252,-0.30682188,-0.37935865,-0.27123156,-0.32465035,780.4762,811.0989,790.54944,796.99634,757.50916,-0.101806640625,0.047607421875,0.9998779296875,3.551483154296875,-8.231964111328125,0.695343017578125,1,1.0,1.0,1.0,1.0,95.00
2021-04-10 13:01:24.915,0.5603666,1.0293398,0.9332658,0.43219247,0.1434017,0.06874147,0.35885563,0.2625973,0.09543319,-0.07448369,0.45655033,0.17273383,0.1506926,0.2451407,-0.02620079,0.17692252,-0.30682188,-0.37935865,-0.3122401,-0.32465035,813.1135,792.5641,804.2491,804.2491,747.03296,-0.0728759765625,0.032958984375,1.0030517578125,4.0972900390625,-4.9945068359375,0.336456298828125,1,1.0,1.0,1.0,1.0,95.00
2021-04-10 13:01:25.443,0.41493797,1.0293398,0.8471827,0.49311736,0.43152353,0.06874147,0.30641145,0.624938,0.3858199,-0.07448369,0.44485456,0.6144093,0.365663,0.2451407,-0.021552542,0.31777632,-0.28799728,-0.37935865,-0.30156767,-0.24799098,763.1502,798.20514,814.7253,781.685,645.09155,-0.09881591796875,0.03753662109375,0.99346923828125,5.076751708984375,-3.24493408203125,1.502838134765625,1,1.0,1.0,1.0,1.0,95.00
2021-04-10 13:01:25.958,0.8104956,1.0293398,0.1370541,0.82048637,0.80702835,0.06874147,-0.1899905,0.946018,0.87188256,-0.07448369,0.1054323,0.7793672,0.42034322,0.2451407,-0.097953625,0.30225366,-0.27746832,-0.37935865,-0.36040676,-0.1726245,813.5165,809.89014,800.2198,809.89014,911.8315,-0.0596923828125,0.050537109375,1.011962890625,4.5159912109375,-0.2392578125,5.615081787109375,1,1.0,1.0,1.0,1.0,95.00
2021-04-10 13:01:26.281,,,,,,,,,,,,,,,,,,,,,,,,,,,,,,,,,,,,,,/muse/elements/blink
2021-04-10 13:01:26.467,0.8569281,1.0293398,0.2901096,0.81433976,0.8614276,0.06874147,0.1498823,0.9281482,0.8688848,-0.07448369,0.18767935,0.7793672,0.43210292,0.2451407,-0.09208755,0.28687218,-0.27678612,-0.37935865,-0.3850776,-0.16432093,825.6044,813.1135,799.41394,824.3956,794.17584,-0.27386474609375,0.051025390625,0.96527099609375,5.630035400390625,10.587158203125,1.293487548828125,1,1.0,1.0,1.0,1.0,95.00
2021-04-10 13:01:26.973,1.0619459,0.7498528,0.65303385,0.9427193,1.0218481,0.5091364,0.5623606,1.0492406,0.85157347,0.06512937,0.40178007,0.71180207,0.48176983,0.328583,0.026118059,0.22223066,-0.28006652,-0.34761456,-0.2520819,-0.11173244,800.6227,813.91943,805.4579,801.8315,813.5165,-0.24603271484375,0.1029052734375,0.97100830078125,7.29736328125,-18.243408203125,2.041168212890625,1,1.0,1.0,1.0,1.0,95.00
2021-04-10 13:01:27.477,1.0358819,0.8420435,0.6262916,0.86758274,0.9806352,0.3663046,0.5570301,0.9714229,0.83663887,0.07839776,0.3983245,0.6541199,0.4784493,0.29393542,0.15312873,0.17566781,-0.29572022,-0.26874998,-0.22797808,-0.12004968,847.3626,803.0403,797.8022,863.0769,589.0842,-0.10711669921875,0.07965087890625,0.9996337890625,5.93658447265625,-9.532928466796875,0.471038818359375,1,1.0,1.0,1.0,1.0,95.00
2021-04-10 13:01:27.598,,,,,,,,,,,,,,,,,,,,,,,,,,,,,,,,,,,,,,/muse/elements/blink
2021-04-10 13:01:27.990,1.0358819,0.9480044,0.6563098,0.86758274,0.9806352,0.42524582,0.61558324,0.9714229,0.83663887,0.32086092,0.4799079,0.6541199,0.4784493,0.26649195,0.21053563,0.17566781,-0.29572022,-0.18672217,-0.17209683,-0.12004968,840.10986,811.50183,809.89014,812.71063,963.00366,-0.071044921875,0.07318115234375,1.02447509765625,6.362762451171875,0.58319091796875,2.0037841796875,1,1.0,1.0,1.0,1.0,95.00
2021-04-10 13:01:28.494,1.0358819,0.9108768,0.36720428,0.86758274,0.9806352,0.3272235,0.35504097,0.9714229,0.83663887,0.29380676,0.46702865,0.6541199,0.4784493,0.15231004,0.15765096,0.17566781,-0.29572022,-0.20183828,-0.24561563,-0.12004968,829.6337,812.71063,806.26373,814.3223,1014.9817,-0.2603759765625,0.049072265625,0.9615478515625,7.529144287109375,11.34979248046875,4.119720458984375,1,1.0,1.0,1.0,1.0,95.00
2021-04-10 13:01:29.018,1.0358819,0.84794796,0.37364924,0.86758274,0.9806352,0.3195691,0.36700842,0.9714229,0.83663887,0.29380676,0.46660668,0.6541199,0.4784493,0.084811874,0.066968866,0.17566781,-0.29572022,-0.26420727,-0.2899759,-0.12004968,775.2381,793.36993,807.0696,793.7729,581.8315,-0.3646240234375,0.11029052734375,0.946044921875,6.213226318359375,12.568511962890625,-2.594451904296875,1,2.0,1.0,1.0,2.0,95.00
2021-04-10 13:01:29.522,0.37429142,0.86602384,0.39453778,0.6387866,-0.06558386,0.068033636,-0.05745832,0.14834493,0.081972376,-0.09885754,0.18059519,0.32990193,0.33209482,0.0122698145,0.038428947,0.45051524,-0.35482502,-0.40643466,-0.3286513,-0.3331849,823.9927,811.9048,803.44324,833.2601,516.1539,-0.47216796875,0.07965087890625,0.89739990234375,2.51220703125,-8.022613525390625,-2.28790283203125,1,1.0,1.0,1.0,1.0,95.00
2021-04-10 13:01:29.621,,,,,,,,,,,,,,,,,,,,,,,,,,,,,,,,,,,,,,/muse/elements/blink
2021-04-10 13:01:30.028,0.37429142,1.0268167,0.63578606,0.6387866,-0.06558386,-0.00394801,0.23368983,0.14834493,0.081972376,-0.08892333,0.31433415,0.32990193,0.33209482,0.050082114,0.051888246,0.45051524,-0.35482502,-0.3896565,-0.26597798,-0.3331849,836.08057,814.7253,799.011,826.8132,1017.3993,-0.42254638671875,0.06866455078125,0.91668701171875,4.9945068359375,-7.289886474609375,-4.717864990234375,1,1.0,1.0,1.0,1.0,95.00
2021-04-10 13:01:30.531,0.15584223,1.1671852,0.89028764,0.40454775,-0.14246425,-0.024236027,0.50839233,0.07806481,0.05245345,-0.09581931,0.39544192,0.17577285,0.3945194,0.09709657,0.0860868,0.48743838,-0.39125937,-0.3311603,-0.2634728,-0.37676823,793.7729,809.89014,805.8608,797.8022,660.40295,-0.39422607421875,0.07244873046875,0.9324951171875,3.671112060546875,-10.878753662109375,2.086029052734375,1,1.0,1.0,1.0,1.0,95.00
2021-04-10 13:01:31.039,0.15584223,1.1108522,0.8430317,0.40454775,-0.14246425,-0.061806828,0.5002264,0.07806481,0.05245345,-0.07676883,0.39544192,0.17577285,0.3945194,0.07831791,0.009059994,0.48743838,-0.39125937,-0.424488,-0.24116026,-0.37676823,781.685,805.4579,806.6667,798.20514,485.1282,-0.336669921875,0.0406494140625,0.9437255859375,3.491668701171875,-4.18701171875,-2.61688232421875,1,1.0,1.0,1.0,1.0,95.00
2021-04-10 13:01:31.561,0.7557368,0.6930453,0.656078,0.8307401,0.61501294,0.45838425,0.2965777,0.66243786,0.5412367,0.16254012,0.32970405,0.6182441,0.20530815,0.032519925,0.08326621,0.24562086,-0.1695294,-0.5805432,-0.37786192,-0.28830874,762.3443,780.07324,820.7692,788.1319,494.3956,-0.34210205078125,0.0330810546875,0.93682861328125,4.089813232421875,-4.47113037109375,1.323394775390625,1,1.0,1.0,1.0,1.0,95.00
2021-04-10 13:01:32.074,0.6439444,0.63025147,0.28945562,0.6888218,0.5718414,0.4542825,0.22044216,0.60177976,0.6986084,0.32035756,-0.025274735,0.6978874,0.23289633,0.016932918,0.112254724,0.26397684,0.03310203,-0.49762145,-0.37983742,-0.26441476,783.2967,805.05493,805.8608,797.8022,686.5934,-0.33221435546875,0.03955078125,0.9447021484375,4.38140869140625,-4.5458984375,2.73651123046875,1,1.0,1.0,1.0,1.0,95.00
2021-04-10 13:01:32.577,0.5890475,0.6024337,0.33014607,0.62825555,0.5230852,0.45956144,0.28490368,0.5639612,0.69339323,0.32299256,-0.011968007,0.70766515,0.24797948,0.0240559,0.16212688,0.25398812,0.0030774728,-0.42756185,-0.4163246,-0.27735156,801.8315,804.2491,802.6374,810.696,758.71796,-0.33221435546875,0.04632568359375,0.949462890625,4.613189697265625,-5.12908935546875,2.115936279296875,1,1.0,1.0,1.0,1.0,95.00
2021-04-10 13:01:33.080,0.21705168,0.39905208,0.16745411,0.29868034,0.41158852,0.24840507,0.21890074,0.3930908,0.7150446,0.28755823,-0.04243216,0.563825,0.20206606,-0.020730197,0.09373983,0.27312467,-0.008497403,-0.3551611,-0.3451244,-0.31186315,770.80585,799.41394,802.23444,780.87915,485.1282,-0.3214111328125,0.04571533203125,0.9478759765625,3.887939453125,-5.510406494140625,2.332763671875,1,1.0,1.0,1.0,1.0,95.00
2021-04-10 13:01:33.376,,,,,,,,,,,,,,,,,,,,,,,,,,,,,,,,,,,,,,/muse/elements/blink
2021-04-10 13:01:33.604,0.14247543,0.22165959,0.11820564,0.2476994,0.42460555,0.02005006,0.055606555,0.22227801,0.7050385,0.18466651,-0.07891893,0.5307865,0.23334816,-0.05694483,0.037269805,0.28150463,-0.25842738,-0.3909542,-0.31565535,-0.38567027,844.94507,802.23444,795.38464,824.3956,960.58606,-0.32208251953125,0.05084228515625,0.955322265625,4.493560791015625,-5.046844482421875,2.848663330078125,1,1.0,1.0,1.0,1.0,95.00
2021-04-10 13:01:34.114,0.18959698,0.27624634,0.48636937,0.24796166,0.5396133,0.2619529,0.34081972,0.25702116,0.35515335,0.4029613,0.103934884,0.2651822,0.25308275,0.03839474,0.00591327,0.30654556,-0.22162212,-0.41092184,-0.283505,-0.4165226,828.4249,806.26373,799.011,813.5165,916.26373,-0.31170654296875,0.0631103515625,0.947021484375,4.687957763671875,-5.749664306640625,2.639312744140625,1,1.0,1.0,1.0,1.0,95.00
2021-04-10 13:01:34.631,0.23479538,0.13104238,0.52194256,0.104326814,0.6547006,0.24040106,0.3487293,0.19265221,0.33668908,0.4029613,0.11253357,0.053771965,0.33904213,0.042192534,-0.055612747,0.32557243,-0.16935425,-0.49857175,-0.33822504,-0.43769613,832.4542,799.81683,801.4286,819.15753,1005.7143,-0.3050537109375,0.06195068359375,0.945556640625,5.0244140625,-5.166473388671875,0.396270751953125,1,1.0,1.0,1.0,1.0,95.00
2021-04-10 13:01:35.133,0.11968642,0.0637336,0.44316518,0.226157,0.13789773,0.18744084,0.2120456,-0.10463673,0.35845044,0.39513296,0.13972461,0.17870678,-0.03168541,0.041854534,-0.07784654,0.18869358,-0.44551688,-0.41822463,-0.40597394,-0.21615046,776.4469,800.2198,796.1905,790.54944,522.6007,-0.30810546875,0.064697265625,0.9500732421875,4.538421630859375,-4.179534912109375,0.70281982421875,1,1.0,1.0,1.0,1.0,95.00
2021-04-10 13:01:35.638,0.15593779,-0.30545324,-0.18541992,0.13873169,0.028216185,-0.3190115,-0.4955777,-0.13464107,0.3674123,-0.2736052,-0.06260308,0.37861848,0.04051709,-0.027592722,-0.12837516,0.13604085,-0.44559106,-0.44111085,-0.48582968,-0.24479471,802.6374,808.2784,799.011,799.41394,799.81683,-0.30548095703125,0.069580078125,0.9522705078125,5.0244140625,-5.0244140625,0.874786376953125,1,1.0,1.0,1.0,1.0,95.00
2021-04-10 13:01:36.146,0.18178727,-0.13669972,-0.323206,0.04032623,-0.061594762,-0.3709004,-0.46865594,-0.22483069,0.3574802,-0.19772801,-0.026458217,0.41019118,0.049928624,-0.017872356,-0.11467582,0.07107192,-0.35092267,-0.39477512,-0.39263272,-0.2636968,840.10986,797.8022,797.3993,821.978,1046.4103,-0.3060302734375,0.06927490234375,0.95208740234375,4.568328857421875,-4.179534912109375,0.52337646484375,1,1.0,1.0,1.0,1.0,95.00
2021-04-10 13:01:36.678,0.2208239,-0.13216338,-0.21299808,0.21245445,0.014997092,-0.5114567,-0.22491223,-0.091221556,0.2898414,-0.004506748,0.011996091,0.39870656,0.09368272,0.020139052,-0.13015997,0.009806596,-0.3130277,-0.4365544,-0.3035498,-0.2632878,794.57874,798.60803,798.20514,801.8315,653.95605,-0.30816650390625,0.07086181640625,0.9532470703125,4.6954345703125,-4.8748779296875,1.338348388671875,1,1.0,1.0,1.0,1.0,95.00
2021-04-10 13:01:37.183,0.21077235,-0.24250375,-0.1707861,0.33219725,0.16066113,-0.5543715,-0.19919404,0.079067826,0.45567447,0.0012398694,-0.08188604,0.5324962,0.10706308,2.8055496E-4,-0.120763965,0.058652677,-0.27485088,-0.3576747,-0.31086832,-0.15642136,782.8938,811.0989,798.20514,789.7436,508.49817,-0.308837890625,0.07183837890625,0.951171875,4.224395751953125,-3.985137939453125,0.934600830078125,1,1.0,1.0,1.0,1.0,100.00
2021-04-10 13:01:37.693,0.25259113,-0.3620456,-0.22517212,0.36609474,0.30545527,-0.28815368,-0.26313746,0.19645889,0.46819493,0.03425335,-0.08188604,0.4648092,0.081698336,-0.0031393971,-0.0960367,0.10969219,-0.3667755,-0.37788308,-0.4101828,-0.13340211,794.9817,790.14655,790.14655,791.75824,810.293,-0.29901123046875,0.0762939453125,0.948974609375,4.20196533203125,-6.38519287109375,1.12152099609375,1,1.0,1.0,1.0,1.0,100.00
2021-04-10 13:01:38.197,0.24658312,-0.24358161,-0.30742103,0.22928073,0.25665614,-0.122991346,-0.3843545,0.18118489,0.46394,0.11252749,-0.08689566,0.47108907,0.06054424,0.0068846853,-0.09990344,0.18139088,-0.40378612,-0.3721765,-0.5210028,-0.11823577,785.31134,803.44324,806.6667,774.83514,906.5934,-0.304443359375,0.07293701171875,0.95184326171875,4.18701171875,-3.820648193359375,-1.009368896484375,1,1.0,1.0,1.0,1.0,100.00
2021-04-10 13:01:38.464,,,,,,,,,,,,,,,,,,,,,,,,,,,,,,,,,,,,,,/muse/elements/blink
2021-04-10 13:01:38.701,0.28042164,0.3508619,0.3527541,0.11163564,0.24819551,0.10363177,0.073871076,0.13444617,0.29383054,0.1829934,0.320032,0.1509704,-1.8943277E-4,-1.5007556E-4,-0.018664418,0.18595871,-0.46121585,-0.4573682,-0.5094648,-0.18252689,780.87915,797.3993,796.99634,793.7729,558.0586,-0.30389404296875,0.062255859375,0.95062255859375,4.643096923828125,-5.435638427734375,1.30096435546875,1,1.0,1.0,1.0,1.0,100.00
2021-04-10 13:01:39.220,0.23569342,0.4226813,0.5808247,0.14991507,-0.021635532,0.08026627,0.2465419,0.11606179,-0.046556816,0.16813304,0.3448096,0.02426994,0.053761784,-0.068800665,-0.0044789715,0.25451398,-0.38877282,-0.40572977,-0.38505825,-0.14572257,825.2015,806.26373,803.8461,812.71063,922.3077,-0.29217529296875,0.07275390625,0.95513916015625,4.284210205078125,-5.151519775390625,0.964508056640625,1,1.0,1.0,1.0,1.0,100.00
2021-04-10 13:01:39.727,0.2074623,0.3781463,0.5654425,0.2075692,-0.08934016,-0.0073242667,0.21750945,0.16417849,-0.046556816,0.16787471,0.3401405,0.02426994,0.07426908,-0.11261552,0.04752758,0.27111036,-0.35351825,-0.45399898,-0.35176256,-0.15412663,866.30035,803.8461,800.2198,860.65936,892.8938,-0.2939453125,0.0745849609375,0.96148681640625,4.972076416015625,-4.777679443359375,1.622467041015625,1,1.0,1.0,1.0,1.0,100.00
2021-04-10 13:01:39.812,,,,,,,,,,,,,,,,,,,,,,,,,,,,,,,,,,,,,,/muse/elements/blink
2021-04-10 13:01:40.244,0.2074623,0.18154456,0.4471503,0.2075692,-0.08934016,-0.12128075,0.09482798,0.16417849,-0.046556816,0.106817745,0.28094998,0.02426994,0.07426908,0.0036585515,0.013536932,0.27111036,-0.35351825,-0.42005736,-0.31188664,-0.15412663,781.28204,792.1612,794.57874,795.38464,525.0183,-0.28814697265625,0.076904296875,0.9576416015625,4.179534912109375,-4.6954345703125,1.24114990234375,1,1.0,1.0,1.0,1.0,100.00
2021-04-10 13:01:40.772,0.2074623,0.21324886,0.22469744,0.2075692,-0.08934016,-0.12284121,-0.089329846,0.16417849,-0.046556816,0.044773847,-0.13602789,0.02426994,0.07426908,0.074314244,0.0033784031,0.27111036,-0.35351825,-0.41570702,-0.32465214,-0.15412663,784.90845,794.9817,802.23444,787.326,631.39197,-0.287353515625,0.07391357421875,0.95703125,4.486083984375,-4.66552734375,0.665435791015625,1,1.0,1.0,1.0,1.0,100.00
2021-04-10 13:01:41.295,0.2074623,0.24734764,0.2414476,0.2075692,-0.08934016,-0.13725156,-0.08064567,0.16417849,-0.046556816,0.10058359,-0.052116986,0.02426994,0.07426908,0.10848252,-0.029047897,0.27111036,-0.35351825,-0.3952369,-0.26556015,-0.15412663,809.89014,801.4286,799.81683,800.6227,869.12085,-0.2869873046875,0.06671142578125,0.951904296875,5.016937255859375,-3.297271728515625,1.203765869140625,1,2.0,1.0,1.0,2.0,100.00
2021-04-10 13:01:41.816,0.29182383,-0.11606433,-0.20286763,0.5182586,0.13107538,-0.51017666,-0.26584336,0.3154175,0.531672,-0.113265,0.09957676,0.53859586,0.26441386,-0.030457051,-0.08120085,0.4349755,-0.22444208,-0.3970657,-0.2858852,-0.28875798,805.05493,799.011,805.4579,805.4579,873.1502,-0.28369140625,0.064208984375,0.9591064453125,4.3365478515625,-4.14215087890625,0.70281982421875,1,1.0,1.0,1.0,1.0,100.00
2021-04-10 13:01:42.333,0.19174038,-0.21594155,-0.19006689,0.41449502,0.022127818,-0.6478034,-0.19689828,0.20784114,0.5338898,-0.17829657,0.06928302,0.55917203,0.18943614,-0.059838768,-0.16727088,0.37568635,-0.28443676,-0.45280924,-0.3221324,-0.29423973,782.8938,803.0403,803.44324,800.6227,574.17584,-0.2860107421875,0.064697265625,0.958251953125,4.26177978515625,-5.016937255859375,0.755157470703125,1,1.0,1.0,1.0,1.0,100.00
2021-04-10 13:01:42.857,0.20471819,0.5811527,-0.246167,0.4215745,0.33554393,-0.31045833,-0.0982627,0.30974028,0.7220974,-0.006307574,0.061205115,0.64801127,0.16664836,-0.14892364,-0.20916069,0.326201,-0.28622535,-0.30291536,-0.32554135,-0.30602092,765.9707,794.9817,797.8022,776.8498,552.4176,-0.28656005859375,0.066650390625,0.95794677734375,4.598236083984375,-4.725341796875,0.777587890625,1,1.0,1.0,1.0,1.0,100.00
2021-04-10 13:01:43.125,,,,,,,,,,,,,,,,,,,,,,,,,,,,,,,,,,,,,,/muse/elements/blink
2021-04-10 13:01:43.381,0.08866007,0.70547175,0.064432964,0.16845623,0.4022839,-0.024890406,0.0045676953,0.20133227,0.7173836,0.25170782,-0.02137857,0.56542516,0.105067454,-0.09131861,-0.17658523,0.24583459,-0.35960189,-0.2373385,-0.27832717,-0.29967564,786.9231,800.2198,800.2198,795.78754,591.50183,-0.27935791015625,0.05889892578125,0.9649658203125,3.147735595703125,-5.6524658203125,0.91217041015625,1,1.0,1.0,1.0,1.0,100.00
2021-04-10 13:01:43.893,0.22729284,0.7223363,0.2752037,0.2792769,0.6406114,0.1905397,0.14810275,0.3927378,0.7163445,0.3918232,-0.047473725,0.52599853,0.19085746,-0.0017265423,-0.06741492,0.28562224,-0.32563552,-0.19597974,-0.14332816,-0.33113918,818.3516,805.4579,809.0842,816.337,824.3956,-0.32232666015625,0.0404052734375,0.94818115234375,4.65057373046875,-2.27294921875,0.3289794921875,1,1.0,1.0,1.0,1.0,100.00
2021-04-10 13:01:44.421,0.25844708,0.37338433,0.301195,0.3080776,0.66424257,0.12117749,0.09510147,0.3991605,0.7163445,0.39118752,-0.063801065,0.52599853,0.2126519,0.005766215,0.035538156,0.29339677,-0.33516112,-0.17950632,-0.14251976,-0.37701833,832.8571,812.3077,804.2491,818.3516,979.92676,-0.3226318359375,0.0390625,0.95050048828125,4.912261962890625,-6.74407958984375,2.01873779296875,1,1.0,1.0,1.0,1.0,100.00
2021-04-10 13:01:44.929,0.059571154,0.23064744,0.155594,-0.0033378394,0.2574863,0.005365873,-0.07901566,0.18660505,-0.12607649,0.387336,0.048614647,-0.12345002,0.2400928,-0.08144563,0.064147964,0.25785768,-0.36557308,-0.19464722,-0.16314146,-0.3851064,804.2491,809.4872,805.05493,800.2198,692.23444,-0.30755615234375,0.04302978515625,0.94781494140625,5.18890380859375,-5.03936767578125,1.024322509765625,1,1.0,1.0,1.0,1.0,100.00
2021-04-10 13:01:45.432,0.33851445,0.15873958,-0.18126863,0.10343256,0.3948911,-0.19008264,-0.35303804,0.23787686,0.22930962,-0.037973028,0.03802294,0.3220073,0.14803302,-0.14541385,0.11605291,0.24031998,-0.4185048,-0.21179871,-0.18172939,-0.2687749,765.9707,803.0403,808.68134,780.07324,422.67398,-0.30181884765625,0.04034423828125,0.955322265625,4.403839111328125,-4.643096923828125,0.37384033203125,1,1.0,1.0,1.0,1.0,100.00
2021-04-10 13:01:45.954,0.3543589,0.30485082,-0.03492201,0.18764326,0.3915754,-0.10591062,-0.08404608,0.3616945,0.5457491,-0.025575684,0.10972069,0.7279824,0.10218799,-0.18431288,0.11708648,0.25117457,-0.3588104,-0.30979943,-0.22310658,-0.20333967,810.293,814.7253,802.23444,804.65204,901.75824,-0.30072021484375,0.03778076171875,0.95782470703125,4.007568359375,-4.284210205078125,-0.456085205078125,1,1.0,1.0,1.0,1.0,100.00
2021-04-10 13:01:46.101,,,,,,,,,,,,,,,,,,,,,,,,,,,,,,,,,,,,,,/muse/elements/blink
2021-04-10 13:01:46.473,0.45653313,0.4262285,0.11576634,0.310903,0.41825134,-0.051118284,0.1966717,0.41978332,0.5429459,-0.053678166,0.14919269,0.7279824,-0.0154456515,-0.13367377,0.15693012,0.26517755,-0.35792008,-0.291551,-0.26284763,-0.123362534,776.8498,791.75824,805.05493,788.93774,585.8608,-0.30731201171875,0.02685546875,0.95379638671875,4.306640625,-4.26177978515625,0.037384033203125,1,1.0,1.0,1.0,1.0,100.00
2021-04-10 13:01:46.977,0.27964163,0.5203239,0.21404965,0.40369153,0.2076043,0.29640844,0.21223721,0.533581,0.53479934,0.02713579,0.22539814,0.7258601,-0.002297779,-0.18211028,0.13263045,0.3211824,-0.22436295,-0.2589435,-0.3495238,-0.09746242,806.26373,809.0842,803.0403,802.6374,668.46155,-0.3065185546875,0.0294189453125,0.9544677734375,4.747772216796875,-4.59075927734375,0.725250244140625,1,1.0,1.0,1.0,1.0,100.00
2021-04-10 13:01:47.495,0.27964163,0.27683207,0.19518246,0.40369153,0.2076043,0.33881497,0.08685551,0.533581,0.53479934,-0.089730844,0.15913047,0.7258601,-0.002297779,-0.020803474,0.17055914,0.3211824,-0.22436295,-0.19891623,-0.28542766,-0.09746242,778.86444,789.7436,804.65204,790.9524,803.8461,-0.30755615234375,0.031494140625,0.95257568359375,4.239349365234375,-4.4561767578125,0.859832763671875,1,1.0,1.0,1.0,1.0,100.00
2021-04-10 13:01:48.008,0.16321841,0.19590537,0.098975256,-0.044381205,0.12521377,0.20897946,-0.25376767,0.018696187,0.37969536,0.101447776,0.14817332,0.0020060062,0.07041778,-0.04733038,0.1485281,0.15682079,-0.39398232,-0.15456146,-0.21598062,0.019110901,796.1905,795.38464,802.6374,799.81683,787.326,-0.30718994140625,0.0284423828125,0.95428466796875,4.358978271484375,-4.329071044921875,0.6878662109375,1,1.0,1.0,1.0,1.0,100.00
2021-04-10 13:01:48.513,0.22562711,0.14424396,0.12280753,0.21250995,0.30259615,0.13814111,-0.26232103,0.055204753,0.5743042,0.23080009,0.048038505,0.0046817265,0.14138278,-0.04641599,0.1611215,0.119618855,-0.3929107,-0.1653518,-0.22749098,-0.0032396668,788.1319,803.8461,803.44324,798.60803,538.315,-0.30950927734375,0.02679443359375,0.95367431640625,4.209442138671875,-3.94775390625,1.099090576171875,1,1.0,1.0,1.0,1.0,100.00
2021-04-10 13:01:49.025,0.18683729,0.12663269,0.17555888,0.4324618,0.41650787,0.15665413,-0.09276869,0.29395553,0.68203545,0.3346474,0.019975403,0.5100939,0.19118625,-0.11371655,0.07263968,0.22952373,-0.4514891,-0.27742794,-0.25878748,-0.068274595,802.23444,801.8315,811.0989,808.2784,717.619,-0.3074951171875,0.02886962890625,0.9554443359375,4.11224365234375,-4.5758056640625,0.500946044921875,1,1.0,1.0,1.0,1.0,100.00
2021-04-10 13:01:49.547,0.2208536,0.36860818,0.38496768,0.5324021,0.49549547,0.34536102,0.12012202,0.6179762,0.7838428,0.44478995,0.15591718,0.6162346,0.23973973,-0.03665353,0.09898615,0.3418657,-0.4192038,-0.40252057,-0.31377277,-0.21151647,809.0842,802.6374,805.4579,803.44324,876.77655,-0.3016357421875,0.012451171875,0.953125,4.284210205078125,-5.405731201171875,-1.016845703125,1,1.0,1.0,1.0,1.0,100.00
2021-04-10 13:01:50.061,0.21344526,0.49469662,0.40882623,0.45109588,0.37260666,0.34241524,0.16455905,0.61858505,0.7468127,0.47929642,0.18641925,0.6162346,0.24400173,0.02499494,0.011482842,0.3838875,-0.39276463,-0.458913,-0.44369707,-0.36301047,826.0073,808.68134,807.47253,814.7253,888.86444,-0.304931640625,0.013427734375,0.9564208984375,4.0673828125,-3.57391357421875,0.157012939453125,1,1.0,1.0,1.0,1.0,100.00
2021-04-10 13:01:50.475,,,,,,,,,,,,,,,,,,,,,,,,,,,,,,,,,,,,,,/muse/elements/blink
2021-04-10 13:01:50.587,0.3159653,0.55435497,0.42055103,0.37802458,0.2569653,0.35113323,0.22052477,0.65514284,0.6650444,0.48368523,0.24831319,0.69139314,0.21925864,0.09207944,0.025489185,0.35483503,-0.32191324,-0.51179445,-0.5928196,-0.41089556,823.9927,809.4872,795.38464,833.663,552.8205,-0.31280517578125,0.0145263671875,0.9488525390625,4.613189697265625,-3.648681640625,0.9271240234375,1,1.0,1.0,1.0,1.0,100.00
2021-04-10 13:01:51.089,0.3711581,0.7381317,0.80315375,0.039015222,-0.08240417,0.5804706,0.5731998,0.009550675,0.46323502,0.7687902,0.34454334,0.27319813,0.18929364,0.14968832,0.04924882,0.18868342,-0.27546984,-0.39236704,-0.49213737,-0.38030243,781.28204,803.8461,804.65204,794.17584,489.1575,-0.3114013671875,0.018798828125,0.958251953125,4.538421630859375,-4.2767333984375,1.5252685546875,1,1.0,1.0,1.0,1.0,100.00
2021-04-10 13:01:51.593,0.45749715,0.74525124,0.8361725,0.02436912,-0.044104915,0.58886176,0.60675454,-0.0776379,0.34001368,0.7687902,0.42876527,0.25452828,0.08666537,0.15711398,0.09945553,0.14792836,-0.237869,-0.32124087,-0.44195005,-0.3207636,772.01465,788.93774,802.6374,789.34064,515.34796,-0.312744140625,0.01605224609375,0.95086669921875,4.306640625,-4.59075927734375,1.368255615234375,1,1.0,1.0,1.0,1.0,100.00
2021-04-10 13:01:52.107,0.53969514,0.916835,0.88466823,0.20075813,0.4075451,0.62763363,0.6306339,0.17529045,0.5367169,0.7687902,0.6087997,0.41896373,0.29510683,0.24591209,0.050435517,-0.10517593,-0.23336883,-0.25301138,-0.41424063,-0.15498383,837.28937,805.8608,805.8608,819.9634,986.77655,-0.3173828125,0.01568603515625,0.9554443359375,4.366455078125,-4.47113037109375,1.1663818359375,1,1.0,1.0,1.0,1.0,100.00
2021-04-10 13:01:52.615,0.6932932,0.9919527,0.7369993,0.4493373,0.4567866,0.46869016,0.3097731,0.20143917,0.6134857,0.46875662,0.6021787,0.59145236,0.26867193,0.24551909,0.09479508,0.013839955,-0.27032828,-0.3260939,-0.45899868,-0.17236817,782.0879,806.6667,803.8461,787.326,587.8755,-0.31195068359375,0.015380859375,0.95147705078125,4.957122802734375,-4.373931884765625,0.949554443359375,1,1.0,1.0,1.0,1.0,100.00
2021-04-10 13:01:53.129,0.5953059,0.94754225,0.6737522,0.50128,0.33068034,0.36418307,0.21416807,0.20396456,0.5989656,0.46096057,0.58918107,0.6269345,0.21017674,0.23370187,0.03661105,-0.026200432,-0.3504148,-0.40688303,-0.40305725,-0.19264378,792.5641,801.02563,807.47253,799.81683,558.46155,-0.30731201171875,0.01318359375,0.95611572265625,4.628143310546875,-4.792633056640625,0.321502685546875,1,1.0,1.0,1.0,1.0,100.00
2021-04-10 13:01:53.657,0.6697785,0.75414073,0.5528576,0.63138145,0.22694011,0.2022505,0.11253524,0.17544518,0.56984955,0.40603304,0.41391262,0.6122859,0.116967194,0.13508329,-0.02280574,0.023134224,-0.34285745,-0.43312427,-0.3916734,-0.22689752,812.71063,802.6374,804.65204,810.696,895.31134,-0.3121337890625,0.01043701171875,0.9559326171875,4.11224365234375,-3.87298583984375,0.22430419921875,1,1.0,1.0,1.0,1.0,100.00
2021-04-10 13:01:54.163,0.6748168,-0.08197611,-0.01500059,0.5609152,0.11882947,-0.4583638,0.017730026,0.12339055,0.35649857,-0.14689146,-0.12447887,0.4755563,0.016960645,-0.014860749,-0.15423746,0.005743173,-0.30405757,-0.38265654,-0.41244885,-0.18577948,793.7729,806.6667,790.14655,788.93774,844.1392,-0.31817626953125,0.0126953125,0.9520263671875,4.777679443359375,-3.641204833984375,1.31591796875,1,1.0,1.0,1.0,1.0,100.00
2021-04-10 13:01:54.672,0.66440386,-0.18259616,-0.031888466,0.46794742,0.30513376,-0.35177898,0.12823384,0.07057632,0.39127448,-0.040246826,0.17238715,0.4254627,0.023742963,0.03093796,-0.026793309,0.050658505,-0.22795996,-0.41029856,-0.39558357,-0.24996792,799.41394,808.2784,792.5641,799.81683,668.86444,-0.3123779296875,0.0235595703125,0.95281982421875,4.8150634765625,-5.196380615234375,1.83929443359375,1,1.0,1.0,1.0,1.0,100.00
2021-04-10 13:01:55.181,0.4955968,-0.27711046,-0.008466512,0.23953536,0.32262245,-0.42104274,0.11560844,0.23531625,0.24478693,-0.0685577,0.17238715,0.3251872,-0.0018355702,0.057489157,0.05993313,0.06492796,-0.30252448,-0.31499445,-0.42881534,-0.24006742,787.326,813.1135,800.2198,795.38464,576.1905,-0.3140869140625,0.0223388671875,0.95245361328125,4.88983154296875,-4.2169189453125,1.353302001953125,1,1.0,1.0,1.0,1.0,100.00
2021-04-10 13:01:55.694,0.03132702,-0.17271759,0.075088955,0.21501152,0.36589646,-0.21766327,0.10206981,0.3360496,0.32936895,-0.010075517,0.16458684,0.31635582,-0.024404487,0.15666507,0.028767554,-0.0060547534,-0.27182162,-0.29094017,-0.33548218,-0.28156906,800.2198,799.41394,809.0842,801.02563,846.9597,-0.31195068359375,0.02490234375,0.95819091796875,4.314117431640625,-4.11224365234375,1.1065673828125,1,1.0,1.0,1.0,1.0,100.00
2021-04-10 13:01:56.206,-0.066811465,-0.19795422,-0.016802507,0.17060573,0.2585742,-0.1564547,-0.10524677,0.31545988,0.5637659,0.066410616,0.03052751,0.55999744,-0.012435524,0.10326756,-0.008095687,-0.03723688,-0.29915997,-0.28809506,-0.36144596,-0.21149473,826.0073,806.26373,798.60803,810.696,928.7546,-0.3095703125,0.0198974609375,0.95257568359375,4.08233642578125,-4.314117431640625,2.429962158203125,1,1.0,1.0,1.0,1.0,100.00
2021-04-10 13:01:56.671,,,,,,,,,,,,,,,,,,,,,,,,,,,,,,,,,,,,,,/muse/elements/blink
2021-04-10 13:01:56.713,-0.19102348,-0.040262464,-0.09435281,0.16722241,0.25048578,-0.047664337,-0.057349585,0.18449056,0.58427805,0.051201746,0.0017149592,0.52887475,0.00657966,0.08717741,-0.04571924,-0.074222155,-0.23282532,-0.39363164,-0.30872524,-0.21173835,810.293,803.8461,796.99634,817.9487,600.7692,-0.311279296875,0.02069091796875,0.949462890625,4.23187255859375,-4.807586669921875,-0.770111083984375,1,1.0,1.0,1.0,1.0,100.00
2021-04-10 13:01:57.230,-0.2168202,0.043371353,-0.118780054,0.015300337,0.028738983,-0.04923654,-0.052023113,-0.09312008,0.5543254,-0.010735428,-0.073166296,0.49907964,0.07894671,-0.009838327,-0.0066559655,-0.01800787,-0.30865097,-0.41044733,-0.39327434,-0.23492284,786.9231,790.54944,804.2491,802.6374,529.85345,-0.3070068359375,0.02392578125,0.953125,4.486083984375,-4.448699951171875,-0.179443359375,1,1.0,1.0,1.0,1.0,100.00
2021-04-10 13:01:57.741,-0.13260227,0.15527584,-0.089448296,0.06825507,-0.14109735,-0.02221174,-0.048218388,-0.23140848,0.45790857,-0.13249302,-0.030740654,0.49456185,0.043604143,-0.026807992,0.020613797,0.024497064,-0.35041723,-0.3316807,-0.44989324,-0.2886765,799.011,807.0696,799.81683,797.3993,820.7692,-0.31732177734375,0.02239990234375,0.953857421875,4.613189697265625,-4.044952392578125,0.777587890625,1,1.0,1.0,1.0,1.0,100.00
2021-04-10 13:01:58.260,0.3341015,0.18626001,-0.12505266,0.39757723,0.11810718,-0.08752872,-0.20107879,0.0074781994,0.23175848,-0.4677806,0.01849921,0.07921567,0.103095844,-0.059041776,0.044463385,0.02665143,-0.3292241,-0.2851976,-0.5570306,-0.317493,783.69965,813.91943,795.38464,794.17584,510.1099,-0.30755615234375,0.02081298828125,0.9556884765625,5.00946044921875,-4.314117431640625,1.65985107421875,1,1.0,1.0,1.0,1.0,100.00
2021-04-10 13:01:58.766,0.27960038,0.029465532,-0.20281829,0.2784107,0.45763275,0.010975332,-0.22081186,0.36761728,0.9713843,-0.16735908,0.100026295,0.8170364,0.17936006,-0.096490525,0.007049475,0.21263455,-0.33115917,-0.29937208,-0.5906206,-0.2494135,783.69965,797.3993,805.8608,793.7729,595.12823,-0.31317138671875,0.01702880859375,0.95367431640625,4.418792724609375,-3.895416259765625,0.740203857421875,1,1.0,1.0,1.0,1.0,100.00
2021-04-10 13:01:59.283,0.19923298,-0.10257324,-0.188072,0.20222054,0.42411378,0.033666547,-0.012471034,0.32927048,0.9722678,-0.067219086,0.13291773,0.82851,0.12394594,-0.042341355,-0.009732733,0.23182477,-0.3047168,-0.3133457,-0.4682682,-0.22251074,813.1135,803.8461,800.6227,808.68134,872.74725,-0.31060791015625,0.01690673828125,0.95257568359375,4.194488525390625,-4.433746337890625,1.03179931640625,1,1.0,1.0,1.0,1.0,100.00
2021-04-10 13:01:59.790,0.05558847,-0.16188923,-0.1746683,0.19345976,0.3832399,-0.0023710367,-0.023290008,0.37745196,0.9722678,0.023311092,0.0998808,0.82851,0.051658098,-0.089788675,-0.08157167,0.2014314,-0.31418112,-0.35462555,-0.38707477,-0.10758674,839.707,811.0989,809.0842,818.3516,863.47986,-0.30926513671875,0.02142333984375,0.9547119140625,4.314117431640625,-4.179534912109375,1.33087158203125,1,1.0,1.0,1.0,1.0,100.00
