TimeStamp,Delta_TP9,Delta_AF7,Delta_AF8,Delta_TP10,Theta_TP9,Theta_AF7,Theta_AF8,Theta_TP10,Alpha_TP9,Alpha_AF7,Alpha_AF8,Alpha_TP10,Beta_TP9,Beta_AF7,Beta_AF8,Beta_TP10,Gamma_TP9,Gamma_AF7,Gamma_AF8,Gamma_TP10,RAW_TP9,RAW_AF7,RAW_AF8,RAW_TP10,AUX_RIGHT,Accelerometer_X,Accelerometer_Y,Accelerometer_Z,Gyro_X,Gyro_Y,Gyro_Z,HeadBandOn,HSI_TP9,HSI_AF7,HSI_AF8,HSI_TP10,Battery,Elements
2021-04-08 10:21:37.329,0.24838607,-2.2903135,-0.08315036,0.49716723,0.04756047,-2.6664972,-0.26790857,0.50342524,0.2500863,-2.1124406,-0.10252024,0.5305994,0.34813896,-2.410037,-0.28094283,0.22174679,-0.22227721,-2.2056484,-0.606478,-0.508586,798.20514,853.8095,796.5934,800.6227,665.2381,0.02752685546875,0.109619140625,0.9970703125,4.26177978515625,-3.865509033203125,1.114044189453125,1,1.0,1.0,1.0,1.0,30.00
2021-04-08 10:21:37.831,0.24838607,-2.2903135,-0.018381398,0.49716723,0.04756047,-2.6664972,-0.26012096,0.50342524,0.2500863,-2.1124406,-0.12190549,0.5305994,0.34813896,-2.410037,-0.39684728,0.22174679,-0.22227721,-2.2056484,-0.6888093,-0.508586,813.5165,823.5897,807.0696,805.05493,568.1319,0.02276611328125,0.10662841796875,0.99932861328125,3.491668701171875,-2.25799560546875,1.233673095703125,1,1.0,1.0,1.0,1.0,30.00
2021-04-08 10:21:38.341,-0.02766901,-2.2903135,-0.07554032,-0.053674556,0.23623927,-2.6664972,-0.3882043,-0.06871965,0.22403781,-2.1124406,-0.20613046,0.086725675,0.16740595,-2.410037,-0.42936352,-0.021963935,-0.30781412,-2.2056484,-0.7694659,-0.5223653,788.93774,799.011,805.05493,786.1172,762.74725,-0.025634765625,0.07861328125,0.99853515625,2.100982666015625,1.9439697265625,-0.575714111328125,1,1.0,1.0,1.0,1.0,30.00
2021-04-08 10:21:38.408,,,,,,,,,,,,,,,,,,,,,,,,,,,,,,,,,,,,,,/muse/elements/blink
2021-04-08 10:21:38.844,-0.02766901,-2.2903135,-0.1255511,-0.053674556,0.23623927,-2.6664972,-0.38164467,-0.06871965,0.22403781,-2.1124406,-0.038226258,0.086725675,0.16740595,-2.410037,-0.2799337,-0.021963935,-0.30781412,-2.2056484,-0.82032406,-0.5223653,809.89014,884.0293,803.44324,813.1135,790.9524,-0.07525634765625,0.08721923828125,0.99688720703125,3.850555419921875,-2.429962158203125,6.639404296875,1,1.0,1.0,1.0,1.0,30.00
2021-04-08 10:21:39.375,-0.15313457,-2.2903135,-0.056458622,-0.047782987,0.2832058,-2.6664972,-0.4418699,-0.003879691,0.12269376,-2.1124406,0.066431865,0.076259896,0.18303742,-2.410037,-0.2297861,-0.006819698,-0.30677757,-2.2056484,-0.7851568,-0.5284197,786.52014,785.31134,804.2491,777.25275,657.5824,-0.13262939453125,0.08367919921875,1.000732421875,5.1141357421875,1.921539306640625,0.3887939453125,1,1.0,1.0,1.0,1.0,30.00
2021-04-08 10:21:39.409,,,,,,,,,,,,,,,,,,,,,,,,,,,,,,,,,,,,,,/muse/elements/blink
2021-04-08 10:21:39.878,-0.15313457,-2.2903135,0.25340554,-0.047782987,0.2832058,-2.6664972,-0.31822306,-0.003879691,0.12269376,-2.1124406,0.055730708,0.076259896,0.18303742,-2.410037,-0.15822738,-0.006819698,-0.30677757,-2.2056484,-0.5470596,-0.5284197,814.7253,797.3993,805.4579,809.4872,676.9231,-0.1412353515625,0.09613037109375,0.98480224609375,5.435638427734375,-3.805694580078125,-2.88604736328125,1,1.0,1.0,1.0,1.0,30.00
2021-04-08 10:21:40.411,-0.15313457,-2.2903135,0.30612358,-0.047782987,0.2832058,-2.6664972,-0.25924686,-0.003879691,0.12269376,-2.1124406,0.047398563,0.076259896,0.18303742,-2.410037,-0.15431373,-0.006819698,-0.30677757,-2.2056484,-0.54034144,-0.5284197,807.47253,789.34064,810.696,805.4579,683.7729,-0.1455078125,0.1151123046875,0.9869384765625,3.6785888671875,-3.730926513671875,-0.471038818359375,1,1.0,1.0,1.0,1.0,30.00
2021-04-08 10:21:40.775,,,,,,,,,,,,,,,,,,,,,,,,,,,,,,,,,,,,,,/muse/elements/blink
2021-04-08 10:21:40.915,-0.15313457,-2.2903135,0.2767287,-0.047782987,0.2832058,-2.6664972,-0.14650284,-0.003879691,0.12269376,-2.1124406,0.03309679,0.076259896,0.18303742,-2.410037,-0.15703656,-0.006819698,-0.30677757,-2.2056484,-0.53812957,-0.5284197,863.0769,842.9304,793.36993,851.79486,799.81683,-0.2464599609375,0.058349609375,0.96636962890625,-1.0467529296875,3.297271728515625,33.578338623046875,1,1.0,1.0,1.0,1.0,30.00
2021-04-08 10:21:41.430,-0.15313457,-2.2903135,-0.023443885,-0.047782987,0.2832058,-2.6664972,-0.17740877,-0.003879691,0.12269376,-2.1124406,-0.11112597,0.076259896,0.18303742,-2.410037,-0.1250208,-0.006819698,-0.30677757,-2.2056484,-0.7453469,-0.5284197,823.1868,865.4945,783.2967,791.3553,689.011,-0.37982177734375,-0.008544921875,0.90185546875,-3.297271728515625,13.6077880859375,2.968292236328125,1,2.0,1.0,1.0,2.0,30.00
2021-04-08 10:21:41.943,-0.15313457,-2.2903135,-0.23452319,-0.047782987,0.2832058,-2.6664972,-0.14585228,-0.003879691,0.12269376,-2.1124406,-0.23480463,0.076259896,0.18303742,-2.410037,-0.1524789,-0.006819698,-0.30677757,-2.2056484,-0.7843503,-0.5284197,798.20514,909.011,801.02563,796.1905,670.87915,-0.185546875,0.102783203125,0.97613525390625,8.0450439453125,-3.925323486328125,12.209625244140625,1,2.0,1.0,1.0,2.0,30.00
2021-04-08 10:21:42.450,-0.15313457,-2.2903135,0.4240425,-0.047782987,0.2832058,-2.6664972,-0.2524038,-0.003879691,0.12269376,-2.1124406,-0.014839516,0.076259896,0.18303742,-2.410037,-0.23165706,-0.006819698,-0.30677757,-2.2056484,-0.19735757,-0.5284197,826.4103,713.5897,812.71063,838.0952,863.8828,-0.24383544921875,0.06854248046875,0.96807861328125,4.658050537109375,-8.366546630859375,9.22637939453125,1,2.0,1.0,1.0,2.0,30.00
2021-04-08 10:21:42.976,0.75526303,-2.2903135,0.24329136,1.0576211,0.6858644,-2.6664972,-0.012673022,0.9325463,0.28009835,-2.1124406,0.04294724,0.23523627,0.040453527,-2.410037,-0.08662904,-0.015366058,-0.4316934,-2.2056484,-0.18222688,-0.23827869,802.23444,859.0476,798.60803,796.1905,942.8571,-0.17559814453125,0.11663818359375,0.96221923828125,7.304840087890625,-3.72344970703125,4.08233642578125,1,2.0,1.0,1.0,2.0,30.00
2021-04-08 10:21:43.487,0.77683455,-2.2903135,0.22957145,1.0861799,0.64633733,-2.6664972,0.08392133,0.8811114,0.4784014,-2.1124406,0.111404814,0.63385767,0.071018934,-2.410037,0.0031423643,0.30115166,-0.3565421,-2.2056484,-0.27213082,-0.2420846,807.8755,874.35895,802.23444,806.26373,692.23444,-0.27642822265625,0.03875732421875,0.9609375,2.833709716796875,3.90289306640625,2.46734619140625,1,1.0,1.0,1.0,1.0,30.00
2021-04-08 10:21:43.991,0.9889942,-2.2903135,0.21646951,1.2572864,0.75353503,-2.6664972,0.17249951,0.97708,1.1078762,-2.1124406,0.23305175,0.90124834,0.30722684,-2.410037,0.12768307,0.58055043,-0.26964092,-2.2056484,-0.18470491,-0.20044407,801.8315,846.9597,801.02563,813.1135,900.54944,-0.38909912109375,0.02874755859375,0.92523193359375,2.6019287109375,0.059814453125,-1.487884521484375,1,1.0,1.0,1.0,1.0,30.00
2021-04-08 10:21:44.506,0.96501905,-2.2903135,0.18495306,1.1988368,0.87245655,-2.6664972,0.20795143,1.0975946,1.187399,-2.1124406,0.22980163,0.9856548,0.5135033,-2.410037,0.14457825,0.7801847,-0.17832817,-2.2056484,-0.19422534,-0.2149048,819.5604,825.2015,804.65204,815.9341,628.1685,-0.435546875,0.00286865234375,0.89678955078125,5.704803466796875,0.64300537109375,-1.42059326171875,1,1.0,1.0,1.0,1.0,30.00
2021-04-08 10:21:45.019,,,,,,,,,,,,,,,,,,,,,,,,,,,,,,,,,,,,,,/muse/elements/blink
2021-04-08 10:21:45.020,0.92838347,-2.2903135,0.096710876,1.0816256,0.8928429,-2.6664972,0.18044841,1.059676,1.187399,-2.1124406,0.2142645,0.9856548,0.59734905,-2.410037,0.11275404,0.72561044,-0.15836568,-2.2056484,-0.13572225,-0.22639795,916.6667,781.28204,801.02563,913.8461,794.57874,-0.4097900390625,0.029296875,0.9227294921875,6.69921875,-3.760833740234375,4.97955322265625,1,1.0,1.0,1.0,1.0,45.00
2021-04-08 10:21:45.542,0.44780996,-2.2903135,0.9401659,0.5177209,0.870198,-2.6664972,0.76559865,1.0464858,0.95988333,-2.1124406,0.4811901,0.91530126,0.62272805,-2.410037,0.13409874,0.7000244,-0.16952728,-2.2056484,-0.23440747,-0.3003826,834.87177,865.89746,799.011,834.0659,873.95605,-0.42864990234375,-0.057373046875,0.89007568359375,-8.471221923828125,0.2392578125,-2.385101318359375,1,1.0,1.0,1.0,1.0,45.00
2021-04-08 10:21:45.909,,,,,,,,,,,,,,,,,,,,,,,,,,,,,,,,,,,,,,/muse/elements/blink
2021-04-08 10:21:46.050,0.25849625,-2.2903135,1.0219064,0.3177895,0.5305782,-2.6664972,0.78057915,0.625183,0.6576668,-2.1124406,0.4811901,0.68157166,0.42671204,-2.410037,0.16606468,0.3324408,-0.2821938,-2.2056484,-0.26606572,-0.31015107,799.41394,848.97437,802.23444,799.41394,729.707,-0.42822265625,-0.02862548828125,0.89849853515625,10.504913330078125,-5.90667724609375,2.392578125,1,1.0,1.0,1.0,1.0,45.00
2021-04-08 10:21:46.578,0.25849625,-2.2903135,1.1053663,0.3177895,0.5305782,-2.6664972,0.8492161,0.625183,0.6576668,-2.1124406,0.50060934,0.68157166,0.42671204,-2.410037,0.15928537,0.3324408,-0.2821938,-2.2056484,-0.34770116,-0.31015107,886.8498,915.8608,767.1795,832.4542,795.38464,-0.4176025390625,-0.0252685546875,0.892822265625,1.7047119140625,-3.656158447265625,1.98883056640625,1,1.0,1.0,1.0,1.0,45.00
2021-04-08 10:21:47.085,0.25849625,-2.2903135,0.9306245,0.80119985,0.5305782,-2.6664972,0.54435396,0.7395678,0.6576668,-2.1124406,0.43062645,0.80146843,0.42671204,-2.410037,0.050736606,0.33323613,-0.2821938,-2.2056484,-0.43189877,-0.10854726,810.696,780.87915,804.65204,807.8755,901.75824,-0.45928955078125,0.021240234375,0.88092041015625,6.44500732421875,3.60382080078125,-5.450592041015625,1,1.0,1.0,1.0,1.0,45.00
2021-04-08 10:21:47.591,0.25849625,-2.2903135,1.0412018,1.030366,0.5305782,-2.6664972,0.602973,0.6412584,0.6576668,-2.1124406,0.4549473,0.8258957,0.42671204,-2.410037,-0.0965965,0.29055506,-0.2821938,-2.2056484,-0.44455013,-0.14146754,749.0476,849.7802,810.293,748.24176,772.01465,-0.51495361328125,-0.0372314453125,0.8475341796875,1.8841552734375,-1.80938720703125,-3.177642822265625,1,1.0,1.0,1.0,1.0,45.00
2021-04-08 10:21:47.841,,,,,,,,,,,,,,,,,,,,,,,,,,,,,,,,,,,,,,/muse/elements/blink
2021-04-08 10:21:48.104,0.25849625,-2.2903135,0.961001,1.0368317,0.5305782,-2.6664972,0.51030695,0.57444805,0.6576668,-2.1124406,0.36564392,0.72555524,0.42671204,-2.410037,-0.18616574,0.26745975,-0.2821938,-2.2056484,-0.43443426,-0.1539375,818.3516,788.5348,805.4579,802.23444,806.26373,-0.4349365234375,0.003662109375,0.90509033203125,2.788848876953125,-7.977752685546875,1.57012939453125,1,1.0,1.0,1.0,1.0,45.00
2021-04-08 10:21:48.633,0.25849625,-2.2903135,0.8066637,1.2041434,0.5305782,-2.6664972,0.5069374,0.48334244,0.6576668,-2.1124406,0.30659226,0.5337047,0.42671204,-2.410037,-0.12660947,0.23309793,-0.2821938,-2.2056484,-0.33396602,-0.18457831,800.2198,857.03296,798.20514,790.14655,730.5128,-0.46636962890625,-0.00701904296875,0.892333984375,3.357086181640625,-3.7982177734375,-1.502838134765625,1,1.0,1.0,1.0,1.0,45.00
2021-04-08 10:21:49.144,0.25849625,-2.2903135,0.34517556,1.1709878,0.5305782,-2.6664972,0.32132933,0.4749665,0.6576668,-2.1124406,0.03970405,0.5097015,0.42671204,-2.410037,-0.068784356,0.16391133,-0.2821938,-2.2056484,-0.31282327,-0.17779256,796.99634,810.696,805.05493,790.14655,626.9597,-0.4593505859375,-0.029296875,0.88983154296875,4.80010986328125,-11.58905029296875,1.57012939453125,1,1.0,1.0,1.0,1.0,45.00
2021-04-08 10:21:49.671,0.9072927,-2.2903135,0.17743903,0.82502836,0.66701525,-2.6664972,0.19645922,0.7991279,0.84947693,-2.1124406,-0.05834537,0.8369314,0.13522103,-2.410037,-0.036143336,0.3170197,-0.1800279,-2.2056484,-0.29997295,-0.33239087,816.7399,803.0403,803.44324,794.9817,738.1685,-0.43194580078125,-0.0150146484375,0.914306640625,3.192596435546875,-8.74786376953125,8.01513671875,1,1.0,1.0,1.0,1.0,45.00
2021-04-08 10:21:50.197,0.8086487,-2.2903135,-0.29109767,0.81627405,0.61484545,-2.6664972,-0.11263589,0.67657226,0.84947693,-2.1124406,-0.22264144,0.8372767,0.11739286,-2.410037,-0.14154142,0.30453533,-0.25786638,-2.2056484,-0.40176085,-0.26844573,803.8461,889.2674,808.68134,803.44324,822.7839,-0.39215087890625,-0.02496337890625,0.92431640625,4.2169189453125,-6.781463623046875,1.80938720703125,1,1.0,1.0,1.0,1.0,45.00
2021-04-08 10:21:50.725,0.74880356,-2.2903135,-0.24926445,0.7409178,0.56725097,-2.6664972,-0.1752257,0.6041263,0.86556834,-2.1124406,-0.34484845,0.8529297,0.2439585,-2.410037,-0.17717934,0.42235547,-0.30415237,-2.2056484,-0.44721976,-0.29568362,802.23444,815.12823,799.011,798.20514,771.6117,-0.37860107421875,-0.01947021484375,0.92327880859375,3.8580322265625,-3.028106689453125,0.179443359375,1,1.0,1.0,1.0,1.0,45.00
2021-04-08 10:21:51.234,0.48369995,-2.2903135,-0.067212954,0.56215996,0.3649399,-2.6664972,-0.14475802,0.3357756,0.64932287,-2.1124406,-0.37522778,0.6129186,0.26240215,-2.410037,-0.23770197,0.3889189,-0.4546834,-2.2056484,-0.46112475,-0.29805058,812.71063,885.2381,810.696,803.0403,779.2674,-0.3828125,-0.02264404296875,0.9190673828125,5.443115234375,-5.0244140625,1.79443359375,1,1.0,1.0,1.0,1.0,45.00
2021-04-08 10:21:51.755,0.4801307,-2.2903135,0.051280625,0.47134006,0.39788872,-2.6664972,-0.20854685,0.31154686,0.65804845,-2.1124406,-0.16997932,0.5332733,0.25896814,-2.410037,-0.13964784,0.3185001,-0.4604581,-2.2056484,-0.45272604,-0.3369928,813.1135,844.94507,807.0696,802.6374,659.19415,-0.373779296875,-0.00811767578125,0.93359375,5.00946044921875,-5.046844482421875,0.82244873046875,1,1.0,1.0,1.0,1.0,45.00
2021-04-08 10:21:52.264,0.46347374,-2.2903135,0.13445929,0.4951472,0.34202227,-2.6664972,-0.18871993,0.24332076,0.62866926,-2.1124406,0.02160434,0.51630545,0.1324953,-2.410037,-0.087884985,0.19221379,-0.42106125,-2.2056484,-0.49733227,-0.3613612,806.26373,803.44324,805.05493,810.293,711.5751,-0.36212158203125,-0.00946044921875,0.9344482421875,5.809478759765625,-5.60760498046875,-0.2093505859375,1,1.0,1.0,1.0,1.0,45.00
2021-04-08 10:21:52.780,0.5575758,-2.2903135,0.05484539,0.38494718,0.2662955,-2.6664972,-0.37051928,0.06295725,0.40957263,-2.1124406,0.19057414,0.28515607,0.13082549,-2.410037,0.027766682,0.2701299,-0.36677104,-2.2056484,-0.48943517,-0.31412897,804.2491,824.3956,799.011,792.1612,656.3736,-0.35174560546875,0.00836181640625,0.9434814453125,4.59075927734375,-4.97955322265625,1.772003173828125,1,1.0,1.0,1.0,1.0,45.00
2021-04-08 10:21:53.145,,,,,,,,,,,,,,,,,,,,,,,,,,,,,,,,,,,,,,/muse/elements/blink
2021-04-08 10:21:53.282,0.6401143,-2.2903135,0.1503537,0.44775194,0.099710174,-2.6664972,-0.16776071,0.039723817,0.15083316,-2.1124406,0.1583505,0.38402992,0.16258186,-2.410037,-8.898605E-4,0.38544118,-0.36249486,-2.2056484,-0.5279192,-0.3144679,835.2747,843.3333,801.02563,835.6777,817.1429,-0.33294677734375,0.00244140625,0.94464111328125,4.246826171875,-6.3702392578125,-1.6748046875,1,1.0,1.0,1.0,1.0,45.00
2021-04-08 10:21:53.790,0.7477436,-2.2903135,0.634467,0.3876624,0.07241015,-2.6664972,0.34279865,-0.0813025,0.046562877,-2.1124406,0.15423024,0.35333467,0.25695753,-2.410037,-0.0029171675,0.4633091,-0.4061073,-2.2056484,-0.5689783,-0.21255752,807.0696,844.5421,788.5348,792.1612,946.08057,-0.3353271484375,-0.00372314453125,0.9453125,3.955230712890625,-3.895416259765625,1.8841552734375,1,1.0,1.0,1.0,1.0,45.00
2021-04-08 10:21:54.292,0.83133084,-2.2903135,0.6687935,0.50165,0.12081649,-2.6664972,0.39886266,0.010132669,0.04622198,-2.1124406,0.15146427,0.35333467,0.29408273,-2.410037,-0.07046024,0.5050861,-0.41205156,-2.2056484,-0.5541412,-0.19399597,803.44324,855.42126,808.68134,801.8315,775.64105,-0.33270263671875,-0.00396728515625,0.94097900390625,4.3365478515625,-4.9346923828125,0.994415283203125,1,1.0,1.0,1.0,1.0,45.00
2021-04-08 10:21:54.816,0.050220083,-2.2903135,0.66295403,0.33326885,0.2414805,-2.6664972,0.38240477,0.20459618,-0.023018625,-2.1124406,0.1840925,0.338416,0.08589466,-2.410037,-0.11217599,0.14438921,-0.359502,-2.2056484,-0.5295944,-0.31140944,804.2491,834.0659,804.65204,805.8608,783.2967,-0.3515625,-0.00933837890625,0.9403076171875,3.536529541015625,-4.344024658203125,1.92901611328125,1,1.0,1.0,1.0,1.0,45.00
2021-04-08 10:21:55.329,0.7130943,-2.2903135,0.5690148,0.5160174,0.5489459,-2.6664972,0.3418146,0.17966235,0.557419,-2.1124406,0.4173299,0.5208927,0.14002801,-2.410037,-0.13006376,0.23612939,-0.3940769,-2.2056484,-0.5246786,-0.36837128,813.1135,875.16486,811.0989,809.4872,835.2747,-0.33880615234375,-0.005859375,0.946533203125,4.5458984375,-4.583282470703125,0.441131591796875,1,1.0,1.0,1.0,1.0,40.00
2021-04-08 10:21:55.829,0.70818055,-2.2903135,0.88119215,0.7886778,0.5829125,-2.6664972,0.54009867,0.3244933,0.59785885,-2.1124406,0.5007851,0.6325425,0.21770567,-2.410037,-0.10341734,0.21079245,-0.43370265,-2.2056484,-0.57315737,-0.30411246,795.38464,805.8608,788.93774,776.04395,678.93774,-0.34893798828125,-0.0050048828125,0.9381103515625,4.5458984375,-4.209442138671875,0.590667724609375,1,1.0,1.0,1.0,1.0,40.00
2021-04-08 10:21:56.341,0.73438627,-2.2903135,0.9505126,0.9391598,0.55088824,-2.6664972,0.64421964,0.5668562,0.59785885,-2.1124406,0.5057014,0.65063995,0.2343702,-2.410037,-0.06712394,0.27004272,-0.5401163,-2.2056484,-0.6774782,-0.30704919,811.50183,885.64105,813.5165,811.0989,789.34064,-0.35064697265625,-0.0087890625,0.94171142578125,4.3963623046875,-4.732818603515625,-0.31402587890625,1,1.0,1.0,1.0,1.0,40.00
2021-04-08 10:21:56.875,0.55701756,-2.2903135,0.8411082,0.9765487,0.34684777,-2.6664972,0.51704633,0.6318228,0.41803205,-2.1124406,0.5062476,0.58961177,0.2291302,-2.410037,-0.038568325,0.28246948,-0.63159806,-2.2056484,-0.7552434,-0.25498348,802.6374,811.50183,799.41394,802.6374,842.1245,-0.34796142578125,-0.010986328125,0.93475341796875,4.000091552734375,-4.717864990234375,-0.19439697265625,1,1.0,1.0,1.0,1.0,40.00
2021-04-08 10:21:57.400,0.39776263,-2.2903135,0.4793854,0.7919349,0.06073832,-2.6664972,0.2903608,0.5497734,0.39429188,-2.1124406,0.3976107,0.536604,0.20558847,-2.410037,-0.03482502,0.27609378,-0.6169417,-2.2056484,-0.78042245,-0.3524966,805.4579,799.81683,802.23444,801.02563,643.47986,-0.34661865234375,-0.01263427734375,0.942626953125,4.486083984375,-4.807586669921875,1.024322509765625,1,1.0,1.0,1.0,1.0,40.00
2021-04-08 10:21:57.926,0.23097576,-2.2903135,0.16044515,0.44237787,0.0015622684,-2.6664972,-0.052148342,0.26762113,0.37519664,-2.1124406,-0.05399139,0.38255623,0.20534909,-2.410037,-0.01382397,0.26888165,-0.4694532,-2.2056484,-0.7635976,-0.37104794,803.8461,837.6923,806.26373,801.4286,674.10254,-0.34661865234375,-0.0091552734375,0.93817138671875,4.089813232421875,-4.344024658203125,0.097198486328125,1,1.0,1.0,1.0,1.0,40.00
2021-04-08 10:21:58.455,-0.06024152,-0.4675386,0.007701893,-0.026904041,0.24343608,-0.3369362,-0.07427787,0.25245768,0.62443125,0.53061855,0.14575107,0.47923496,0.123971805,1.0640205,-0.08550804,0.12824073,-0.38875967,1.3434842,-0.72367656,-0.35867733,799.41394,782.8938,798.20514,798.60803,728.9011,-0.35302734375,-0.01226806640625,0.93560791015625,4.418792724609375,-4.508514404296875,0.97198486328125,1,1.0,1.0,1.0,1.0,40.00
2021-04-08 10:21:58.957,-0.021811135,-0.4675386,-0.22188169,0.37638912,0.44571817,-0.3369362,-0.19925743,0.44637454,0.61534923,0.53061855,0.11143922,0.5584194,-0.031880017,1.0640205,-0.21977662,0.09489223,-0.40847275,1.3434842,-0.7614729,-0.36695483,810.696,840.9158,795.78754,800.6227,795.78754,-0.35223388671875,-0.01312255859375,0.9384765625,4.583282470703125,-4.508514404296875,1.502838134765625,1,1.0,1.0,1.0,1.0,40.00
2021-04-08 10:21:59.331,,,,,,,,,,,,,,,,,,,,,,,,,,,,,,,,,,,,,,/muse/elements/blink
2021-04-08 10:21:59.467,0.0934563,-0.40698093,-0.007720391,0.5147574,0.54416895,-0.35273063,-0.15409268,0.5035269,0.59291613,0.53061855,0.1686271,0.5656339,-0.14684151,1.0626473,-0.22672842,-0.043705374,-0.49873245,1.376532,-0.74452055,-0.37525222,837.28937,861.4652,805.8608,829.6337,834.4689,-0.35198974609375,-0.01416015625,0.9429931640625,4.807586669921875,-4.912261962890625,0.485992431640625,1,1.0,1.0,1.0,1.0,40.00
2021-04-08 10:21:59.988,0.23436788,-0.40698093,0.5276767,0.6972097,0.5635543,-0.35273063,0.09647744,0.5359239,0.5908009,0.53061855,0.07121216,0.5656339,-0.16730879,1.0626473,-0.24585652,0.023405842,-0.5698053,1.376532,-0.7697945,-0.5718591,805.05493,830.0366,797.8022,805.8608,830.84247,-0.348876953125,-0.02001953125,0.94085693359375,4.366455078125,-4.3963623046875,0.770111083984375,1,1.0,1.0,1.0,1.0,40.00
2021-04-08 10:22:00.494,0.19183175,-0.40698093,0.5230714,0.69188315,0.43949503,-0.35273063,0.10655887,0.40713784,0.5537583,0.53061855,0.12287962,0.44429284,-0.12771063,1.0626473,-0.2526807,0.049773138,-0.57398146,1.376532,-0.7760866,-0.5897321,794.9817,820.3663,802.23444,799.81683,622.9304,-0.34576416015625,-0.01605224609375,0.9405517578125,4.8150634765625,-4.53094482421875,0.82244873046875,1,1.0,1.0,1.0,1.0,40.00
2021-04-08 10:22:00.995,0.21587195,0.05652763,0.44236416,0.12093657,0.2153606,0.4922023,0.060651317,-0.24368404,0.3691483,0.3609175,0.122612506,-0.022731636,0.08123284,1.1557161,-0.30548835,-0.16535127,-0.26193783,0.7020017,-0.7881676,-0.32533625,813.91943,875.16486,800.6227,811.9048,802.23444,-0.34588623046875,-0.0162353515625,0.93701171875,4.403839111328125,-4.4561767578125,0.657958984375,1,1.0,1.0,1.0,1.0,40.00
2021-04-08 10:22:01.515,0.330319,0.05652763,-0.27078655,0.3278908,0.17771551,0.4922023,-0.24988803,-0.05350332,0.44465777,0.3609175,-0.013524794,0.30768085,0.071417876,1.1557161,-0.27581713,-0.040805914,-0.31286412,0.7020017,-0.61730605,-0.25518602,800.6227,843.3333,801.8315,805.8608,796.1905,-0.34747314453125,-0.0206298828125,0.939697265625,4.314117431640625,-4.0374755859375,0.695343017578125,1,1.0,1.0,1.0,1.0,40.00
2021-04-08 10:22:02.024,0.34801534,0.16931725,-0.125573,0.3026483,0.10739444,0.3669154,-0.20913519,0.026015552,0.44593793,0.46650785,0.031530168,0.49584007,0.045494184,1.2293848,-0.17456861,0.05321708,-0.36623037,0.6992337,-0.5906376,-0.27159128,796.5934,832.8571,802.23444,803.8461,576.5934,-0.35015869140625,-0.01507568359375,0.941650390625,4.463653564453125,-5.330963134765625,0.456085205078125,1,1.0,1.0,1.0,1.0,40.00
2021-04-08 10:22:02.551,0.3402177,0.056035742,-0.093043625,0.40466046,0.083534054,0.20857091,-0.2873369,0.046406195,0.50229424,0.5090943,0.07685215,0.5376659,-0.01870446,1.3239828,-0.064538166,0.11985125,-0.3990628,0.6738631,-0.5641185,-0.34737536,798.60803,785.7143,802.23444,799.41394,705.12823,-0.348388671875,-0.01422119140625,0.94085693359375,4.5159912109375,-4.299163818359375,1.128997802734375,1,1.0,1.0,1.0,1.0,40.00
2021-04-08 10:22:03.073,0.36686993,-0.023941694,-0.13089734,0.54776704,0.27821836,0.13328454,-0.27837375,0.248751,0.53377855,0.58471024,0.16834657,0.5565778,8.417946E-4,1.300257,-0.00927179,0.15463628,-0.43824112,0.6209549,-0.7141026,-0.44253778,804.2491,843.73627,799.41394,800.6227,810.696,-0.34600830078125,-0.01495361328125,0.93695068359375,4.448699951171875,-4.822540283203125,0.79254150390625,1,1.0,1.0,1.0,1.0,40.00
2021-04-08 10:22:03.577,0.3439409,-0.17521584,-0.17204078,0.5976186,0.33922687,0.04008461,-0.2054362,0.28271872,0.69933325,0.62045974,0.13260274,0.54499555,0.09849546,1.2739943,0.028340422,0.13440916,-0.40617976,0.6309391,-0.60963774,-0.507977,810.293,871.53845,809.0842,809.4872,768.3883,-0.345947265625,-0.015380859375,0.93994140625,4.179534912109375,-4.553375244140625,-0.186920166015625,1,1.0,1.0,1.0,1.0,40.00
2021-04-08 10:22:04.087,0.52503586,-0.2315163,-0.16105902,0.7487058,0.52920055,-0.0339666,-0.04111827,0.4187363,0.81669,0.6002781,0.17535473,0.6998659,0.21427763,1.221074,0.0023607528,0.25893518,-0.47193927,0.5600613,-0.5735345,-0.45800212,815.9341,789.7436,805.4579,811.50183,850.989,-0.34796142578125,-0.0157470703125,0.93743896484375,4.687957763671875,-4.508514404296875,0.73272705078125,1,1.0,1.0,1.0,1.0,40.00
2021-04-08 10:22:04.592,0.5630763,-0.27993077,-0.11912186,0.67428833,0.4678014,0.0050113234,0.04495611,0.3742087,0.8146045,0.46076897,0.09063239,0.6696484,0.23338112,1.1704766,-0.056197856,0.27116445,-0.49506322,0.60351306,-0.4785449,-0.4181417,796.5934,832.0513,799.81683,801.02563,717.619,-0.34356689453125,-0.01568603515625,0.9405517578125,4.97955322265625,-4.000091552734375,1.39068603515625,1,1.0,1.0,1.0,1.0,40.00
2021-04-08 10:22:05.115,0.5351347,-0.27993077,-0.081987105,0.6392434,0.50341004,0.0050113234,0.013018574,0.32845291,0.788701,0.46076897,0.040450655,0.6667057,0.14272888,1.1704766,-0.1527074,0.26235428,-0.60159796,0.60351306,-0.4908847,-0.44461286,803.0403,821.1722,790.9524,792.96704,707.5458,-0.34521484375,-0.017578125,0.9400634765625,4.5458984375,-4.3365478515625,1.09161376953125,1,1.0,1.0,1.0,1.0,40.00
2021-04-08 10:22:05.616,0.62727726,0.1102621,0.04046985,0.61546916,0.42824244,-0.004775138,0.075032845,0.26642045,0.45661998,0.46156245,0.019619549,0.56412256,0.2243624,1.0704731,-0.19684258,0.23190789,-0.5048674,0.95988566,-0.52800864,-0.43782374,818.3516,836.08057,809.4872,817.5458,897.326,-0.34454345703125,-0.01678466796875,0.93878173828125,4.687957763671875,-4.5458984375,-0.059814453125,1,1.0,1.0,1.0,1.0,45.00
2021-04-08 10:22:06.122,0.66378045,-0.10604914,0.0762334,0.65642214,0.49662387,-0.18009691,-0.06596943,0.2112132,0.72797245,0.489004,0.25769863,0.6173022,0.2571947,1.1521142,-0.16042005,0.21905059,-0.51785505,0.84025323,-0.6223717,-0.47454002,808.2784,880.80585,809.89014,803.0403,805.4579,-0.345947265625,-0.015869140625,0.9415283203125,4.20196533203125,-4.6356201171875,0.179443359375,1,1.0,1.0,1.0,1.0,45.00
2021-04-08 10:22:06.647,0.81971484,-0.25121287,-0.024373475,0.74365073,0.6498187,-0.18193617,-0.096758954,0.40402046,0.7964707,0.44431677,0.3646602,0.69176364,0.358598,1.1807896,-0.10128962,0.23573461,-0.49447766,0.75085354,-0.70914745,-0.4721353,786.52014,811.0989,808.2784,786.9231,690.6227,-0.3447265625,-0.01715087890625,0.93695068359375,4.463653564453125,-4.78515625,0.657958984375,1,1.0,1.0,1.0,1.0,45.00
2021-04-08 10:22:07.162,1.0540401,0.012914616,-0.35346693,1.0163357,0.801974,0.14395365,-0.34188482,0.67631185,1.0549554,0.46844387,0.3664113,1.1517863,0.47471482,1.2712799,-0.16446117,0.3506529,-0.5314932,0.52800536,-0.78124386,-0.42157453,819.9634,797.3993,800.2198,809.4872,698.2784,-0.34552001953125,-0.021728515625,0.9407958984375,5.495452880859375,-4.478607177734375,0.665435791015625,1,1.0,1.0,1.0,1.0,45.00
2021-04-08 10:22:07.681,1.2293618,0.12802131,-0.70892924,1.204304,0.89695656,0.24696921,-0.3055966,0.79691106,1.1016266,0.46844387,0.36138684,1.1709323,0.5503512,1.2662092,-0.18391249,0.44079813,-0.51163286,0.569186,-0.7591256,-0.36535075,813.5165,883.22345,807.0696,804.2491,738.5714,-0.34033203125,-0.02008056640625,0.9422607421875,4.508514404296875,-4.78515625,0.8673095703125,1,1.0,1.0,1.0,1.0,45.00
2021-04-08 10:22:08.209,1.2396444,0.23861961,-0.5760995,1.2271849,0.91410965,0.34294373,-0.25152272,0.7810566,1.2003673,0.13606434,0.08021712,1.1979326,0.59560794,1.2816876,-0.17700335,0.5026519,-0.4239708,0.5679344,-0.5985711,-0.34589198,791.3553,806.26373,806.26373,804.2491,700.293,-0.34503173828125,-0.0137939453125,0.94415283203125,4.852447509765625,-4.02252197265625,1.069183349609375,1,1.0,1.0,1.0,1.0,45.00
2021-04-08 10:22:08.732,0.9641558,0.124932624,-0.34963933,0.8503757,0.6906063,-0.11232908,-0.22522411,0.36669508,1.1732038,0.23064376,0.11996458,1.1068122,0.42144984,1.1659802,-0.14710794,0.2549604,-0.34341317,0.7678259,-0.49912453,-0.49413502,808.2784,857.4359,805.4579,809.89014,723.2601,-0.34344482421875,-0.020751953125,0.94195556640625,4.486083984375,-4.358978271484375,0.6878662109375,1,1.0,1.0,1.0,1.0,45.00
2021-04-08 10:22:09.245,0.36082083,0.124932624,-0.30061176,0.40668306,0.31433666,-0.11232908,-0.17846549,0.1321099,0.97424066,0.23064376,0.045970578,0.75145715,0.24082012,1.1659802,-0.16679199,0.1502676,-0.43631953,0.7678259,-0.47928146,-0.57259524,807.0696,809.89014,806.6667,803.8461,564.10254,-0.33978271484375,-0.0228271484375,0.94354248046875,4.26177978515625,-4.8150634765625,0.620574951171875,1,1.0,1.0,1.0,1.0,45.00
2021-04-08 10:22:09.747,0.41028407,0.124932624,-0.15805662,0.5875685,0.22344314,-0.11232908,-0.27009767,0.18413661,0.7725225,0.23064376,0.029506823,0.69328475,0.18660092,1.1659802,-0.19982432,0.101517044,-0.4526324,0.7678259,-0.5633853,-0.53600615,802.6374,796.5934,799.011,805.8608,648.71796,-0.341552734375,-0.021240234375,0.94525146484375,4.538421630859375,-4.134674072265625,0.79254150390625,1,1.0,1.0,1.0,1.0,45.00
2021-04-08 10:22:10.258,0.7355765,0.124932624,-0.21230389,0.8643977,0.4883786,-0.11232908,-0.39349243,0.42173243,0.8306182,0.23064376,-0.2881522,0.7550847,0.28055227,1.1659802,-0.20332031,0.2459853,-0.50418854,0.7678259,-0.63980067,-0.43220916,808.2784,861.4652,808.68134,811.0989,815.5311,-0.3453369140625,-0.0223388671875,0.942138671875,4.68048095703125,-4.732818603515625,1.256103515625,1,1.0,1.0,1.0,1.0,45.00
2021-04-08 10:22:10.769,0.778951,0.124932624,-0.20126572,0.85020214,0.5466947,-0.11232908,-0.51010954,0.51228356,0.8306182,0.23064376,-0.52491486,0.7550847,0.31743932,1.1659802,-0.21266124,0.2870151,-0.39816862,0.7678259,-0.6074805,-0.36080468,816.337,842.52747,804.65204,813.1135,853.00366,-0.34405517578125,-0.01409912109375,0.94244384765625,4.53094482421875,-4.777679443359375,1.5252685546875,1,1.0,1.0,1.0,1.0,45.00
2021-04-08 10:22:11.283,0.6346778,0.124932624,-0.40368968,0.6228478,0.38649693,-0.11232908,-0.3831148,0.4469369,0.81474084,0.23064376,-0.21459876,0.74838686,0.28135028,1.1659802,-0.24915692,0.2546802,-0.3459498,0.7678259,-0.6140325,-0.31257835,802.6374,773.6264,809.0842,800.6227,739.7802,-0.34356689453125,-0.02325439453125,0.943115234375,4.628143310546875,-4.269256591796875,0.79254150390625,1,1.0,1.0,1.0,1.0,45.00
2021-04-08 10:22:11.795,0.40050548,0.124932624,-0.09194135,-0.029478617,0.5728566,-0.11232908,-0.16956697,0.31966558,0.85586727,0.23064376,-0.14764856,0.9129775,0.24905573,1.1659802,-0.19881538,0.09379823,-0.35724938,0.7678259,-0.5926047,-0.31592354,799.41394,820.7692,799.41394,807.0696,609.6337,-0.3460693359375,-0.024169921875,0.94537353515625,5.03936767578125,-3.566436767578125,1.495361328125,1,1.0,1.0,1.0,1.0,45.00
2021-04-08 10:22:12.309,0.60408396,0.124932624,-0.088282965,0.5000319,0.75530213,-0.11232908,-0.09736529,0.19173546,0.85667163,0.23064376,-0.13383931,0.9035133,0.26320308,1.1659802,-0.25604728,0.08299515,-0.4285352,0.7678259,-0.7225541,-0.36532924,807.8755,793.36993,800.6227,807.0696,791.3553,-0.34332275390625,-0.02435302734375,0.94146728515625,4.68048095703125,-4.643096923828125,1.084136962890625,1,1.0,1.0,1.0,1.0,45.00
2021-04-08 10:22:12.817,0.7029939,0.124932624,-0.19184586,0.6299814,0.79970413,-0.11232908,-0.10884492,0.51452285,0.85667163,0.23064376,-0.15053321,0.910904,0.2082372,1.1659802,-0.25524482,0.111923546,-0.5241489,0.7678259,-0.6734035,-0.33029965,814.3223,856.63007,797.8022,817.9487,941.6484,-0.34417724609375,-0.0213623046875,0.94158935546875,4.299163818359375,-4.687957763671875,0.485992431640625,1,1.0,1.0,1.0,1.0,45.00
2021-04-08 10:22:13.331,0.5461681,0.19443254,-0.59748375,0.6537123,0.509483,0.4225934,-0.21909298,0.521725,0.847475,0.69587916,-0.076779954,0.75737655,0.13281547,1.125,-0.22576597,0.19064747,-0.5584377,0.7273649,-0.5961039,-0.36762062,790.14655,807.0696,801.02563,794.9817,652.3443,-0.3453369140625,-0.02850341796875,0.9381103515625,3.865509033203125,-4.88983154296875,3.252410888671875,1,1.0,1.0,1.0,1.0,45.00
2021-04-08 10:22:13.849,0.68827087,0.17600843,-0.02507688,0.73220396,0.63304955,0.42501014,0.11307632,0.5922525,1.0979414,0.7020124,0.28356734,1.0248723,0.31967726,1.1146663,-0.10898361,0.36695364,-0.5842699,0.70135504,-0.54127586,-0.3671394,817.9487,766.3736,803.0403,807.47253,922.3077,-0.3388671875,-0.0179443359375,0.94464111328125,4.508514404296875,-4.822540283203125,2.549591064453125,1,1.0,1.0,1.0,1.0,45.00
2021-04-08 10:22:14.351,0.7855617,0.2227734,0.5533326,0.82976645,0.7619441,0.52470016,0.36109427,0.50263435,1.0982358,0.7020124,0.3014063,1.0248723,0.39370826,1.1093439,-0.013043622,0.37911206,-0.5639203,0.76141804,-0.5003908,-0.41321462,821.5751,844.1392,800.2198,817.9487,1080.6593,-0.34503173828125,-0.0238037109375,0.94036865234375,3.7384033203125,-4.015045166015625,2.75146484375,1,1.0,1.0,1.0,1.0,45.00
2021-04-08 10:22:14.869,0.81131035,0.08248501,0.6039782,0.7911809,0.7688013,0.4858022,0.35565257,0.3927866,1.0982358,0.6862224,0.31825888,0.9973873,0.43661934,1.0971956,-0.02943839,0.36329138,-0.58063096,0.70604134,-0.54424685,-0.46281445,823.5897,828.022,807.0696,815.5311,614.0659,-0.34393310546875,-0.019287109375,0.94146728515625,4.5458984375,-4.725341796875,0.381317138671875,1,1.0,1.0,1.0,1.0,45.00
2021-04-08 10:22:15.377,0.8608716,0.08248501,0.9502277,0.8261396,0.41047534,0.4858022,0.61057943,0.68266416,0.66400003,0.6862224,0.6986136,0.9955348,0.21124646,1.0971956,-0.094079435,0.23744757,-0.49276084,0.70604134,-0.5570213,-0.4388275,799.011,788.5348,809.4872,794.57874,711.978,-0.33990478515625,-0.01422119140625,0.94244384765625,5.30853271484375,-3.970184326171875,0.171966552734375,1,1.0,1.0,1.0,1.0,45.00
2021-04-08 10:22:15.879,0.8299413,0.08248501,0.9131453,0.88470584,0.18240802,0.4858022,0.55639875,0.6553823,0.6225375,0.6862224,0.6986136,0.9955348,0.17063212,1.0971956,-0.19008295,0.2816171,-0.4893692,0.70604134,-0.57878023,-0.49857643,802.6374,807.47253,803.0403,801.02563,652.3443,-0.33819580078125,-0.0150146484375,0.9437255859375,5.241241455078125,-4.777679443359375,0.142059326171875,1,1.0,1.0,1.0,1.0,45.00
2021-04-08 10:22:16.310,,,,,,,,,,,,,,,,,,,,,,,,,,,,,,,,,,,,,,/muse/elements/blink
2021-04-08 10:22:16.389,1.0150008,0.08248501,0.94716847,1.0853671,0.36497945,0.4858022,0.5524335,0.7774312,0.7563852,0.6862224,0.6986136,0.9955348,0.13663267,1.0971956,-0.13567391,0.30122748,-0.47221258,0.70604134,-0.6410531,-0.52422017,863.47986,832.0513,801.02563,863.0769,803.44324,-0.3345947265625,-0.01837158203125,0.94671630859375,4.837493896484375,-4.3365478515625,0.16448974609375,1,1.0,1.0,1.0,1.0,45.00
2021-04-08 10:22:16.902,0.8704995,0.08248501,0.7174381,1.0733988,0.38458678,0.4858022,0.2549473,0.5275638,0.66666716,0.6862224,0.45074674,0.6159587,0.20816736,1.0971956,-0.07865835,0.29386768,-0.5098215,0.70604134,-0.71496266,-0.6708954,816.337,864.2857,801.8315,809.4872,840.10986,-0.3370361328125,-0.02264404296875,0.94281005859375,4.08233642578125,-4.246826171875,-0.04486083984375,1,1.0,1.0,1.0,1.0,45.00
2021-04-08 10:22:17.434,0.8704995,0.08248501,0.6599329,1.252616,0.38458678,0.4858022,0.2450731,0.68746495,0.66666716,0.6862224,0.43345916,0.58639675,0.20816736,1.0971956,-0.058761477,0.38525853,-0.5098215,0.70604134,-0.7208348,-0.63757557,806.26373,830.4396,804.2491,803.44324,761.53845,-0.34320068359375,-0.02349853515625,0.94061279296875,4.94964599609375,-5.585174560546875,0.58319091796875,1,1.0,1.0,1.0,1.0,45.00
2021-04-08 10:22:17.957,0.74233514,0.14494272,0.41399604,-0.043427285,0.44501954,0.19517599,0.250474,0.19195376,0.19309945,0.7213729,0.4248319,0.3177222,0.033543553,1.1168413,-0.0692185,0.17356418,-0.4076005,0.7146242,-0.676412,-0.4342202,798.60803,776.04395,796.99634,799.81683,749.45056,-0.3360595703125,-0.0186767578125,0.944580078125,4.725341796875,-4.897308349609375,-0.0897216796875,1,1.0,1.0,1.0,1.0,45.00
2021-04-08 10:22:18.472,0.5442453,0.024681507,-0.29471505,0.0778749,0.21063013,0.20882186,-0.11489842,0.09873428,0.2201616,0.6289788,0.03863109,0.40042493,0.06704026,1.0609615,-0.17701223,0.1944208,-0.40880072,0.7091228,-0.7155399,-0.45939592,796.99634,796.1905,803.44324,791.75824,774.83514,-0.3326416015625,-0.02313232421875,0.943115234375,4.792633056640625,-5.151519775390625,0.725250244140625,1,1.0,1.0,1.0,1.0,45.00
2021-04-08 10:22:18.997,0.62453425,-0.010429891,-0.35370284,0.3289771,0.18530488,0.20540185,-0.19536349,0.24520215,0.23672105,0.60509676,-0.013217509,0.49892718,0.025386723,1.0545245,-0.1971137,0.16856359,-0.4301738,0.70693946,-0.7689709,-0.39353547,807.47253,854.21246,798.20514,809.89014,784.10254,-0.359130859375,-0.0213623046875,0.93927001953125,5.734710693359375,-1.854248046875,-0.441131591796875,1,1.0,1.0,1.0,1.0,45.00
2021-04-08 10:22:19.523,0.6183214,-0.2646831,-0.3140242,0.5840369,0.11096386,0.10420108,-0.27566049,0.354124,0.4671027,0.5708998,0.012925926,0.7155167,0.11956399,1.0165248,-0.25884095,0.34471112,-0.3541467,0.5801732,-0.73000723,-0.31631187,805.8608,820.7692,801.4286,811.50183,991.2088,-0.36669921875,-0.0245361328125,0.93572998046875,4.11224365234375,-9.248809814453125,-1.27105712890625,1,1.0,1.0,1.0,1.0,45.00
2021-04-08 10:22:20.030,0.7056743,-0.16381657,-0.18938589,0.69642526,0.16817051,-0.04640881,-0.22475985,0.38905564,0.43265674,0.29583243,-0.06144031,0.7146679,0.20158055,1.0540365,-0.25377133,0.40388516,-0.21994677,0.54469085,-0.56802195,-0.13838908,803.44324,865.4945,807.8755,809.89014,834.87177,-0.35272216796875,-0.0230712890625,0.9378662109375,4.658050537109375,-3.611297607421875,1.099090576171875,1,1.0,1.0,1.0,1.0,45.00
2021-04-08 10:22:20.545,,,,,,,,,,,,,,,,,,,,,,,,,,,,,,,,,,,,,,/muse/elements/blink
2021-04-08 10:22:20.547,0.67353666,0.042022184,0.17410357,0.7306973,0.15664934,-0.028850641,-0.1784778,0.3962033,0.43265674,0.3203778,0.038560156,0.7146679,0.27089843,1.0574772,-0.2925566,0.45728344,-0.1491786,0.55924606,-0.54588246,-0.09741762,823.9927,830.0366,799.41394,815.5311,794.17584,-0.32623291015625,-0.02679443359375,0.937255859375,7.28240966796875,-6.347808837890625,-11.97784423828125,1,1.0,1.0,1.0,1.0,45.00
2021-04-08 10:22:20.752,,,,,,,,,,,,,,,,,,,,,,,,,,,,,,,,,,,,,,/muse/elements/blink
2021-04-08 10:22:21.060,0.62409955,0.17289476,0.991751,0.63165855,0.040351644,-0.023141999,0.064348556,0.2676865,0.16113473,0.2996702,0.06642669,0.30504283,0.25248992,1.048797,-0.29273564,0.34315655,-0.12941647,0.57145166,-0.4764248,-0.06064455,811.0989,808.2784,799.41394,813.5165,789.34064,-0.326904296875,-0.029296875,0.944580078125,3.46923828125,-1.742095947265625,1.83929443359375,1,1.0,1.0,1.0,1.0,45.00
2021-04-08 10:22:21.569,0.44689152,0.32428563,1.0938199,0.37691984,-0.22298177,0.012608266,0.18094042,0.15227543,-0.10914261,0.16222543,0.090059,0.027032923,0.20385855,1.0554067,-0.30575258,0.14235656,-0.39169374,0.59618366,-0.45951647,-0.3126422,809.89014,870.7326,809.4872,813.91943,755.4945,-0.32269287109375,-0.03094482421875,0.9512939453125,4.224395751953125,-5.14404296875,0.082244873046875,1,1.0,1.0,1.0,1.0,45.00
2021-04-08 10:22:21.968,,,,,,,,,,,,,,,,,,,,,,,,,,,,,,,,,,,,,,/muse/elements/blink
2021-04-08 10:22:22.080,0.44689152,0.21953303,1.1084392,0.37691984,-0.22298177,0.043142937,0.26503482,0.15227543,-0.10914261,0.21638353,0.021181898,0.027032923,0.20385855,1.0895003,-0.16226134,0.14235656,-0.39169374,0.6274922,-0.37873107,-0.3126422,875.56775,825.2015,796.5934,867.9121,726.8865,-0.32550048828125,-0.03216552734375,0.94732666015625,4.42626953125,-4.2169189453125,0.7476806640625,1,1.0,1.0,1.0,1.0,45.00
2021-04-08 10:22:22.594,0.44689152,0.21953303,1.018493,0.37691984,-0.22298177,0.043142937,0.3105182,0.15227543,-0.10914261,0.21638353,0.2267693,0.027032923,0.20385855,1.0895003,-0.046703454,0.14235656,-0.39169374,0.6274922,-0.2928646,-0.3126422,805.8608,800.2198,802.23444,802.6374,721.2454,-0.33673095703125,-0.02685546875,0.94976806640625,4.246826171875,-2.938385009765625,1.996307373046875,1,1.0,1.0,1.0,1.0,45.00
2021-04-08 10:22:23.124,0.44689152,0.21953303,0.9687064,0.37691984,-0.22298177,0.043142937,0.2639539,0.15227543,-0.10914261,0.21638353,0.2267693,0.027032923,0.20385855,1.0895003,0.0661409,0.14235656,-0.39169374,0.6274922,-0.17389748,-0.3126422,799.011,804.2491,808.68134,808.2784,656.77655,-0.3372802734375,-0.02423095703125,0.94500732421875,4.358978271484375,-5.921630859375,1.114044189453125,1,2.0,1.0,1.0,2.0,45.00
2021-04-08 10:22:23.650,0.23626068,0.21953303,0.90421,0.16229108,0.24693117,0.043142937,0.16928604,0.09346092,0.38388997,0.21638353,0.23564471,0.19524418,0.23676686,1.0895003,0.07782805,0.119102076,-0.24828078,0.6274922,-0.13517937,-0.36118588,807.8755,816.7399,798.60803,799.41394,833.2601,-0.345947265625,-0.02789306640625,0.94183349609375,4.329071044921875,-4.0673828125,0.321502685546875,1,2.0,1.0,1.0,2.0,45.00
2021-04-08 10:22:24.153,0.38712138,0.41723904,-0.17962681,0.17612892,0.2400657,0.6426726,-0.2763818,0.27165318,0.9123619,0.59002066,0.06304116,0.94114876,0.22135806,0.97536564,0.115506075,0.2041773,-0.14618823,0.4586057,-0.1328651,-0.29540926,796.1905,865.09155,807.47253,796.99634,828.8278,-0.34271240234375,-0.02435302734375,0.94586181640625,4.643096923828125,-5.18890380859375,1.68975830078125,1,1.0,1.0,1.0,1.0,45.00
2021-04-08 10:22:24.670,0.5451193,0.43378147,-0.3169144,0.3073392,0.34557423,0.6450993,-0.25780153,0.35657448,0.932391,0.5896159,0.02369506,0.94904655,0.19748649,0.9834472,0.074012846,0.29102206,-0.2157453,0.4460587,-0.21589467,-0.31944543,800.2198,805.8608,811.50183,814.7253,645.89746,-0.33782958984375,-0.0252685546875,0.94610595703125,3.611297607421875,-2.444915771484375,0.67291259765625,1,1.0,1.0,1.0,1.0,45.00
2021-04-08 10:22:25.196,0.5626386,-0.027706943,-0.28321734,0.40438646,0.42980346,0.2824776,-0.25993538,0.36671168,0.932391,0.57724416,-0.021257587,0.9552691,0.25781754,1.063881,0.08291836,0.34295955,-0.059909977,0.7609882,-0.16802889,-0.12659638,807.0696,756.7033,799.81683,795.78754,941.6484,-0.35992431640625,-0.03448486328125,0.9383544921875,6.153411865234375,-5.9515380859375,1.547698974609375,1,1.0,1.0,1.0,1.0,45.00
2021-04-08 10:22:25.706,0.58136773,0.12658812,-0.3783675,0.5321687,0.40889513,0.23349538,-0.40405837,0.29017702,0.83023906,0.57724416,-0.20592041,0.8934385,0.29300627,1.0228091,0.053513866,0.37528723,0.1999485,0.77063805,-0.13591188,0.012076814,814.3223,825.2015,794.57874,808.2784,704.3223,-0.34576416015625,-0.02386474609375,0.94134521484375,4.4561767578125,-4.844970703125,0.777587890625,1,1.0,1.0,1.0,1.0,45.00
2021-04-08 10:22:26.208,0.50907296,0.11655668,-0.3577719,0.58410484,0.3141184,0.21939081,-0.30531308,0.1900518,0.4224657,0.57724416,-0.116734706,0.39031932,0.28269172,1.0035067,0.078089155,0.36137915,0.2599717,0.73127055,-0.091779605,0.07840517,926.337,835.6777,793.36993,933.5897,917.47253,-0.32806396484375,-0.025146484375,0.94427490234375,4.53094482421875,-6.1309814453125,1.039276123046875,1,1.0,1.0,1.0,1.0,45.00
2021-04-08 10:22:26.229,,,,,,,,,,,,,,,,,,,,,,,,,,,,,,,,,,,,,,/muse/elements/blink
2021-04-08 10:22:26.723,0.5654199,0.20879737,0.382601,0.63385457,0.11402794,0.11972368,0.1667725,0.17964327,0.24145094,0.15741265,-0.07325354,0.16813219,0.20841171,0.9491337,0.12068508,0.37417963,0.3234585,0.6115436,-0.12987657,0.066935346,833.663,851.79486,803.44324,829.2308,834.87177,-0.325439453125,-0.03363037109375,0.940673828125,3.27484130859375,-2.79632568359375,-4.2169189453125,1,1.0,1.0,1.0,1.0,45.00
2021-04-08 10:22:27.229,0.6068177,0.15400842,0.51454926,0.6419453,0.039958853,0.11545588,0.31626943,0.24328803,0.21079293,0.08386923,-0.017378164,0.14811948,-0.057554424,0.9420468,0.16455801,0.3813573,-0.09209063,0.5582188,-0.18865515,-0.09344578,763.95605,798.20514,802.6374,781.28204,657.5824,-0.33721923828125,-0.057373046875,0.9320068359375,4.015045166015625,-4.8748779296875,2.1533203125,1,1.0,1.0,1.0,1.0,45.00
2021-04-08 10:22:27.356,,,,,,,,,,,,,,,,,,,,,,,,,,,,,,,,,,,,,,/muse/elements/blink
2021-04-08 10:22:27.740,0.6068177,0.15400842,0.5963676,0.6419453,0.039958853,0.11545588,0.33621487,0.24328803,0.21079293,0.08386923,0.32665807,0.14811948,-0.057554424,0.9420468,0.14044741,0.3813573,-0.09209063,0.5582188,-0.28481862,-0.09344578,918.68134,873.1502,763.95605,882.01465,719.6337,-0.263916015625,0.0670166015625,0.92877197265625,36.7559814453125,-27.26043701171875,-20.516357421875,1,1.0,1.0,1.0,1.0,45.00
2021-04-08 10:22:27.770,,,,,,,,,,,,,,,,,,,,,,,,,,,,,,,,,,,,,,/muse/elements/jaw_clench
2021-04-08 10:22:27.869,,,,,,,,,,,,,,,,,,,,,,,,,,,,,,,,,,,,,,/muse/elements/blink
2021-04-08 10:22:28.259,0.6068177,0.15400842,0.75137436,0.6419453,0.039958853,0.11545588,0.28161395,0.24328803,0.21079293,0.08386923,0.2928864,0.14811948,-0.057554424,0.9420468,0.18671094,0.3813573,-0.09209063,0.5582188,-0.17203996,-0.09344578,778.46155,818.3516,807.0696,779.67035,716.4103,-0.05487060546875,0.0875244140625,0.992919921875,9.547882080078125,-23.148193359375,-24.022979736328125,1,1.0,1.0,1.0,1.0,45.00
2021-04-08 10:22:28.768,0.6068177,0.15400842,0.84773546,0.6419453,0.039958853,0.11545588,0.3987628,0.24328803,0.21079293,0.08386923,0.45005754,0.14811948,-0.057554424,0.9420468,0.094826154,0.3813573,-0.09209063,0.5582188,-0.089024864,-0.09344578,795.38464,832.8571,800.6227,800.6227,767.5824,-0.05078125,0.0997314453125,1.00042724609375,4.007568359375,-1.5252685546875,-18.721923828125,1,2.0,1.0,1.0,2.0,45.00
2021-04-08 10:22:29.275,0.6068177,0.15400842,0.8052308,0.6419453,0.039958853,0.11545588,0.34535137,0.24328803,0.21079293,0.08386923,0.41479772,0.14811948,-0.057554424,0.9420468,0.037496556,0.3813573,-0.09209063,0.5582188,-0.048539795,-0.09344578,809.89014,796.5934,807.8755,805.8608,766.77655,-0.12506103515625,0.0977783203125,0.99249267578125,-6.20574951171875,-3.596343994140625,-13.51806640625,1,2.0,1.0,1.0,2.0,45.00
2021-04-08 10:22:29.801,0.6068177,0.15400842,0.37829423,0.9066517,0.039958853,0.11545588,0.116200715,0.24740306,0.21079293,0.08386923,0.3179216,0.10556474,-0.057554424,0.9420468,-0.13521859,0.4095584,-0.09209063,0.5582188,-0.11231112,0.38684943,802.6374,815.12823,811.0989,804.2491,919.0842,0.01226806640625,-0.11724853515625,0.9981689453125,-5.9814453125,-24.344482421875,-9.091796875,1,1.0,1.0,1.0,1.0,45.00
2021-04-08 10:22:30.309,1.0603306,0.15400842,0.10120812,0.97870487,0.46854907,0.11545588,-0.24823084,0.47735927,0.10000067,0.08386923,0.116287164,0.6894863,0.43044296,0.9420468,-0.03772599,0.47334722,-0.24019977,0.5582188,-0.06528166,0.28359434,757.9121,868.315,758.71796,715.6044,562.0879,0.118408203125,-0.051025390625,1.03265380859375,14.66949462890625,1.786956787109375,-49.81048583984375,1,1.0,1.0,1.0,1.0,45.00
2021-04-08 10:22:30.514,,,,,,,,,,,,,,,,,,,,,,,,,,,,,,,,,,,,,,/muse/elements/blink
2021-04-08 10:22:30.824,1.5182831,0.15400842,0.7288585,0.9321735,1.0464414,0.11545588,0.118223675,0.5200409,1.0488352,0.08386923,0.37184268,0.6894863,0.54821986,0.9420468,0.049844515,0.49437472,0.04279019,0.5582188,-0.033453956,0.2001282,772.4176,817.1429,817.5458,842.9304,682.5641,0.0341796875,-0.05474853515625,0.999755859375,12.703094482421875,10.88623046875,-42.15423583984375,1,1.0,1.0,1.0,1.0,45.00
2021-04-08 10:22:30.925,,,,,,,,,,,,,,,,,,,,,,,,,,,,,,,,,,,,,,/muse/elements/blink
2021-04-08 10:22:31.219,,,,,,,,,,,,,,,,,,,,,,,,,,,,,,,,,,,,,,/muse/elements/blink
2021-04-08 10:22:31.347,1.6480064,0.15400842,1.0043929,1.0518553,1.1677659,0.11545588,0.37468302,0.6515111,1.0488352,0.08386923,0.45208785,0.6894863,0.60130244,0.9420468,0.060926806,0.5392711,0.115280576,0.5582188,-0.018279351,0.114775404,815.12823,830.0366,821.978,819.9634,599.15753,-0.15673828125,-0.01153564453125,0.8763427734375,9.0020751953125,-0.35888671875,-47.859039306640625,1,1.0,1.0,1.0,1.0,45.00
2021-04-08 10:22:31.866,1.71745,0.15400842,1.4218469,1.0726947,1.2449603,0.11545588,0.96214414,0.6829037,1.0488352,0.08386923,0.68083817,0.6894863,0.6283888,0.9420468,-0.066708654,0.5479068,0.17772712,0.5582188,-0.17436507,0.121939875,816.337,782.49084,815.12823,812.3077,1058.0952,-0.1932373046875,0.05206298828125,0.985595703125,19.75372314453125,-3.42437744140625,-24.217376708984375,1,1.0,1.0,1.0,1.0,45.00
2021-04-08 10:22:32.401,1.71745,0.15400842,1.4021239,1.0726947,1.2449603,0.11545588,1.0361651,0.6829037,1.0488352,0.08386923,0.7441524,0.6894863,0.6283888,0.9420468,-0.08341019,0.5479068,0.17772712,0.5582188,-0.23799144,0.121939875,743.4066,754.68866,835.2747,776.8498,784.90845,-0.10992431640625,0.1015625,0.935546875,-1.256103515625,-7.8955078125,41.563568115234375,1,1.0,1.0,1.0,1.0,45.00
2021-04-08 10:22:32.905,1.9197184,0.15400842,1.3835429,1.230737,1.5051528,0.11545588,0.99923635,0.96107334,1.4303783,0.08386923,0.7496413,1.1812452,0.6664262,0.9420468,-0.07993387,0.4537386,-0.14510904,0.5582188,-0.28781635,-0.055829935,821.978,834.4689,803.0403,807.8755,689.011,-0.34344482421875,-0.0169677734375,1.0955810546875,-10.504913330078125,-0.216827392578125,42.700042724609375,1,1.0,1.0,1.0,1.0,45.00
2021-04-08 10:22:33.435,1.9291806,0.15400842,1.321638,1.157245,1.499556,0.11545588,0.8972826,0.8604644,1.4307443,0.08386923,0.6951449,1.1833234,0.6694816,0.9420468,-0.08086197,0.38975152,-0.15050294,0.5582188,-0.41236922,-0.10341764,780.87915,777.25275,801.8315,791.75824,766.3736,0.039306640625,-0.02801513671875,1.099853515625,2.99072265625,-25.368804931640625,0.261688232421875,1,1.0,1.0,1.0,1.0,45.00
2021-04-08 10:22:33.960,1.8463943,0.15400842,1.2120261,1.1236652,1.4008003,0.11545588,0.6854206,0.6840967,1.4282283,0.08386923,0.58874947,1.1570256,0.6273827,0.9420468,0.0014036369,0.33339748,-0.095002964,0.5582188,-0.41772413,-0.10837228,815.5311,852.1978,805.4579,812.71063,813.1135,-0.1416015625,-0.02276611328125,0.997802734375,2.8411865234375,-1.368255615234375,-1.622467041015625,1,1.0,1.0,1.0,1.0,45.00
2021-04-08 10:22:34.487,1.5476673,0.15400842,0.7846917,1.0326731,0.9423501,0.11545588,0.23298448,0.34111303,1.1226356,0.08386923,0.3899723,0.80679584,0.4310613,0.9420468,-0.04946297,0.3185226,-0.021642424,0.5582188,-0.3067745,-0.054740265,808.2784,826.0073,810.696,801.8315,722.0513,-0.091552734375,0.14031982421875,0.9832763671875,12.329254150390625,-10.75164794921875,2.85614013671875,1,1.0,1.0,1.0,1.0,45.00
2021-04-08 10:22:34.989,1.2304063,0.15400842,0.21703261,0.9782758,0.40870136,0.11545588,-0.27651373,0.07183019,0.4963856,0.08386923,0.112013094,0.40822706,0.23969448,0.9420468,-0.07596877,0.32810336,-0.22082521,0.5582188,-0.3161412,0.008556434,802.6374,832.0513,805.05493,808.2784,704.7253,-0.05859375,0.0770263671875,0.9957275390625,5.301055908203125,-2.4224853515625,-6.228179931640625,1,1.0,1.0,1.0,1.0,45.00
2021-04-08 10:22:35.072,,,,,,,,,,,,,,,,,,,,,,,,,,,,,,,,,,,,,,/muse/elements/blink
2021-04-08 10:22:35.271,,,,,,,,,,,,,,,,,,,,,,,,,,,,,,,,,,,,,,/muse/elements/blink
2021-04-08 10:22:35.499,1.2944012,0.15400842,0.659903,0.9331533,0.908666,0.11545588,0.39608365,0.024773316,1.4335514,0.08386923,0.5535977,0.32115254,0.30591196,0.9420468,-0.1947509,0.36022323,-0.33420798,0.5582188,-0.39236444,0.064967096,809.0842,827.619,807.8755,803.44324,711.978,-0.0460205078125,0.05908203125,0.996826171875,4.463653564453125,-3.70849609375,-1.55517578125,1,1.0,1.0,1.0,1.0,45.00
2021-04-08 10:22:36.013,1.211727,0.15400842,0.7299552,0.7910932,1.1224623,0.11545588,0.521198,0.2203684,1.451654,0.08386923,0.5687965,0.2764011,0.3883404,0.9420468,-0.15949263,0.30687732,-0.3011218,0.5582188,-0.503444,0.037085447,814.3223,807.8755,808.2784,820.3663,794.17584,-0.0501708984375,0.052490234375,0.999267578125,3.46923828125,-2.639312744140625,-1.472930908203125,1,1.0,1.0,1.0,1.0,45.00
2021-04-08 10:22:36.543,0.9613136,0.15400842,0.92362165,0.7910932,1.0826216,0.11545588,0.66959363,0.2203684,1.4520307,0.08386923,0.57621944,0.2764011,0.37104088,0.9420468,-0.103670605,0.30687732,-0.07883491,0.5582188,-0.5725009,0.037085447,802.6374,826.4103,804.65204,804.2491,830.0366,-0.0701904296875,0.0518798828125,0.99993896484375,3.656158447265625,-3.60382080078125,0.201873779296875,1,1.0,1.0,1.0,1.0,45.00
2021-04-08 10:22:37.048,0.73541135,0.15400842,0.67180794,0.5987695,0.8162595,0.11545588,0.408959,0.2726304,1.3493496,0.08386923,0.43988714,0.26116848,0.2256016,0.9420468,-0.1414788,0.18271981,-0.14042696,0.5582188,-0.6512848,-0.20987126,805.8608,825.2015,807.8755,808.2784,762.74725,-0.0665283203125,0.0408935546875,0.9945068359375,3.6785888671875,-3.342132568359375,1.375732421875,1,1.0,1.0,1.0,1.0,45.00
2021-04-08 10:22:37.580,0.3941739,0.15400842,0.5682588,0.5165234,0.20153232,0.11545588,0.25642917,0.19418147,0.44347358,0.08386923,0.36739236,0.3533053,0.15995292,0.9420468,-0.12464395,0.18547998,-0.14487466,0.5582188,-0.6298837,-0.24675435,800.6227,807.47253,813.1135,805.8608,768.3883,-0.0684814453125,0.04638671875,0.99920654296875,4.583282470703125,-4.17205810546875,0.657958984375,1,1.0,1.0,1.0,1.0,45.00
2021-04-08 10:22:38.085,0.3078905,-0.020467699,-0.28967172,0.16864504,0.08243833,-0.3257926,-0.18437226,-0.017974764,0.43691358,0.10347265,0.089578405,0.41766128,0.07449883,0.8936099,-0.19550388,0.12415883,-0.2994537,0.3989138,-0.49554795,-0.24328125,792.5641,828.8278,807.47253,799.81683,680.54944,-0.08807373046875,0.04229736328125,1.00054931640625,3.39447021484375,-3.775787353515625,0.127105712890625,1,1.0,1.0,1.0,1.0,45.00
2021-04-08 10:22:38.600,0.17835654,-0.23356602,-0.61202735,0.02278667,0.10033162,-0.35954767,-0.13668749,-0.029812898,0.39515847,0.26982236,0.03333999,0.41766128,0.12505093,0.93561333,-0.18449916,0.15066782,-0.3322096,0.3269438,-0.4597312,-0.27979726,798.60803,805.05493,809.0842,813.91943,798.20514,-0.10595703125,0.0419921875,1.00189208984375,5.016937255859375,-3.96270751953125,2.295379638671875,1,1.0,1.0,1.0,1.0,45.00
2021-04-08 10:22:39.102,-0.14476167,-0.2841809,-0.68000793,-0.16030946,0.30251783,-0.30415133,-0.16957161,0.027755542,0.54941416,0.29695,-0.03943705,0.43211877,0.09137656,0.9613658,-0.24225876,0.090817675,-0.45575973,0.22475725,-0.49064505,-0.34719384,811.9048,818.7546,806.26373,811.50183,856.2271,-0.1077880859375,0.0482177734375,0.99652099609375,3.70849609375,-4.089813232421875,0.2093505859375,1,1.0,1.0,1.0,1.0,45.00
2021-04-08 10:22:39.610,-0.093788266,-0.2115927,-0.7001794,-0.0028472529,0.3393972,-0.16316059,-0.32500142,0.073919326,0.6178621,0.24920389,-0.09755822,0.46563295,0.13196528,0.9359103,-0.23558924,0.067524955,-0.38986874,0.3009557,-0.5172261,-0.38751966,796.99634,831.2454,803.8461,807.8755,743.00366,-0.11090087890625,0.03765869140625,0.99139404296875,4.344024658203125,-3.27484130859375,1.024322509765625,1,1.0,1.0,1.0,1.0,45.00
2021-04-08 10:22:40.122,-0.12683164,-0.27498314,-0.44838014,0.12689896,0.27388698,-0.08945204,-0.46158302,0.12538007,0.61944723,0.22808109,-0.024401523,0.4546653,0.15141782,0.91887915,-0.25762907,0.046490062,-0.30381322,0.36565962,-0.4646072,-0.37947148,799.011,799.81683,800.2198,792.1612,733.73627,-0.1068115234375,0.03924560546875,0.9991455078125,4.224395751953125,-4.9346923828125,0.994415283203125,1,1.0,1.0,1.0,1.0,45.00
2021-04-08 10:22:40.638,0.01344376,-0.3039337,-0.318967,0.20203988,0.033222027,-0.12118538,-0.44230613,0.13705729,0.6024572,0.18341963,-0.024401523,0.46278045,0.14075999,0.90647644,-0.21381135,-0.0049710516,-0.28781107,0.3880332,-0.51082486,-0.332906,801.02563,816.337,809.4872,807.8755,683.7729,-0.103759765625,0.03375244140625,0.99566650390625,4.62066650390625,-5.0543212890625,-0.052337646484375,1,1.0,1.0,1.0,1.0,45.00
2021-04-08 10:22:40.930,,,,,,,,,,,,,,,,,,,,,,,,,,,,,,,,,,,,,,/muse/elements/blink
2021-04-08 10:22:41.159,0.050294667,-0.2555284,-0.048686575,0.23192257,-0.16309959,-0.22821325,-0.3993443,0.15145385,0.28749365,0.1834514,0.03477339,0.43190724,0.15873352,0.9186745,-0.16520593,-0.02597193,-0.33606195,0.3214403,-0.6608964,-0.33793232,840.10986,801.8315,800.6227,842.52747,749.45056,-0.10980224609375,0.03704833984375,0.99700927734375,4.4561767578125,-5.136566162109375,0.770111083984375,1,1.0,1.0,1.0,1.0,45.00
2021-04-08 10:22:41.673,0.15418409,-0.11528942,0.523164,0.2612807,-0.02874548,-0.33503476,-0.009091381,0.22043501,0.14722043,0.07215838,0.13945164,0.40057394,0.12801184,0.89890605,-0.15880091,-0.1855376,-0.508339,0.2152469,-0.85546523,-0.40872923,815.12823,818.7546,803.8461,803.44324,851.39197,-0.0811767578125,0.03900146484375,1.000732421875,4.59075927734375,-5.644989013671875,0.381317138671875,1,1.0,1.0,1.0,1.0,45.00
2021-04-08 10:22:42.177,0.065009736,0.07824707,0.53605276,0.27184546,0.022107093,-0.37870815,0.025138073,0.3115225,0.13516486,0.09393066,0.14169846,0.35886866,0.07248399,0.9080895,-0.1843002,-0.1699778,-0.51897985,0.37516373,-0.7635221,-0.46295667,791.75824,844.1392,808.68134,804.65204,697.0696,-0.107177734375,0.02899169921875,0.9984130859375,3.84307861328125,-3.60382080078125,-0.2093505859375,1,1.0,1.0,1.0,1.0,45.00
2021-04-08 10:22:42.689,0.38998368,0.056069933,0.42469183,-0.072225586,-0.37508318,-0.43036053,-0.028602341,-0.10279335,0.15728706,0.08908324,0.14584634,0.06584722,0.06767235,0.9499659,-0.21826148,-0.0317064,-0.31376705,0.49457687,-0.7186152,-0.5416524,809.0842,799.41394,806.26373,800.6227,601.978,-0.11468505859375,0.03985595703125,0.99609375,3.6187744140625,-5.0244140625,-2.55706787109375,1,1.0,1.0,1.0,1.0,45.00
2021-04-08 10:22:43.206,0.33887303,0.09133141,-0.24074638,-0.14827411,-0.45877627,-0.35409194,-0.38913867,-0.05184336,0.22517803,0.26967505,-0.107971996,0.34156206,0.0447125,0.96133155,-0.24583402,-0.02654221,-0.2854957,0.52322376,-0.6394544,-0.3965598,809.0842,811.50183,804.65204,805.8608,778.86444,-0.10137939453125,0.02783203125,0.99822998046875,3.7982177734375,-3.701019287109375,0.777587890625,1,1.0,1.0,1.0,1.0,45.00
2021-04-08 10:22:43.731,0.32176095,-0.069584996,-0.44499,-0.16408819,-0.30818203,-0.17975742,-0.50003755,-0.032497562,0.33594316,0.35231525,-0.12028692,0.47984204,0.0435276,0.94325787,-0.3021305,-0.061545465,-0.31888857,0.59756,-0.6052891,-0.38575205,805.05493,833.2601,804.65204,810.293,778.86444,-0.10382080078125,0.02618408203125,0.99493408203125,4.18701171875,-5.38330078125,1.4056396484375,1,1.0,1.0,1.0,1.0,45.00
2021-04-08 10:22:44.247,0.18244511,-0.112841845,-0.3781108,-0.08662138,-0.18697049,-0.18185644,-0.60523015,0.08941353,0.47387692,0.35231525,-0.20566699,0.46152213,-0.010971079,0.91497874,-0.29956928,0.044752214,-0.34101883,0.5388782,-0.5210345,-0.341483,802.23444,815.9341,800.2198,806.6667,722.8571,-0.1138916015625,0.030517578125,0.99993896484375,4.792633056640625,-4.3365478515625,1.562652587890625,1,1.0,1.0,1.0,1.0,45.00
2021-04-08 10:22:44.765,0.17374535,-0.07102108,-0.29515508,0.0890521,0.043552224,-0.1100773,-0.5679117,0.05245396,0.4509586,0.2915114,-0.20732194,0.41827536,-0.06961055,0.8924765,-0.26637068,0.038525518,-0.42875114,0.5041713,-0.53200436,-0.3852235,811.0989,819.9634,801.02563,804.2491,722.0513,-0.10760498046875,0.01861572265625,0.9903564453125,4.1571044921875,-3.75335693359375,0.31402587890625,1,1.0,1.0,1.0,1.0,45.00
2021-04-08 10:22:45.270,0.084161416,0.118356794,-0.23240896,0.17406012,0.18623964,-0.18587093,-0.5952238,0.034123395,0.47941434,0.08730007,0.032960597,0.46161586,0.013692583,0.86464185,-0.22641842,0.084038734,-0.50929976,0.4387389,-0.54330856,-0.39338395,798.60803,812.71063,799.41394,805.4579,619.707,-0.11346435546875,0.0216064453125,0.99749755859375,4.762725830078125,-5.973968505859375,1.502838134765625,1,1.0,1.0,1.0,1.0,45.00
2021-04-08 10:22:45.779,0.30893695,0.26779503,-0.13907954,0.14590424,0.21585917,-0.14066263,-0.51023203,-0.13726687,0.48165274,0.31043175,0.07294521,0.4946118,0.05449776,0.8407635,-0.25671235,0.017584614,-0.5828756,0.5333585,-0.5633497,-0.44620475,731.7216,798.20514,811.50183,727.28937,871.13556,-0.11895751953125,0.02099609375,0.9920654296875,3.887939453125,-15.1031494140625,1.92901611328125,1,1.0,1.0,1.0,1.0,45.00
2021-04-08 10:22:45.963,,,,,,,,,,,,,,,,,,,,,,,,,,,,,,,,,,,,,,/muse/elements/blink
2021-04-08 10:22:46.294,0.3528494,0.3193178,0.5080884,0.077207066,0.22067943,-0.26197055,-0.041288096,-0.13316776,0.40978405,0.2704845,0.2482694,0.4928905,0.13227332,0.79715097,-0.24351436,0.049200654,-0.60288507,0.54506516,-0.5502369,-0.46004924,856.2271,807.47253,798.20514,843.3333,664.83514,-0.09991455078125,0.00518798828125,1.00762939453125,4.044952392578125,-3.925323486328125,0.2093505859375,1,1.0,1.0,1.0,1.0,45.00
2021-04-08 10:22:46.818,0.5640421,0.36653432,0.98753756,-0.08662444,-0.038300205,-0.29888293,0.3317284,-0.21008539,0.29444745,0.22358255,0.27258223,0.36654627,0.041416604,0.8027411,-0.2440557,0.06302438,-0.5625592,0.67873114,-0.522141,-0.5327232,815.9341,813.91943,801.4286,817.5458,788.1319,-0.128662109375,0.00238037109375,0.994384765625,5.6524658203125,-4.18701171875,-0.9271240234375,1,1.0,1.0,1.0,1.0,40.00
2021-04-08 10:22:47.323,0.5640421,0.36653432,0.99031645,-0.08662444,-0.038300205,-0.29888293,0.34678912,-0.21008539,0.29444745,0.22358255,0.2595343,0.36654627,0.041416604,0.8027411,-0.14197439,0.06302438,-0.5625592,0.67873114,-0.50167197,-0.5327232,797.8022,801.4286,808.68134,804.2491,791.3553,-0.12969970703125,0.0035400390625,0.994873046875,4.777679443359375,-4.717864990234375,1.5252685546875,1,1.0,1.0,1.0,1.0,40.00
2021-04-08 10:22:47.844,0.047257356,-0.5521073,0.788156,-0.052822422,0.42059368,-0.3392511,0.14690539,0.19453184,0.53957164,0.11176233,0.252124,0.41735974,-0.054292906,0.87051505,-0.07678324,0.061180312,-0.3525986,0.45881256,-0.5031781,-0.26878345,808.2784,829.6337,798.60803,809.89014,745.82416,-0.12615966796875,-0.0098876953125,0.99285888671875,4.56085205078125,-4.732818603515625,0.73272705078125,1,1.0,1.0,1.0,1.0,40.00
2021-04-08 10:22:48.367,0.013144288,-0.44755632,0.020088578,0.048506293,0.39479142,-0.21551788,-0.28616253,0.29158083,0.87292576,0.13844462,0.08077617,0.7397628,-0.058815837,0.9094346,-0.04108698,0.083595365,-0.4426973,0.5209081,-0.5394675,-0.41132563,821.1722,819.9634,800.6227,809.0842,783.2967,-0.1246337890625,-0.008544921875,0.99749755859375,4.80010986328125,-4.493560791015625,1.143951416015625,1,1.0,1.0,1.0,1.0,40.00
2021-04-08 10:22:48.883,0.11784314,-0.34545404,-0.067033134,0.045362327,0.46676815,-0.19211827,-0.3483677,0.4186065,0.9325433,0.2548428,0.02204925,0.8587804,-0.029896433,0.8982798,-0.123304255,0.11127253,-0.44655138,0.55207604,-0.62262034,-0.4030422,808.68134,822.381,803.44324,815.9341,786.52014,-0.125732421875,-0.00592041015625,0.99267578125,5.151519775390625,-5.644989013671875,1.03179931640625,1,1.0,1.0,1.0,1.0,40.00
2021-04-08 10:22:49.385,0.08238831,-0.0050017517,-0.2306735,0.14754029,0.46251655,-0.14757325,-0.45454225,0.55750996,0.9335552,0.30719575,0.021745527,0.86304986,0.13432725,0.8990203,-0.1152663,0.23246343,-0.42733604,0.5849625,-0.7658164,-0.4151137,787.72894,824.7985,807.0696,787.326,625.34796,-0.11578369140625,-0.01434326171875,0.99713134765625,4.8150634765625,-3.865509033203125,0.95703125,1,1.0,1.0,1.0,1.0,40.00
2021-04-08 10:22:49.889,0.26610017,0.07401735,-0.34357303,0.3348602,0.59219235,-0.07849335,-0.5226094,0.6544759,0.97357213,0.57146233,0.102859296,1.0402035,0.4092385,0.8496346,-0.11664912,0.39939895,-0.3611598,0.6023833,-0.7715446,-0.40985623,809.89014,811.0989,809.89014,812.71063,802.23444,-0.11492919921875,-0.00494384765625,0.9951171875,4.6954345703125,-3.93280029296875,0.7177734375,1,1.0,1.0,1.0,1.0,40.00
2021-04-08 10:22:50.393,0.5436907,0.14757836,-0.23334995,0.4102336,0.84722954,0.0640703,-0.33952826,0.6886378,1.0432135,0.629787,0.27005905,1.0373169,0.71930623,0.8126304,-0.06786808,0.6297475,-0.32107958,0.53093916,-0.7454809,-0.40070716,818.3516,826.8132,805.4579,813.91943,780.07324,-0.11236572265625,-0.01251220703125,0.99395751953125,4.613189697265625,-4.91973876953125,1.00189208984375,1,1.0,1.0,1.0,1.0,40.00
2021-04-08 10:22:50.918,0.594426,0.022306789,-0.1268468,0.36171997,0.8573116,0.04560078,-0.17114414,0.6236246,1.0432135,0.629787,0.24978328,1.0292038,0.7323015,0.88758266,-0.13519582,0.61261773,-0.28812364,0.4217942,-0.6327326,-0.44494677,870.32965,840.5128,794.17584,868.315,680.9524,-0.11346435546875,-0.01617431640625,0.99468994140625,3.93280029296875,-4.14215087890625,-0.261688232421875,1,1.0,1.0,1.0,1.0,40.00
2021-04-08 10:22:51.021,,,,,,,,,,,,,,,,,,,,,,,,,,,,,,,,,,,,,,/muse/elements/blink
2021-04-08 10:22:51.427,0.6437937,0.22317246,0.18063323,0.16015175,0.9075327,0.3112171,0.1841042,0.51764864,1.0279663,0.65040237,0.3486309,1.016678,0.75725216,0.9175558,-0.14891307,0.62601644,-0.30275202,0.33361188,-0.61320734,-0.4262686,816.337,798.20514,804.2491,810.293,708.3516,-0.10791015625,-0.01214599609375,0.9925537109375,5.63751220703125,-4.553375244140625,0.814971923828125,1,1.0,1.0,1.0,1.0,40.00
2021-04-08 10:22:51.954,0.106846735,0.32678,0.27125964,-0.30014762,0.33810398,0.39709407,0.24512208,0.10615283,0.56950545,0.57576513,0.354769,0.30128458,0.22506118,0.89982456,-0.20320866,0.11544489,-0.28484997,0.41157588,-0.5901845,-0.5125361,763.1502,764.35895,840.10986,803.0403,776.4469,-0.10821533203125,-0.01043701171875,0.9979248046875,4.844970703125,-4.964599609375,0.500946044921875,1,1.0,1.0,1.0,1.0,40.00
2021-04-08 10:22:52.477,0.106846735,0.4634344,0.7341792,-0.30014762,0.33810398,0.532883,0.448325,0.10615283,0.56950545,0.57576513,0.5268119,0.30128458,0.22506118,0.82339704,-0.18104249,0.11544489,-0.28484997,0.49907604,-0.51575047,-0.5125361,825.6044,870.32965,769.59705,784.5055,763.95605,-0.10772705078125,-0.0057373046875,1.0009765625,5.405731201171875,-4.964599609375,0.94207763671875,1,1.0,1.0,1.0,1.0,40.00
2021-04-08 10:22:52.991,0.106846735,0.20752697,1.0563606,1.09706,0.33810398,0.2049591,0.53342897,0.57465345,0.56950545,0.36631548,0.5472785,0.4038596,0.22506118,0.7323529,-0.15625931,0.24356893,-0.28484997,0.46361226,-0.50418544,-0.083950795,805.8608,799.81683,805.4579,809.4872,845.7509,-0.10626220703125,0.0032958984375,0.99578857421875,4.007568359375,-5.0543212890625,0.49346923828125,1,1.0,1.0,1.0,1.0,40.00
2021-04-08 10:22:53.518,0.7257155,0.06627815,1.135148,0.9345528,0.69682777,-0.010543144,0.5786815,0.49358523,0.6239634,0.25004512,0.5452327,0.40945435,0.11927823,0.7055237,-0.13411787,0.16869634,-0.51436704,0.45964128,-0.5243869,-0.20797782,803.8461,834.87177,805.8608,808.68134,695.8608,-0.1048583984375,-1.220703125E-4,1.0003662109375,3.84307861328125,-4.224395751953125,0.381317138671875,1,1.0,1.0,1.0,1.0,40.00
2021-04-08 10:22:54.042,0.39578423,0.06627815,1.0132707,0.74118114,0.2770345,-0.010543144,0.4675664,0.35279447,0.5320075,0.25004512,0.48533043,0.41474485,0.07807055,0.7055237,-0.080006324,0.117137775,-0.34625396,0.45964128,-0.63546073,-0.3326748,805.8608,807.47253,803.44324,810.293,793.7729,-0.10302734375,-0.01531982421875,0.99432373046875,4.059906005859375,-3.970184326171875,1.712188720703125,1,1.0,1.0,1.0,1.0,40.00
2021-04-08 10:22:54.551,0.35998437,0.06627815,0.69045216,0.34603754,0.32964906,-0.010543144,0.35211056,0.29840276,0.4598466,0.25004512,0.35653105,0.367042,0.050926216,0.7055237,-0.09641204,0.01699277,-0.39605066,0.45964128,-0.5476398,-0.54959655,799.81683,817.9487,802.23444,795.78754,686.99634,-0.108642578125,-0.01519775390625,0.99285888671875,4.68048095703125,-3.372039794921875,0.635528564453125,1,1.0,1.0,1.0,1.0,40.00
2021-04-08 10:22:55.081,0.3001272,0.06627815,0.6208193,0.26872766,0.3360151,-0.010543144,0.41923153,0.30379292,0.5915422,0.25004512,0.19126773,0.33591804,0.0783478,0.7055237,-0.048178013,0.030313754,-0.41278172,0.45964128,-0.51689714,-0.47174516,807.8755,803.44324,803.44324,804.65204,671.685,-0.0992431640625,-0.01031494140625,0.9925537109375,4.433746337890625,-4.613189697265625,0.216827392578125,1,1.0,1.0,1.0,1.0,40.00
2021-04-08 10:22:55.605,0.2109988,0.23136061,0.54781103,0.2815991,0.33849493,-0.0461696,0.3069822,0.34995374,0.66821706,0.053593177,0.18810041,0.3348165,0.072627276,0.8251432,-0.1642172,-0.026892677,-0.5316411,0.0699349,-0.42586988,-0.3534875,802.6374,813.5165,806.26373,804.2491,808.2784,-0.117431640625,-0.0107421875,0.9954833984375,4.35150146484375,-4.53094482421875,0.97198486328125,1,1.0,1.0,1.0,1.0,40.00
2021-04-08 10:22:56.133,-0.046580862,0.12896733,0.27959323,0.12564263,0.0540886,-0.06810122,0.030340226,0.15450121,0.63184196,0.15143791,0.1742211,0.37463674,0.0044473065,0.82297236,-0.2489464,0.033256426,-0.43402502,0.15464732,-0.4619524,-0.32619902,813.1135,839.304,807.47253,811.9048,748.24176,-0.10931396484375,-0.01641845703125,1.001220703125,4.628143310546875,-4.807586669921875,0.605621337890625,1,1.0,1.0,1.0,1.0,40.00
2021-04-08 10:22:56.642,-0.102622055,-0.1370963,-0.61604613,-0.0641588,-0.10313069,-0.26658934,-0.4584362,0.042318795,0.5780524,0.12985389,0.03153951,0.2697323,-0.04743822,0.81286424,-0.34176013,0.038914036,-0.42985556,0.27633724,-0.46785453,-0.37552512,804.65204,818.7546,806.26373,797.8022,796.99634,-0.11077880859375,-0.00933837890625,0.9970703125,4.9346923828125,-4.68048095703125,1.30096435546875,1,1.0,1.0,1.0,1.0,40.00
2021-04-08 10:22:57.168,0.008450649,-0.19980982,-0.6449818,-0.0019568065,0.14192973,-0.35851106,-0.42540252,0.2997872,0.42966196,0.11098711,0.015077093,0.30175763,-0.02432596,0.8326921,-0.34638134,0.06351826,-0.41829714,0.34447536,-0.5433027,-0.40064234,808.2784,813.5165,803.44324,806.6667,703.91943,-0.1024169921875,-0.01556396484375,0.9967041015625,4.269256591796875,-4.5458984375,-0.127105712890625,1,1.0,1.0,1.0,1.0,40.00
2021-04-08 10:22:57.406,,,,,,,,,,,,,,,,,,,,,,,,,,,,,,,,,,,,,,/muse/elements/blink
2021-04-08 10:22:57.697,0.047953546,-0.24200527,0.2892447,0.10130325,0.30061406,-0.5720986,0.087633654,0.4327028,0.45208398,0.048548397,0.23433423,0.3868863,0.040969316,0.82614446,-0.2150685,0.037675507,-0.46672758,0.3806281,-0.5768992,-0.42854375,821.5751,823.5897,800.2198,813.1135,641.06226,-0.10345458984375,-0.00860595703125,0.9981689453125,5.1141357421875,-5.450592041015625,0.59814453125,1,1.0,1.0,1.0,1.0,40.00
2021-04-08 10:22:58.205,0.14455034,-0.3771447,0.997161,0.2844886,0.4717903,-0.64825,0.7107087,0.60519046,0.41472206,-0.15151834,0.44645655,0.3723915,0.11258376,0.79288566,-0.13867098,0.015085187,-0.44206044,0.33247116,-0.59844583,-0.4308689,807.47253,799.011,800.6227,811.50183,737.76556,-0.10235595703125,-0.00762939453125,0.9952392578125,4.59075927734375,-4.71038818359375,-0.1495361328125,1,1.0,1.0,1.0,1.0,40.00
2021-04-08 10:22:58.731,0.064370394,0.34277743,1.0217353,0.35882726,0.46817526,0.047418483,0.72745836,0.58986247,0.4143428,0.36909062,0.43521008,0.35999516,0.009843091,0.83761674,-0.06786061,-0.014251141,-0.4047359,0.25137356,-0.6050927,-0.48928678,807.0696,831.2454,789.7436,790.14655,712.7839,-0.1044921875,-0.0020751953125,0.99908447265625,4.957122802734375,-4.5458984375,0.657958984375,1,1.0,1.0,1.0,1.0,40.00
2021-04-08 10:22:59.233,0.518471,0.34277743,1.0930424,0.35882726,-0.029888863,0.047418483,0.71655464,0.58986247,0.3327093,0.36909062,0.5368387,0.35999516,0.054697756,0.83761674,-0.0059031323,-0.014251141,-0.5825207,0.25137356,-0.57641184,-0.48928678,807.0696,817.9487,806.6667,807.47253,872.3443,-0.09771728515625,2.44140625E-4,0.99786376953125,4.628143310546875,-4.74029541015625,0.64300537109375,1,1.0,1.0,1.0,1.0,40.00
2021-04-08 10:22:59.771,0.42744866,0.39798304,0.85498667,0.35882726,-0.08179095,0.14885296,0.3927683,0.58986247,0.3333108,0.5153607,0.35517627,0.35999516,0.12916994,0.92122674,-0.033717304,-0.014251141,-0.48606607,0.3963361,-0.60945296,-0.48928678,815.12823,799.41394,807.0696,809.0842,943.2601,-0.0997314453125,-0.001953125,0.99798583984375,4.83001708984375,-4.4561767578125,1.03179931640625,1,1.0,1.0,1.0,1.0,40.00
2021-04-08 10:23:00.272,0.30997163,0.25853586,0.82116944,-0.043859616,-0.1064723,-0.021063747,0.3474064,-0.06444536,0.4621597,0.38591787,0.34391874,0.080909275,0.080306225,0.8410276,-0.09894098,0.07914951,-0.49312368,0.4663451,-0.65712017,-0.42396918,794.57874,821.978,801.02563,801.02563,570.9524,-0.0997314453125,-0.00494384765625,0.99969482421875,4.134674072265625,-4.11224365234375,-0.1495361328125,1,1.0,1.0,1.0,1.0,40.00
2021-04-08 10:23:00.786,0.13347977,0.25853586,0.3428033,0.07533202,-0.030609269,-0.021063747,0.039624937,0.15301545,0.47378862,0.38591787,0.16702466,0.3311266,0.034399815,0.8410276,-0.18186168,0.025170332,-0.5173305,0.4663451,-0.68395627,-0.4950437,804.2491,800.2198,803.44324,808.68134,781.28204,-0.10601806640625,-0.01568603515625,0.99676513671875,4.0374755859375,-4.74029541015625,1.256103515625,1,1.0,1.0,1.0,1.0,40.00
2021-04-08 10:23:01.291,0.08697404,0.3083026,0.32462126,0.056257788,0.017066123,-0.014433782,0.09261749,0.15188834,0.52313834,0.36766943,0.20168094,0.45208663,-0.0974763,0.7894232,-0.14486226,0.12262019,-0.61042625,0.39454037,-0.67411023,-0.5275681,817.1429,815.12823,814.3223,825.6044,971.8681,-0.1024169921875,-0.011962890625,0.99810791015625,4.32159423828125,-3.93280029296875,0.059814453125,1,1.0,1.0,1.0,1.0,40.00
2021-04-08 10:23:01.807,-0.0066992505,-0.080167465,0.26532894,0.112429224,0.005367005,-0.13561758,0.06933383,0.12958963,0.5330077,0.3930287,0.17828995,0.4468915,-0.045704957,0.73187405,-0.17493704,0.1289974,-0.6505683,0.21482219,-0.7019204,-0.49683014,802.6374,819.5604,802.23444,806.26373,795.38464,-0.1087646484375,-0.0108642578125,0.99774169921875,5.016937255859375,-4.478607177734375,0.8074951171875,1,1.0,1.0,1.0,1.0,40.00
2021-04-08 10:23:02.316,0.07413155,-0.07266046,0.14121516,0.23643331,-0.10501494,-0.20621295,0.04243871,0.14033128,0.4784903,0.41132712,0.15055653,0.48324445,-0.043618966,0.7372767,-0.16871992,0.1656026,-0.59825087,0.3811914,-0.7691131,-0.48958066,808.2784,807.47253,803.44324,805.8608,871.53845,-0.10919189453125,-0.007080078125,0.99444580078125,3.78326416015625,-5.316009521484375,0.7177734375,1,1.0,1.0,1.0,1.0,40.00
2021-04-08 10:23:02.826,0.15319441,-0.10662626,-0.22619699,0.29189235,-0.11961666,-0.25837958,-0.020626426,0.2753596,0.3954481,0.3950526,0.20146486,0.46814576,-0.023683133,0.76822233,-0.17370181,0.11718187,-0.64908236,0.38224402,-0.7349206,-0.49392265,801.4286,826.0073,798.60803,801.4286,728.0952,-0.105712890625,-0.0078125,0.99871826171875,4.88983154296875,-4.254302978515625,0.52337646484375,1,1.0,1.0,1.0,1.0,40.00
2021-04-08 10:23:03.349,0.24633428,-0.050769795,-0.26288834,0.24100439,-0.018842872,-0.29930934,-0.08185631,0.3438978,0.32361662,0.22526838,0.22880675,0.5220284,-0.040359575,0.79804474,-0.07999745,0.10641541,-0.6255142,0.38609284,-0.72120184,-0.47989047,809.4872,830.4396,807.0696,804.65204,695.8608,-0.1075439453125,-0.0045166015625,0.998291015625,5.375823974609375,-5.0543212890625,1.128997802734375,1,1.0,1.0,1.0,1.0,40.00
2021-04-08 10:23:03.853,0.6827363,-0.043685585,0.1824462,0.45379624,0.39770377,-0.2937052,0.014898311,0.40054545,0.6043829,0.16126248,0.30404305,0.64880854,0.103773214,0.8255477,-0.09980332,0.19841138,-0.71012604,0.2872541,-0.6324492,-0.40466782,811.9048,809.0842,796.1905,803.8461,784.5055,-0.1011962890625,-0.00146484375,0.99664306640625,4.628143310546875,-4.403839111328125,0.800018310546875,1,1.0,1.0,1.0,1.0,40.00
2021-04-08 10:23:04.360,0.96814704,-0.029547932,0.57191527,0.72447956,0.50001514,-0.24577343,0.14791177,0.55702686,0.65092546,0.03668322,0.28507426,0.7186186,0.21174207,0.8247998,-0.15948084,0.20191361,-0.70110446,0.15148266,-0.5683197,-0.4019814,795.38464,813.91943,808.2784,795.38464,718.4249,-0.104736328125,-0.001220703125,0.99542236328125,4.8748779296875,-4.71038818359375,0.97198486328125,1,1.0,1.0,1.0,1.0,40.00
2021-04-08 10:23:04.879,1.1567395,-0.029547932,0.7548543,0.74471575,0.635147,-0.24577343,0.32382196,0.52720857,0.65092546,0.03668322,0.36586556,0.72139156,0.30429167,0.8247998,-0.22779083,0.197488,-0.80685234,0.15148266,-0.526516,-0.4185464,825.2015,826.4103,784.90845,805.8608,685.38464,-0.09765625,0.00225830078125,0.99835205078125,4.844970703125,-4.732818603515625,0.500946044921875,1,1.0,1.0,1.0,1.0,40.00
2021-04-08 10:23:05.392,1.2541026,-0.029547932,1.0248125,0.6064256,0.48333365,-0.24577343,0.60371846,0.4513069,0.6224059,0.03668322,0.44399032,0.7276714,0.34103957,0.8247998,-0.23153138,0.13584542,-0.9074884,0.15148266,-0.49898994,-0.44904727,797.3993,810.696,804.2491,799.81683,799.81683,-0.09625244140625,-0.00433349609375,0.9959716796875,4.358978271484375,-5.33843994140625,0.710296630859375,1,1.0,1.0,1.0,1.0,40.00
2021-04-08 10:23:05.919,1.2541026,-0.029547932,1.040914,0.37974066,0.48333365,-0.24577343,0.6666111,0.21819222,0.6224059,0.03668322,0.4707751,0.3961825,0.34103957,0.8247998,-0.18160757,0.09108575,-0.9074884,0.15148266,-0.52877104,-0.41940892,815.5311,835.6777,801.02563,805.05493,699.0842,-0.09930419921875,7.9345703125E-4,0.9991455078125,4.77020263671875,-4.5758056640625,1.188812255859375,1,1.0,1.0,1.0,1.0,40.00
2021-04-08 10:23:06.443,1.2541026,-0.029547932,1.1932993,0.7651215,0.48333365,-0.24577343,0.7973618,0.42364067,0.6224059,0.03668322,0.60051274,0.45642835,0.34103957,0.8247998,0.049761783,0.18196034,-0.9074884,0.15148266,-0.5091949,-0.40726027,806.6667,804.2491,805.05493,812.71063,738.97437,-0.09796142578125,-0.00103759765625,0.99676513671875,4.762725830078125,-4.85992431640625,1.263580322265625,1,1.0,1.0,1.0,1.0,40.00
2021-04-08 10:23:06.972,1.2541026,-0.029547932,0.9416463,0.7531825,0.48333365,-0.24577343,0.53618324,0.48131192,0.6224059,0.03668322,0.5819601,0.45890477,0.34103957,0.8247998,-0.009887379,0.106174305,-0.9074884,0.15148266,-0.61215806,-0.4329839,794.17584,805.05493,809.0842,790.9524,758.71796,-0.1024169921875,0.002685546875,0.99761962890625,4.074859619140625,-4.433746337890625,1.60003662109375,1,1.0,1.0,1.0,1.0,40.00
2021-04-08 10:23:07.474,0.08028127,-0.69986224,0.7306535,0.5710627,-0.0931339,0.030051714,0.33459628,0.40899602,0.123377316,-0.07083226,0.5614436,0.41279367,-0.22877368,0.8042565,-0.08818215,0.066265635,-0.3990381,0.18069804,-0.60196775,-0.41618574,803.44324,806.26373,802.23444,801.4286,698.2784,-0.09649658203125,-0.00201416015625,1.00238037109375,4.127197265625,-5.316009521484375,1.60003662109375,1,1.0,1.0,1.0,1.0,40.00
2021-04-08 10:23:07.983,0.052942947,-0.41329345,0.30260825,0.046378154,-0.12073011,0.05371352,-0.13989763,0.25864026,0.12563057,-0.020183994,0.1666052,0.31266525,-0.19088252,0.8076853,-0.27318898,0.037370782,-0.40704694,0.13957123,-0.5598056,-0.32738006,808.2784,786.1172,789.34064,798.60803,1037.1428,-0.1007080078125,6.103515625E-4,0.99591064453125,4.78515625,-4.3365478515625,0.949554443359375,1,1.0,1.0,1.0,1.0,40.00
2021-04-08 10:23:08.491,-0.12209557,-0.37113646,0.79137415,0.2259959,-0.13237502,0.07367953,0.2700576,0.36176294,0.06832897,-0.059908643,0.32663125,0.36824557,-0.20081908,0.81318855,-0.13448344,0.08566927,-0.36732575,0.056617625,-0.5383886,-0.3105513,807.8755,830.4396,808.68134,806.6667,761.53845,-0.095947265625,-7.9345703125E-4,0.99737548828125,3.820648193359375,-4.658050537109375,0.560760498046875,1,1.0,1.0,1.0,1.0,40.00
2021-04-08 10:23:08.997,0.4111157,-0.06641479,0.92205995,0.34672916,0.15599087,0.020138785,0.37821272,0.39030144,0.51119715,0.0029762085,0.30466318,0.41904578,0.0146616455,0.8787267,0.018256756,0.10814465,-0.3553821,0.24096757,-0.57453406,-0.2897034,805.8608,803.44324,799.011,795.38464,739.3773,-0.106689453125,-0.00238037109375,0.9912109375,5.0543212890625,-4.538421630859375,1.353302001953125,1,1.0,1.0,1.0,1.0,40.00
2021-04-08 10:23:09.507,0.50879395,-0.32776716,0.8721282,0.49078226,0.2872229,-0.108713135,0.3419619,0.45926118,0.51475495,-0.007436628,0.30203703,0.41904578,-0.0068107904,0.75033987,0.06338515,0.07149629,-0.40126944,0.38395184,-0.72210145,-0.36509305,793.36993,802.23444,798.20514,792.96704,773.6264,-0.10223388671875,0.00836181640625,0.99835205078125,4.59075927734375,-4.74029541015625,0.770111083984375,1,1.0,1.0,1.0,1.0,40.00
2021-04-08 10:23:09.597,,,,,,,,,,,,,,,,,,,,,,,,,,,,,,,,,,,,,,/muse/elements/blink
2021-04-08 10:23:10.028,0.50879395,-0.32776716,1.0392611,0.48677415,0.2872229,-0.108713135,0.6831994,0.32545757,0.51475495,-0.007436628,0.57774484,0.37464505,-0.0068107904,0.75033987,0.062097475,0.06880536,-0.40126944,0.38395184,-0.7142229,-0.34002498,819.5604,829.6337,807.0696,811.9048,751.8681,-0.09521484375,5.4931640625E-4,1.0008544921875,6.018829345703125,-4.35150146484375,2.265472412109375,1,1.0,1.0,1.0,1.0,40.00
2021-04-08 10:23:10.533,0.49054122,-0.43594676,1.1546916,0.5737864,0.3344487,-0.101713,0.8304839,0.26452044,0.41177905,-0.079230584,0.56231475,0.051493734,-0.022210501,0.62093216,0.039132114,-0.03046833,-0.4509099,0.3690805,-0.7675956,-0.34875163,810.293,790.54944,805.4579,809.4872,907.8022,-0.09991455078125,-0.001708984375,0.99774169921875,5.33843994140625,-4.844970703125,1.039276123046875,1,1.0,1.0,1.0,1.0,40.00
2021-04-08 10:23:11.051,0.49054122,-0.43594676,1.1625537,0.5737864,0.3344487,-0.101713,0.864373,0.26452044,0.41177905,-0.079230584,0.56231475,0.051493734,-0.022210501,0.62093216,-0.10749371,-0.03046833,-0.4509099,0.3690805,-0.6209504,-0.34875163,831.2454,856.63007,789.34064,802.6374,748.6447,-0.08880615234375,0.00762939453125,1.0006103515625,4.77020263671875,-4.85992431640625,1.039276123046875,1,1.0,1.0,1.0,1.0,40.00
2021-04-08 10:23:11.574,0.68926823,-0.43594676,0.9720012,0.8734895,0.47924614,-0.101713,0.68086725,0.70766413,0.5431853,-0.079230584,0.56407833,0.5684196,0.30225438,0.62093216,-0.041120216,0.45728478,-0.34492508,0.3690805,-0.62663615,-0.32375318,805.8608,820.7692,804.65204,807.0696,613.2601,-0.10174560546875,-0.00177001953125,0.99945068359375,4.762725830078125,-4.673004150390625,1.114044189453125,1,1.0,1.0,1.0,1.0,40.00
2021-04-08 10:23:12.083,0.5351537,-0.43594676,0.9088076,0.7408174,0.41005102,-0.101713,0.571043,0.51071066,0.5501629,-0.079230584,0.56440246,0.6038627,0.18606311,0.62093216,-0.05694832,0.35753563,-0.3985796,0.3690805,-0.6343014,-0.30416358,794.9817,796.5934,801.4286,796.99634,677.72894,-0.100341796875,0.00189208984375,0.99615478515625,4.762725830078125,-4.867401123046875,1.1065673828125,1,1.0,1.0,1.0,1.0,40.00
2021-04-08 10:23:12.589,0.47761202,-0.43594676,0.881991,0.626082,0.46218032,-0.101713,0.5422611,0.5217575,0.48395675,-0.079230584,0.56440246,0.6038627,0.13249789,0.62093216,-0.004490104,0.27433655,-0.3848201,0.3690805,-0.6590221,-0.31327823,806.6667,823.9927,793.7729,799.81683,691.4286,-0.11602783203125,0.04974365234375,1.00103759765625,9.517974853515625,-2.160797119140625,4.418792724609375,1,1.0,1.0,1.0,1.0,40.00
2021-04-08 10:23:13.097,0.20958683,0.09382789,0.40374672,0.29419717,0.2913275,-0.19963148,-0.050400592,0.33937055,0.41082913,-0.478363,0.25883892,0.49414974,-0.081455305,0.8729881,-0.16110416,0.09309356,-0.4483092,0.12078638,-0.65067333,-0.3572647,801.4286,825.6044,799.81683,801.4286,622.1245,-0.11724853515625,0.04852294921875,0.9931640625,4.2169189453125,-5.72723388671875,-0.082244873046875,1,1.0,1.0,1.0,1.0,40.00
2021-04-08 10:23:13.614,0.249086,0.09382789,0.107702725,0.33883289,0.2269036,-0.19963148,-0.17591937,0.3573945,0.26565993,-0.478363,-0.10517276,0.45967522,-0.092911035,0.8729881,-0.18100385,0.0611251,-0.46268454,0.12078638,-0.6433737,-0.360145,796.5934,793.36993,805.05493,807.47253,773.22345,-0.11370849609375,0.0462646484375,0.99169921875,4.62066650390625,-4.897308349609375,0.530853271484375,1,1.0,1.0,1.0,1.0,40.00
2021-04-08 10:23:14.126,0.36707276,0.1170847,0.2598588,0.29094654,-0.012468298,-0.30420184,0.012784065,0.22051677,0.013633,-0.5268104,0.01877787,0.45967522,-0.07224681,0.855374,-0.18233132,0.129303,-0.47008088,0.12650466,-0.5924803,-0.29785433,796.5934,820.3663,799.011,801.02563,651.13556,-0.1075439453125,0.039794921875,0.99871826171875,5.256195068359375,-4.777679443359375,0.067291259765625,1,1.0,1.0,1.0,1.0,40.00
2021-04-08 10:23:14.650,0.34560603,-0.30254638,0.1800485,0.22248134,0.0039047715,-0.2800323,0.019185003,0.062128242,0.014061044,-0.04629725,0.119401366,0.4569442,-0.025431823,0.7603416,-0.09956556,0.17261763,-0.523327,0.38482434,-0.62004024,-0.30039644,804.2491,827.2161,811.9048,811.50183,743.00366,-0.10791015625,0.0384521484375,0.998046875,4.127197265625,-3.72344970703125,0.620574951171875,1,1.0,1.0,1.0,1.0,40.00
2021-04-08 10:23:15.176,0.22965208,0.31898364,0.26305264,0.23561932,0.05609222,0.05438981,0.16430022,0.39731362,0.19622505,0.6224286,0.3471583,0.70393944,-0.01821625,0.74376345,-0.074551895,0.25413948,-0.54257816,0.26587757,-0.59260935,-0.31297296,798.60803,812.71063,802.6374,790.9524,862.27106,-0.14691162109375,-0.00299072265625,0.9942626953125,-6.781463623046875,2.325286865234375,-12.015228271484375,1,1.0,1.0,1.0,1.0,40.00
2021-04-08 10:23:15.705,0.61488783,0.3105711,0.45775238,0.93860173,0.44843367,0.1477854,0.250889,0.76339364,0.3573369,0.6224286,0.35241765,0.742794,0.19003868,0.7520402,-0.08900416,0.34902146,-0.668826,0.21221201,-0.5868958,-0.43197057,785.31134,847.76556,792.5641,782.49084,713.1868,-0.177001953125,-0.02789306640625,0.98028564453125,8.56842041015625,-4.837493896484375,0.635528564453125,1,1.0,1.0,1.0,1.0,40.00
2021-04-08 10:23:16.213,0.8526016,0.44360775,0.55484986,1.1282301,0.66518915,0.22915831,0.27278766,0.9892273,0.9456563,0.6224286,0.3968179,1.2005572,0.32121474,0.78922224,-0.16394019,0.44169855,-0.6453457,0.10535943,-0.547481,-0.41055042,817.1429,813.5165,804.2491,821.1722,760.32965,-0.1846923828125,0.00286865234375,0.982666015625,3.93280029296875,-3.386993408203125,-0.186920166015625,1,1.0,1.0,1.0,1.0,40.00
2021-04-08 10:23:16.721,0.9792036,0.18801074,0.3817963,1.2106992,0.98076624,-0.011665548,0.03881888,1.2428365,1.0718808,0.37027806,0.32098156,1.2518107,0.46829906,0.79781765,-0.22758283,0.6199758,-0.51859057,0.09468042,-0.58031046,-0.31143048,817.1429,809.89014,807.0696,817.5458,679.7436,-0.18902587890625,-0.0064697265625,0.98651123046875,2.998199462890625,-3.850555419921875,1.487884521484375,1,1.0,1.0,1.0,1.0,40.00
2021-04-08 10:23:17.229,0.9136843,0.29513094,0.64993805,1.3098549,0.9513906,-0.07528058,0.18817759,1.3161048,1.1003642,0.16596712,0.37054652,1.2711316,0.43961394,0.79909486,-0.18187775,0.70109797,-0.47271556,0.071331136,-0.5695762,-0.22523361,797.3993,813.5165,802.23444,801.02563,630.18317,-0.18505859375,0.0120849609375,0.9842529296875,2.400054931640625,-8.635711669921875,5.8917236328125,1,1.0,1.0,1.0,1.0,40.00
2021-04-08 10:23:17.750,0.83968145,0.31688887,0.8952302,1.3411077,0.9025485,-0.233602,0.46851543,1.3019255,1.0963345,0.12707892,0.6310882,1.2603548,0.36213046,0.73911303,-0.16897672,0.6865219,-0.43150964,0.053043354,-0.5660182,-0.20685874,804.65204,796.5934,800.2198,805.4579,898.93774,-0.1805419921875,0.00146484375,0.993408203125,4.852447509765625,-4.493560791015625,3.342132568359375,1,1.0,1.0,1.0,1.0,40.00
2021-04-08 10:23:18.262,1.0028051,0.33240327,1.0798676,1.342829,0.633767,-0.22613648,0.66608727,0.6673554,0.833604,0.10926972,0.66603065,0.7701056,0.22648975,0.6936424,-0.1209803,0.27638757,-0.48678815,0.031088114,-0.5452757,-0.3819778,805.05493,821.978,802.6374,806.6667,732.9304,-0.17889404296875,0.00390625,0.98614501953125,4.568328857421875,-4.83001708984375,1.532745361328125,1,1.0,1.0,1.0,1.0,40.00
2021-04-08 10:23:18.772,1.1358474,0.33240327,1.0503409,0.922168,0.65649915,-0.22613648,0.69256306,0.3280279,0.8253905,0.10926972,0.6279714,0.5765864,0.15990336,0.6936424,-0.09649633,0.06608254,-0.502233,0.031088114,-0.52175206,-0.3933435,813.5165,811.9048,804.65204,799.81683,738.1685,-0.1854248046875,0.00152587890625,0.9844970703125,4.80010986328125,-4.957122802734375,1.256103515625,1,1.0,1.0,1.0,1.0,40.00
2021-04-08 10:23:19.289,1.094889,0.71066785,0.8913042,0.6488328,0.5909098,0.2556666,0.54105264,0.19329742,0.8253905,0.17498024,0.6122062,0.50369483,0.23458979,0.6951876,-0.07213155,0.04542864,-0.5730934,0.23600015,-0.5874639,-0.40140146,808.68134,800.2198,806.26373,805.05493,838.49817,-0.1715087890625,0.005615234375,0.984619140625,4.448699951171875,-4.725341796875,1.12152099609375,1,1.0,1.0,1.0,1.0,40.00
2021-04-08 10:23:19.798,0.8343199,0.58331203,0.6318224,0.23679152,0.41560936,0.27444404,0.26547807,0.14811273,0.7641064,0.18725082,0.047149315,0.54485637,0.16612792,0.7197299,-0.07144176,0.07657065,-0.61119586,0.22977594,-0.70075834,-0.34783116,806.6667,838.0952,805.8608,796.99634,834.4689,-0.1773681640625,0.01220703125,0.9873046875,5.031890869140625,-6.02630615234375,1.80938720703125,1,1.0,1.0,1.0,1.0,40.00
2021-04-08 10:23:20.303,0.21137778,0.59271437,0.4817288,-0.02367503,0.07907065,0.2445036,0.0030451464,0.020535866,0.3728537,0.20152485,0.2779026,0.42993382,0.16436668,0.7129521,-0.13380861,0.08725637,-0.6421304,0.22586532,-0.77481633,-0.37436068,758.315,782.49084,819.15753,779.67035,761.13556,-0.16845703125,0.009765625,0.9866943359375,3.686065673828125,-6.400146484375,0.28411865234375,1,1.0,1.0,1.0,1.0,40.00
2021-04-08 10:23:20.809,-0.044819985,0.5074172,0.7974834,0.45313248,7.956504E-4,0.2379935,0.3636511,0.2667673,0.31071413,0.08603809,0.48819798,0.755198,0.036972262,0.7227862,-0.10607989,0.15870933,-0.60376424,0.21996601,-0.73694205,-0.38442037,810.696,800.2198,801.4286,806.6667,792.96704,-0.13446044921875,0.0198974609375,0.99615478515625,6.512298583984375,-6.886138916015625,1.981353759765625,1,1.0,1.0,1.0,1.0,40.00
2021-04-08 10:23:21.323,1.2434582,0.53204995,0.9427762,0.70385987,1.0335561,0.067833595,0.4476709,0.53442264,1.0819281,-0.030319437,0.53381085,0.755198,0.23683733,0.68863213,0.008042131,0.23555423,-0.4212392,0.22394747,-0.54877543,-0.383576,799.011,834.4689,804.2491,794.9817,720.4396,-0.11810302734375,0.02008056640625,0.9951171875,3.970184326171875,-7.6263427734375,-0.5084228515625,1,1.0,1.0,1.0,1.0,40.00
2021-04-08 10:23:21.829,1.1788914,0.53204995,0.92103535,0.7470198,0.9376432,0.067833595,0.40228164,0.5627359,1.0819281,-0.030319437,0.52886105,0.7701545,0.25766513,0.68863213,-0.0012336505,0.2054852,-0.34807545,0.22394747,-0.55155516,-0.33292475,807.47253,803.44324,806.26373,803.44324,834.4689,-0.11480712890625,0.02081298828125,0.99615478515625,3.768310546875,-3.865509033203125,0.620574951171875,1,1.0,1.0,1.0,1.0,40.00
2021-04-08 10:23:22.349,1.0197668,0.53204995,0.759645,0.59393954,0.7637,0.067833595,0.1865996,0.4666338,1.0819281,-0.030319437,0.47048378,0.7995356,0.18196121,0.68863213,-0.040122308,0.13242267,-0.2755499,0.22394747,-0.49938536,-0.32594994,796.5934,792.5641,808.2784,799.41394,649.92676,-0.12054443359375,0.01910400390625,0.99249267578125,5.00946044921875,-3.93280029296875,1.45050048828125,1,1.0,1.0,1.0,1.0,40.00
2021-04-08 10:23:22.856,0.8245859,0.53204995,0.6841214,0.55955297,0.3961481,0.067833595,0.26400828,0.29153302,0.7663961,-0.030319437,0.3701211,0.63581663,0.13761173,0.68863213,-0.22639,0.029228149,-0.29102945,0.22394747,-0.5992285,-0.37850437,803.44324,806.6667,805.8608,802.23444,664.83514,-0.11865234375,0.024658203125,0.99273681640625,4.687957763671875,-4.882354736328125,1.413116455078125,1,1.0,1.0,1.0,1.0,40.00
2021-04-08 10:23:23.362,0.99182385,0.53204995,0.89367014,0.65085435,0.58650094,0.067833595,0.5474186,0.30112636,0.7663961,-0.030319437,0.5744172,0.63581663,0.10566219,0.68863213,-0.100750566,0.050670233,-0.21971464,0.22394747,-0.5201812,-0.41719377,811.0989,808.2784,810.696,804.65204,712.7839,-0.12322998046875,0.02154541015625,0.99755859375,4.32159423828125,-4.41131591796875,0.216827392578125,1,1.0,1.0,1.0,1.0,40.00
2021-04-08 10:23:23.879,0.9528358,0.53204995,1.0522399,1.1466117,0.81147236,0.067833595,0.6959869,0.8073638,0.8295589,-0.030319437,0.6148,0.9970434,0.33392736,0.68863213,0.014562161,0.23895155,-0.57091,0.22394747,-0.49949238,-0.42460895,807.0696,819.9634,804.2491,807.0696,757.1062,-0.123779296875,0.00323486328125,0.99481201171875,3.820648193359375,-4.127197265625,-0.0897216796875,1,1.0,1.0,1.0,1.0,40.00
2021-04-08 10:23:24.403,0.46467918,0.11773139,0.9251605,1.1405631,0.55057144,0.14878494,0.5655423,0.8610785,0.6165878,0.2923408,0.6148,0.9970434,0.28989348,0.77152157,0.06547157,0.37170684,-0.62277585,0.22995695,-0.42538455,-0.37152374,798.60803,808.2784,803.44324,796.1905,631.79486,-0.12750244140625,0.0086669921875,0.994384765625,4.583282470703125,-4.56085205078125,0.8673095703125,1,1.0,1.0,1.0,1.0,40.00
2021-04-08 10:23:24.933,0.30861,0.30221373,0.5859697,0.9172512,0.46406683,0.32271177,0.15496069,0.65319395,0.6205395,0.3819654,0.5393779,0.9970434,0.20158134,0.71498704,-0.06363286,0.32529813,-0.60717595,0.23466773,-0.5233385,-0.44545636,807.0696,818.3516,803.44324,802.6374,722.0513,-0.13677978515625,-0.00201416015625,0.990966796875,5.14404296875,-2.213134765625,-0.321502685546875,1,1.0,1.0,1.0,1.0,40.00
2021-04-08 10:23:25.454,-0.009750204,0.30221373,0.53688264,0.56174004,0.27367726,0.32271177,0.12792596,0.5081371,0.4258498,0.3819654,0.3809813,0.7547433,0.14150243,0.71498704,-0.08756412,0.27537856,-0.60798717,0.23466773,-0.6016092,-0.35050777,803.8461,816.7399,804.65204,796.99634,649.5238,-0.13226318359375,0.0191650390625,0.99658203125,5.585174560546875,-4.23187255859375,1.263580322265625,1,1.0,1.0,1.0,1.0,40.00
2021-04-08 10:23:25.983,0.52686733,0.431288,1.0482532,1.039301,0.5056162,0.44656426,0.6014346,0.79437655,0.81941956,0.33322513,0.7843439,0.7878271,0.123251915,0.64997596,-0.11879167,0.21654557,-0.5800218,0.23932795,-0.6221317,-0.38582882,809.89014,790.14655,802.23444,809.0842,779.2674,-0.13372802734375,0.02099609375,0.9945068359375,4.66552734375,-3.39447021484375,0.560760498046875,1,1.0,1.0,1.0,1.0,40.00
2021-04-08 10:23:26.486,1.0831242,0.431288,1.1396444,1.1655817,0.8347363,0.44656426,0.68988186,0.9036435,0.82921195,0.33322513,0.7843439,0.65481734,0.22586851,0.64997596,-0.06982367,0.18579055,-0.4852086,0.23932795,-0.5851864,-0.3353882,826.4103,841.31866,792.1612,810.696,860.2564,-0.131591796875,0.01898193359375,0.99444580078125,4.38140869140625,-4.478607177734375,0.43365478515625,1,1.0,1.0,1.0,1.0,40.00
2021-04-08 10:23:27.002,1.2348117,0.431288,1.1783152,1.214987,0.9321805,0.44656426,0.75100136,0.8889993,0.82921195,0.33322513,0.7859356,0.747514,0.059943907,0.64997596,-0.11361969,0.07042462,-0.35487327,0.23932795,-0.5687468,-0.4893262,812.3077,838.9011,803.8461,807.0696,747.03296,-0.13067626953125,0.01556396484375,0.99395751953125,4.50103759765625,-4.59075927734375,0.680389404296875,1,1.0,1.0,1.0,1.0,40.00
2021-04-08 10:23:27.504,0.950867,0.431288,0.87597364,0.7612521,0.61167717,0.44656426,0.55201447,0.54615927,0.80610377,0.33322513,0.5323804,0.7645735,-0.099404976,0.64997596,-0.07101077,0.064579286,-0.36003682,0.23932795,-0.6678183,-0.586062,801.4286,783.2967,805.05493,809.89014,882.4176,-0.1265869140625,0.0091552734375,0.9962158203125,4.2767333984375,-4.85992431640625,0.2392578125,1,1.0,1.0,1.0,1.0,40.00
2021-04-08 10:23:28.017,0.5789494,0.73785865,0.77782154,0.5698088,0.121630706,0.51225626,0.46638754,0.40108824,0.12844335,0.18075176,0.52226985,0.7552068,-0.14697307,0.7419626,-0.045378108,0.0024603086,-0.44176167,0.18981667,-0.6745932,-0.48039353,777.25275,771.2088,843.73627,822.381,600.3663,-0.1307373046875,0.019775390625,0.99273681640625,4.478607177734375,-5.196380615234375,1.62994384765625,1,1.0,1.0,1.0,1.0,45.00
2021-04-08 10:23:28.527,0.53306794,0.73785865,0.9762022,0.76959044,-0.047702175,0.51225626,0.5459956,0.5223595,-8.278095E-4,0.18075176,0.6038613,0.7646791,-0.10845945,0.7419626,-0.052436378,-0.029477604,-0.45477867,0.18981667,-0.6326553,-0.381568,799.81683,824.7985,801.8315,796.1905,774.43225,-0.12750244140625,0.01287841796875,0.98797607421875,4.149627685546875,-4.673004150390625,0.8074951171875,1,1.0,1.0,1.0,1.0,45.00
2021-04-08 10:23:29.036,0.6497538,0.7252503,1.1866403,1.0220035,0.0026129277,0.508027,0.598468,0.66187626,-0.14333305,0.13348421,0.48345494,0.75180537,0.0099948365,0.73063564,-0.08876793,0.12205779,-0.60977453,0.17639485,-0.60557216,-0.30248272,813.1135,813.5165,803.44324,806.26373,836.4835,-0.12408447265625,0.01123046875,0.990478515625,4.792633056640625,-4.88983154296875,0.88226318359375,1,1.0,1.0,1.0,1.0,45.00
2021-04-08 10:23:29.544,0.6523639,0.7252503,1.1817962,1.0618684,0.49439934,0.508027,0.57726645,0.7514204,0.7252906,0.13348421,0.4731895,0.760256,0.2840343,0.73063564,-0.21533655,0.20877817,-0.38714114,0.17639485,-0.60906386,-0.32104683,801.02563,817.9487,803.0403,806.6667,657.98535,-0.12835693359375,0.0079345703125,0.99285888671875,4.05242919921875,-4.59075927734375,0.366363525390625,1,1.0,1.0,1.0,1.0,45.00
2021-04-08 10:23:30.053,0.82488126,0.7252503,0.9806591,0.9409489,0.7007805,0.508027,0.42014387,0.6022968,0.7298466,0.13348421,0.5367918,0.760256,0.17129208,0.73063564,-0.1714587,0.26868233,-0.4063047,0.17639485,-0.6130269,-0.3331993,801.02563,812.71063,799.81683,807.47253,738.97437,-0.12506103515625,0.01153564453125,0.99212646484375,4.56085205078125,-5.78704833984375,1.188812255859375,1,1.0,1.0,1.0,1.0,45.00
2021-04-08 10:23:30.556,0.7388015,0.7252503,0.7474938,0.5962286,0.678703,0.508027,0.2983268,0.43044838,0.7298466,0.13348421,0.52245855,0.7068005,0.12431939,0.73063564,-0.17144574,0.2221217,-0.44176427,0.17639485,-0.6486498,-0.31084892,796.1905,807.47253,802.23444,805.4579,819.9634,-0.12506103515625,0.006591796875,0.99200439453125,4.463653564453125,-4.32159423828125,0.859832763671875,1,1.0,1.0,1.0,1.0,45.00
2021-04-08 10:23:31.074,0.64851254,-0.22172204,0.7588793,0.41497168,0.6273016,-0.29591766,0.31932983,0.16656813,0.66819626,0.08452155,0.52245855,0.45250496,0.13035068,0.55241287,-0.12286628,0.17691287,-0.48182464,0.364391,-0.7175506,-0.27790558,803.44324,827.2161,802.23444,808.2784,653.95605,-0.12347412109375,0.00634765625,0.9925537109375,4.94964599609375,-4.284210205078125,0.418701171875,1,1.0,1.0,1.0,1.0,45.00
2021-04-08 10:23:31.585,0.35262623,-0.08155641,0.5357369,0.53958446,0.36336604,-0.07053037,0.13360187,0.2658468,0.5023227,0.20878032,0.48505014,0.8606322,0.18756202,0.6465648,-0.18927304,0.14723761,-0.4771575,0.48566964,-0.7877935,-0.28785196,806.26373,790.54944,805.8608,807.8755,666.8498,-0.11785888671875,0.0133056640625,0.9951171875,4.9346923828125,-5.061798095703125,1.614990234375,1,1.0,1.0,1.0,1.0,45.00
2021-04-08 10:23:32.093,0.5035901,0.14098364,0.47665128,0.6012864,0.089989,0.063769735,0.10636754,0.25925815,0.43096885,0.2359535,0.10703084,0.9028595,0.18293197,0.670739,-0.17588897,0.103075996,-0.414699,0.3849665,-0.77034247,-0.31627098,792.96704,798.20514,804.65204,802.23444,785.7143,-0.10906982421875,0.01409912109375,0.99981689453125,4.53094482421875,-4.015045166015625,0.276641845703125,1,1.0,1.0,1.0,1.0,45.00
2021-04-08 10:23:32.604,0.76214397,0.4338482,0.67421,0.7990355,0.28754553,0.25281927,0.20304282,0.43424892,0.781876,0.25235116,0.11588627,0.90128434,0.09363617,0.7160331,-0.20998046,0.13292424,-0.37254512,0.34168944,-0.7021279,-0.33138064,805.05493,824.3956,806.26373,808.68134,765.9707,-0.117431640625,0.01312255859375,1.001220703125,4.717864990234375,-5.443115234375,1.443023681640625,1,1.0,1.0,1.0,1.0,45.00
2021-04-08 10:23:33.123,0.92520094,0.48195198,0.6370822,0.9208567,0.64439994,0.2158314,0.15191421,0.7184869,0.9313658,0.16491194,0.2546264,0.9095517,0.052333716,0.72555536,-0.19237372,0.210864,-0.4089641,0.22952794,-0.64650446,-0.44895244,811.0989,809.0842,807.47253,815.5311,837.28937,-0.11334228515625,0.011962890625,0.99871826171875,4.433746337890625,-5.99639892578125,1.248626708984375,1,1.0,1.0,1.0,1.0,45.00
2021-04-08 10:23:33.631,0.988875,0.38288012,0.48087,0.9114451,0.7848975,0.030345267,-0.03618626,0.7779381,0.9476735,0.14720443,0.24019378,0.9231872,0.0382426,0.74078596,-0.12117349,0.18634893,-0.5027542,0.24092375,-0.6056705,-0.29667723,804.65204,811.0989,801.4286,796.5934,762.74725,-0.074462890625,-0.02349853515625,0.99627685546875,3.529052734375,-8.411407470703125,5.525360107421875,1,1.0,1.0,1.0,1.0,45.00
2021-04-08 10:23:34.136,0.9947026,0.19339067,0.18144274,1.1321797,0.7898847,-0.17841953,-0.116539724,0.85692173,0.98328465,0.17326452,0.42286927,1.0597867,-0.050641775,0.7226743,-0.044899557,0.23615256,-0.67963946,0.21683633,-0.66047907,-0.27548867,792.1612,784.5055,790.9524,786.9231,561.685,-0.02374267578125,-0.0477294921875,1.0203857421875,0.097198486328125,-4.284210205078125,50.789947509765625,1,1.0,1.0,1.0,1.0,45.00
2021-04-08 10:23:34.643,1.1182786,0.6264243,0.8566207,1.3628674,0.9528211,0.37961695,0.68119955,1.1713191,1.1264124,0.31443092,0.72957796,1.3056332,0.009826907,0.68092006,0.07279009,0.26194817,-0.63320637,0.09550138,-0.62043995,-0.11881723,799.81683,811.9048,805.4579,799.011,754.2857,-0.13873291015625,0.019775390625,1.013671875,2.61688232421875,-7.917938232421875,28.7408447265625,1,1.0,1.0,1.0,1.0,45.00
2021-04-08 10:23:35.176,1.1900728,0.7472275,1.0838373,1.5923781,1.0138938,0.52801955,0.89724106,1.3728547,1.0958196,0.69082505,0.74248606,1.3128253,0.120208815,0.66384155,0.06121998,0.41306564,-0.39695737,0.10157074,-0.5787423,-0.13170132,806.6667,807.8755,801.8315,797.3993,602.7839,-0.106689453125,-0.05657958984375,1.03118896484375,-3.506622314453125,-9.3011474609375,20.635986328125,1,1.0,1.0,1.0,1.0,45.00
2021-04-08 10:23:35.691,1.1232986,0.69628805,1.0774913,1.4543446,0.9507386,0.5098992,0.8812037,1.2700711,1.094714,0.68612325,0.7379025,1.3073487,0.17533576,0.7583983,0.01651719,0.3951262,-0.29161745,0.082205415,-0.54753566,-0.14245097,714.7985,752.27106,832.8571,751.8681,843.3333,-0.01708984375,-0.0302734375,0.91693115234375,2.250518798828125,-7.125396728515625,21.42852783203125,1,1.0,1.0,1.0,1.0,45.00
2021-04-08 10:23:35.932,,,,,,,,,,,,,,,,,,,,,,,,,,,,,,,,,,,,,,/muse/elements/blink
2021-04-08 10:23:36.206,1.0223718,0.0584596,1.065164,1.392935,0.75115114,0.035178356,0.7439838,1.1582361,0.60884273,0.6262891,0.6340447,1.0565766,0.14331782,0.8191342,-0.030241342,0.39788213,-0.25118557,0.049758498,-0.45972735,-0.22627787,820.3663,813.91943,802.23444,823.1868,1035.9341,0.008056640625,-0.11517333984375,0.91351318359375,-21.735076904296875,-3.529052734375,17.12188720703125,1,1.0,1.0,1.0,1.0,45.00
2021-04-08 10:23:36.714,0.6130229,0.015360719,1.1133564,0.67046154,0.049710263,-0.063996635,0.69605637,0.4536344,0.11302634,0.50512475,0.70653737,0.47287068,0.010169975,0.81101185,-0.006652719,0.25290588,-0.4095007,0.01666661,-0.38842848,-0.1873931,788.5348,851.79486,794.9817,788.93774,733.3333,0.09112548828125,-0.382568359375,1.045166015625,7.289886474609375,-1.09161376953125,-7.4468994140625,1,1.0,1.0,1.0,1.0,45.00
2021-04-08 10:23:37.232,0.5581666,-0.02612113,1.08564,0.5168535,-0.07888759,-0.19132866,0.6766973,0.21302651,0.102409184,0.32920438,0.74862117,0.3843399,0.004476805,0.8065876,0.07294915,0.21946082,-0.4465279,0.012014568,-0.15754671,-0.17050955,796.1905,829.6337,795.78754,768.3883,710.7692,-0.13958740234375,-0.151123046875,1.1226806640625,26.5875244140625,2.99072265625,-10.1385498046875,1,1.0,1.0,1.0,1.0,45.00
2021-04-08 10:23:37.760,0.499689,-0.02612113,0.8514215,0.81273776,0.4121993,-0.19132866,0.4965886,0.49163178,0.6626527,0.32920438,0.7242329,0.836764,0.38949066,0.8065876,0.13710621,0.79659045,0.34097606,0.012014568,0.034348994,0.5775354,805.8608,810.293,798.60803,804.65204,722.0513,-0.16015625,0.146240234375,0.9844970703125,19.237823486328125,0.52337646484375,8.441314697265625,1,1.0,1.0,1.0,1.0,45.00
2021-04-08 10:23:38.263,0.367766,-0.02612113,0.012901949,0.7683018,0.45924273,-0.19132866,-0.27555376,0.69276565,0.6721688,0.32920438,0.33371526,1.0251707,0.4163446,0.8065876,0.09970208,0.5732207,0.2522615,0.012014568,0.02927376,0.27194434,802.6374,790.14655,805.8608,789.34064,500.43958,-0.1676025390625,0.2694091796875,0.9649658203125,34.22882080078125,-4.5159912109375,11.237640380859375,1,1.0,1.0,1.0,1.0,45.00
2021-04-08 10:23:38.770,0.36272874,0.30284756,0.092749424,0.6568344,0.4301257,0.19039574,-0.08737618,0.7083403,0.6241128,0.5309039,0.1082679,0.8273681,0.42112347,0.6992678,-0.0010338881,0.2764981,0.2746653,0.30107188,-0.09553336,0.0409952,811.0989,788.1319,799.81683,811.9048,881.6117,-0.1376953125,0.16937255859375,0.96685791015625,-9.787139892578125,-0.46356201171875,2.175750732421875,1,1.0,1.0,1.0,1.0,45.00
2021-04-08 10:23:39.277,0.6838135,0.5615233,0.18807743,0.6687085,0.3855402,0.27679363,0.013186279,0.5682146,0.59610415,0.74138105,-0.0039963345,0.77301997,0.41562077,0.7342992,-0.20786165,0.2915948,0.2794007,0.3535466,-0.5654082,0.03321259,796.99634,825.6044,805.4579,800.6227,767.1795,-0.17572021484375,0.0517578125,0.97845458984375,-1.203765869140625,-3.050537109375,-8.874969482421875,1,1.0,1.0,1.0,1.0,45.00
2021-04-08 10:23:39.786,0.7490843,0.5547782,0.12505761,0.54753804,0.23392259,0.23225205,0.04468227,0.34493688,0.52197355,0.74138105,0.030917712,0.50597435,0.31858972,0.7822401,-0.25516117,0.32110316,0.24843954,0.46565318,-0.56584567,0.045086022,799.81683,787.72894,801.02563,792.1612,443.62637,-0.22412109375,0.18560791015625,0.98046875,18.235931396484375,-4.59075927734375,0.785064697265625,1,1.0,1.0,1.0,1.0,45.00
2021-04-08 10:23:40.308,0.7730822,0.5775056,0.030348543,0.54640216,0.4523693,0.22278024,-0.11643864,0.29081312,1.1360619,0.71981996,0.11413057,0.60379815,0.6879376,0.83703023,-0.17054565,0.5893062,0.04228644,0.52487785,-0.48864254,0.10242083,812.71063,804.65204,805.4579,813.91943,695.4579,-0.16888427734375,0.06671142578125,0.9937744140625,4.127197265625,1.443023681640625,2.474822998046875,1,1.0,1.0,1.0,1.0,45.00
2021-04-08 10:23:40.835,0.587918,0.24992341,-0.24394374,0.6115678,0.51294225,-0.0018135605,-0.28014478,0.29423591,1.1360619,0.32761884,0.10040777,0.575781,0.7335833,0.8832026,-0.16188516,0.59992594,-0.093145385,0.6156055,-0.48157924,0.009849598,811.9048,823.9927,814.7253,813.1135,788.93774,-0.29290771484375,0.09307861328125,0.92816162109375,11.5142822265625,-12.807769775390625,3.54400634765625,1,1.0,1.0,1.0,1.0,45.00
2021-04-08 10:23:41.342,0.6373385,0.34549892,-0.39269707,0.75762147,0.5640766,0.5478841,-0.2116276,0.28814864,1.1360619,0.5291262,0.15601858,0.75741524,0.81009084,0.6612536,-0.12799811,0.61790246,-0.043507814,0.4097068,-0.534947,-0.0035294695,814.7253,810.696,805.4579,801.4286,948.49817,-0.2064208984375,0.12933349609375,0.98797607421875,1.51031494140625,-24.17999267578125,2.31781005859375,1,1.0,1.0,1.0,1.0,45.00
2021-04-08 10:23:41.871,0.844653,0.5500856,-0.38965452,0.8855922,0.043740172,0.64469624,-0.18485199,0.44624066,0.7514012,0.6860912,0.10501367,0.83296674,0.3755503,0.6026845,-0.10379231,0.44408163,-0.12513818,0.5127655,-0.555379,-0.14850776,813.1135,791.75824,801.4286,804.2491,496.00732,-0.02264404296875,-0.02178955078125,0.96160888671875,17.7947998046875,-15.843353271484375,13.256378173828125,1,1.0,1.0,1.0,1.0,45.00
2021-04-08 10:23:42.378,1.0304779,0.43128198,0.071460165,0.8799833,-0.010717168,0.5365922,-0.09037911,0.5187147,0.75166637,0.6860912,0.15731032,0.83296674,0.40596396,0.6118738,-0.039816126,0.46146595,-0.20851472,0.47070724,-0.5596661,-0.19703993,839.707,825.6044,799.011,831.2454,652.3443,0.04254150390625,0.17584228515625,1.18365478515625,2.654266357421875,-6.542205810546875,-36.14288330078125,1,1.0,1.0,1.0,1.0,45.00
2021-04-08 10:23:42.887,1.0304779,0.46855676,0.6888802,0.9437128,-0.010717168,0.5308342,0.12162359,0.7292403,0.75166637,0.68316567,0.18053965,0.74676096,0.40596396,0.5849053,-0.008911883,0.45971808,-0.20851472,0.49826893,-0.34900534,-0.14950578,804.65204,785.31134,812.3077,808.68134,767.5824,-0.0943603515625,0.11529541015625,0.96051025390625,9.4805908203125,4.568328857421875,-31.5521240234375,1,1.0,1.0,1.0,1.0,45.00
2021-04-08 10:23:43.416,1.1602029,3.508289E-4,0.8672585,0.85717756,-0.072995454,0.17480627,0.41465113,0.7722233,0.35951015,0.2695789,0.17133413,0.7261129,0.43438643,0.6296889,0.015333225,0.4633166,-0.31179467,0.37196153,-0.30417496,-0.15348764,815.12823,831.6484,801.8315,817.9487,790.54944,-0.07965087890625,0.177001953125,0.978759765625,0.201873779296875,-19.477081298828125,-30.37078857421875,1,1.0,1.0,1.0,1.0,45.00
2021-04-08 10:23:43.946,1.1602029,3.508289E-4,0.9603445,0.85717756,-0.072995454,0.17480627,0.52836263,0.7722233,0.35951015,0.2695789,0.46566126,0.7261129,0.43438643,0.6296889,0.009695345,0.4633166,-0.31179467,0.37196153,-0.23502028,-0.15348764,795.38464,799.81683,807.47253,810.696,819.15753,0.17266845703125,0.07208251953125,0.9854736328125,5.256195068359375,-8.56842041015625,-7.005767822265625,1,1.0,1.0,1.0,1.0,45.00
2021-04-08 10:23:44.450,1.7558709,3.508289E-4,0.7789466,0.85717756,1.3878881,0.17480627,0.48412135,0.7722233,1.1867343,0.2695789,0.49202782,0.7261129,0.5214674,0.6296889,-0.018756045,0.4633166,0.1108302,0.37196153,-0.33724323,-0.15348764,808.68134,788.1319,811.0989,808.2784,823.9927,0.00927734375,0.12371826171875,1.00421142578125,5.271148681640625,-10.714263916015625,-6.11602783203125,1,1.0,1.0,1.0,1.0,45.00
2021-04-08 10:23:44.950,,,,,,,,,,,,,,,,,,,,,,,,,,,,,,,,,,,,,,/muse/elements/blink
2021-04-08 10:23:44.970,1.6850288,3.508289E-4,0.49545598,0.85717756,1.3147023,0.17480627,0.19718343,0.7722233,1.1867343,0.2695789,0.49256033,0.7261129,0.48504758,0.6296889,-0.106589295,0.4633166,0.07021874,0.37196153,-0.37396088,-0.15348764,881.6117,821.978,798.60803,882.4176,772.4176,0.132080078125,0.092529296875,1.01177978515625,0.814971923828125,-10.101165771484375,1.667327880859375,1,1.0,1.0,1.0,1.0,45.00
2021-04-08 10:23:45.480,1.6393821,0.7959604,0.51401585,0.85717756,1.2296988,1.0314882,0.37469965,0.7722233,1.0672458,0.7406269,0.38017944,0.7261129,0.44797245,0.6856355,-0.09225268,0.4633166,0.012097463,0.009793099,-0.43631697,-0.15348764,799.81683,798.60803,810.696,797.8022,809.0842,0.17413330078125,0.044921875,0.99395751953125,-0.800018310546875,-6.9384765625,-1.233673095703125,1,1.0,1.0,1.0,1.0,45.00
2021-04-08 10:23:45.990,1.6393821,0.73255295,0.5306409,0.85717756,1.2296988,0.9374225,0.4115067,0.7722233,1.0672458,0.75050646,0.32804632,0.7261129,0.44797245,0.68069416,-0.09832575,0.4633166,0.012097463,0.1725694,-0.41532046,-0.15348764,809.4872,805.05493,799.011,809.4872,881.2088,0.18304443359375,-0.01007080078125,0.988525390625,2.332763671875,-5.824432373046875,4.18701171875,1,1.0,1.0,1.0,1.0,45.00
2021-04-08 10:23:46.525,1.6393821,0.76501,0.5537993,0.85717756,1.2296988,0.8098581,0.45303738,0.7722233,1.0672458,0.75050646,0.3856677,0.7261129,0.44797245,0.7073804,-0.10426432,0.4633166,0.012097463,0.1345083,-0.41499993,-0.15348764,808.68134,815.5311,796.1905,802.6374,662.8205,0.1810302734375,-0.00921630859375,0.98651123046875,6.17584228515625,-5.38330078125,1.21124267578125,1,1.0,1.0,1.0,1.0,45.00
2021-04-08 10:23:47.033,0.26321232,0.6917711,0.26289135,-0.13256758,0.21273787,0.34096798,0.16567285,0.13257016,0.6657596,0.41520002,0.35073844,0.400133,0.33087075,0.74628115,-0.2218776,0.16546065,-0.23659049,0.28423658,-0.44135618,-0.33709505,811.0989,803.0403,799.011,798.60803,660.0,0.25567626953125,-0.05499267578125,1.00885009765625,5.54779052734375,2.818756103515625,10.998382568359375,1,1.0,1.0,1.0,1.0,45.00
2021-04-08 10:23:47.373,,,,,,,,,,,,,,,,,,,,,,,,,,,,,,,,,,,,,,/muse/elements/blink
2021-04-08 10:23:47.546,0.29050946,0.7113757,0.27261335,-0.07610722,0.22100793,0.23396584,0.06166691,0.1295311,0.6700309,0.25266182,0.2662715,0.41933024,0.32181638,0.7754485,-0.25181547,0.18342642,-0.23208377,0.3025621,-0.48257604,-0.33294138,821.1722,829.6337,801.02563,808.68134,785.31134,-0.08660888671875,-0.06268310546875,0.9736328125,7.768402099609375,12.93487548828125,27.58941650390625,1,1.0,1.0,1.0,1.0,45.00
2021-04-08 10:23:47.956,,,,,,,,,,,,,,,,,,,,,,,,,,,,,,,,,,,,,,/muse/elements/blink
2021-04-08 10:23:48.052,0.36247998,0.6182841,0.37702638,0.035721682,0.32365254,0.29105532,0.010764613,0.11784476,0.6477647,0.15385276,0.21732199,0.19215302,0.38480052,0.7822172,-0.25843832,0.20999955,-0.23652038,0.40964064,-0.54920167,-0.29977292,830.4396,858.24176,796.1905,828.8278,721.2454,-0.32745361328125,-0.00653076171875,0.934814453125,-7.379608154296875,2.908477783203125,43.881378173828125,1,1.0,1.0,1.0,1.0,45.00
2021-04-08 10:23:48.582,0.41942695,0.6227808,0.321846,0.11761519,0.38975835,0.30240646,-0.1216278,0.15233554,0.6369861,0.1502471,0.19552568,0.14861968,0.32858622,0.78433686,-0.2260751,0.25521693,-0.21189378,0.4651036,-0.5361311,-0.2688171,778.46155,833.663,784.5055,747.8388,835.2747,-0.28045654296875,0.0411376953125,0.9705810546875,2.6019287109375,-12.381591796875,20.994873046875,1,1.0,1.0,1.0,1.0,45.00
2021-04-08 10:23:48.712,,,,,,,,,,,,,,,,,,,,,,,,,,,,,,,,,,,,,,/muse/elements/blink
2021-04-08 10:23:49.009,,,,,,,,,,,,,,,,,,,,,,,,,,,,,,,,,,,,,,/muse/elements/blink
2021-04-08 10:23:49.088,0.41942695,0.6227808,0.321846,0.11761519,0.38975835,0.30240646,-0.1216278,0.15233554,0.6369861,0.1502471,0.19552568,0.14861968,0.32858622,0.78433686,-0.2260751,0.25521693,-0.21189378,0.4651036,-0.5361311,-0.2688171,877.1795,813.5165,812.71063,876.77655,689.41394,-0.12432861328125,0.01483154296875,0.9951171875,10.45257568359375,-16.007843017578125,13.53302001953125,1,1.0,1.0,1.0,1.0,45.00
2021-04-08 10:23:49.604,0.41942695,0.6692001,1.0272954,0.11761519,0.38975835,0.18673769,0.25651798,0.15233554,0.6369861,0.3650499,0.33252627,0.14861968,0.32858622,0.60642767,-0.15563905,0.25521693,-0.21189378,0.5723604,-0.32494766,-0.2688171,531.8681,797.8022,799.81683,519.3773,789.34064,-0.0855712890625,0.111083984375,0.9981689453125,5.8319091796875,2.7813720703125,2.5421142578125,1,1.0,1.0,1.0,1.0,45.00
2021-04-08 10:23:49.704,,,,,,,,,,,,,,,,,,,,,,,,,,,,,,,,,,,,,,/muse/elements/blink
2021-04-08 10:23:50.125,0.41942695,0.6692001,1.0181706,0.11761519,0.38975835,0.18673769,0.54798925,0.15233554,0.6369861,0.3650499,0.35873348,0.14861968,0.32858622,0.60642767,-0.21552128,0.25521693,-0.21189378,0.5723604,-0.36638525,-0.2688171,816.337,815.9341,806.26373,813.91943,735.34796,-0.19049072265625,0.074462890625,0.97979736328125,1.79443359375,3.828125,1.921539306640625,1,2.0,1.0,1.0,2.0,45.00
2021-04-08 10:23:50.638,0.41942695,0.6692001,1.124254,0.11761519,0.38975835,0.18673769,0.6309662,0.15233554,0.6369861,0.3650499,0.365721,0.14861968,0.32858622,0.60642767,-0.14453667,0.25521693,-0.21189378,0.5723604,-0.30864275,-0.2688171,813.1135,846.1539,804.65204,816.7399,736.9597,-0.30206298828125,0.05023193359375,0.94036865234375,3.0206298828125,-4.493560791015625,-0.575714111328125,1,2.0,1.0,1.0,2.0,45.00
2021-04-08 10:23:51.141,0.41942695,0.6692001,0.97309065,0.11761519,0.38975835,0.18673769,0.5947904,0.15233554,0.6369861,0.3650499,0.068648584,0.14861968,0.32858622,0.60642767,-0.14034963,0.25521693,-0.21189378,0.5723604,-0.2975445,-0.2688171,808.68134,803.44324,802.6374,816.7399,843.3333,-0.0467529296875,0.11175537109375,1.0341796875,2.235565185546875,1.33087158203125,0.800018310546875,1,2.0,1.0,1.0,2.0,45.00
2021-04-08 10:23:51.646,0.9726161,0.6692001,0.6926414,0.11761519,0.27976438,0.18673769,0.21878494,0.15233554,0.7908229,0.3650499,0.13158621,0.14861968,0.023893159,0.60642767,-0.1418777,0.25521693,-0.024259266,0.5723604,-0.2880353,-0.2688171,809.0842,801.4286,809.89014,804.65204,732.52747,-0.24945068359375,0.06494140625,0.9710693359375,2.691650390625,1.7645263671875,2.086029052734375,1,1.0,1.0,1.0,1.0,45.00
2021-04-08 10:23:52.152,0.86636233,0.40284863,-0.17869602,1.07688,0.41135168,0.285741,-0.21156138,0.39138466,0.79625624,0.31493893,0.259612,0.5474687,0.23421466,0.60150677,-0.15422659,0.03348784,-0.094640166,0.31858787,-0.33233976,-0.30562586,763.5531,813.91943,807.8755,764.35895,675.31134,-0.2969970703125,0.06072998046875,0.95257568359375,3.476715087890625,1.31591796875,4.134674072265625,1,1.0,1.0,1.0,1.0,45.00
2021-04-08 10:23:52.671,0.92356175,0.45176068,-0.14818454,1.3023059,0.4567662,-0.0683513,-0.40132073,0.8102647,0.78543466,0.15934947,0.28350028,0.86621535,0.29065815,0.57411355,-0.05996258,0.29256758,-0.0748095,0.3756998,-0.4011637,-0.33053645,819.5604,773.6264,809.0842,817.1429,981.13556,-0.29437255859375,0.04400634765625,0.94952392578125,5.390777587890625,-8.127288818359375,-4.299163818359375,1,1.0,1.0,1.0,1.0,45.00
2021-04-08 10:23:53.192,,,,,,,,,,,,,,,,,,,,,,,,,,,,,,,,,,,,,,/muse/elements/blink
2021-04-08 10:23:53.193,0.5781076,0.3743515,-0.15628953,1.295856,0.5749423,-0.049397487,-0.36895055,0.878348,0.71435595,0.16224635,0.2960184,0.86621535,0.45738786,0.543061,0.05228143,0.3654561,-0.2544555,0.40990734,-0.4501601,-0.37095204,923.1135,842.9304,819.5604,923.1135,860.65936,-0.2320556640625,0.048828125,0.97003173828125,1.68975830078125,-28.411865234375,8.501129150390625,1,1.0,1.0,1.0,1.0,45.00
2021-04-08 10:23:53.703,0.5781076,0.3627509,0.4766166,1.3738143,0.5749423,-0.010492287,-0.15084228,0.9577309,0.71435595,0.3179362,0.29223254,0.86621535,0.45738786,0.5451113,0.043582506,0.42278543,-0.2544555,0.422106,-0.5254907,-0.39226362,801.8315,812.3077,798.20514,795.38464,743.4066,-0.10626220703125,0.0396728515625,0.9910888671875,4.0673828125,-4.71038818359375,-4.194488525390625,1,1.0,1.0,1.0,1.0,45.00
2021-04-08 10:23:54.210,0.5781076,0.21782364,0.72872055,1.3738143,0.5749423,0.02461912,0.11681726,0.9577309,0.71435595,0.30214038,0.4481655,0.86621535,0.45738786,0.51914907,0.053292073,0.42278543,-0.2544555,0.3808886,-0.54999584,-0.39226362,404.94507,722.0513,828.8278,405.75092,771.6117,-0.11993408203125,0.0513916015625,0.9957275390625,6.482391357421875,6.078643798828125,-0.478515625,1,1.0,1.0,1.0,1.0,45.00
2021-04-08 10:23:54.406,,,,,,,,,,,,,,,,,,,,,,,,,,,,,,,,,,,,,,/muse/elements/blink
2021-04-08 10:23:54.714,0.5781076,0.27235156,1.0475209,1.3738143,0.5749423,0.035766028,0.52865183,0.9577309,0.71435595,0.29103377,0.7103408,0.86621535,0.45738786,0.5465982,0.043376345,0.42278543,-0.2544555,0.32430372,-0.4302572,-0.39226362,799.011,811.0989,792.1612,774.43225,638.24176,-0.2071533203125,0.04302978515625,0.9869384765625,4.85992431640625,-3.887939453125,-1.06170654296875,1,1.0,1.0,1.0,1.0,45.00
2021-04-08 10:23:54.812,,,,,,,,,,,,,,,,,,,,,,,,,,,,,,,,,,,,,,/muse/elements/blink
2021-04-08 10:23:55.218,0.5781076,0.27294093,1.1054305,1.3738143,0.5749423,0.048083425,0.68441963,0.9577309,0.71435595,0.29103377,0.7243803,0.86621535,0.45738786,0.542806,0.14163332,0.42278543,-0.2544555,0.2216477,-0.1872292,-0.39226362,811.9048,800.2198,803.0403,813.91943,858.6447,-0.22412109375,0.04241943359375,0.9774169921875,5.166473388671875,-1.6748046875,1.3458251953125,1,2.0,1.0,1.0,2.0,45.00
2021-04-08 10:23:55.727,0.5781076,0.27294093,1.0240399,1.3738143,0.5749423,0.048083425,0.6397764,0.9577309,0.71435595,0.29103377,0.7066981,0.86621535,0.45738786,0.542806,0.11971699,0.42278543,-0.2544555,0.2216477,-0.13896285,-0.39226362,816.7399,809.0842,801.8315,821.5751,697.47253,-0.26092529296875,0.00750732421875,0.96466064453125,1.099090576171875,-0.366363525390625,-4.912261962890625,1,2.0,1.0,1.0,2.0,45.00
2021-04-08 10:23:56.138,,,,,,,,,,,,,,,,,,,,,,,,,,,,,,,,,,,,,,/muse/elements/blink
2021-04-08 10:23:56.239,0.5781076,0.055064764,0.73747015,1.3738143,0.5749423,-0.16858836,0.3815127,0.9577309,0.71435595,0.054381505,0.5692589,0.86621535,0.45738786,0.47609094,0.07751873,0.42278543,-0.2544555,0.28676832,-0.1942517,-0.39226362,785.31134,809.0842,799.011,796.1905,692.6374,-0.24176025390625,0.014892578125,0.978759765625,4.284210205078125,-3.96270751953125,2.332763671875,1,2.0,1.0,1.0,2.0,45.00
2021-04-08 10:23:56.755,0.5781076,0.055064764,0.44655633,1.3738143,0.5749423,-0.16858836,-0.029155675,0.9577309,0.71435595,0.054381505,0.19219089,0.86621535,0.45738786,0.47609094,-0.0019807657,0.42278543,-0.2544555,0.28676832,-0.42378357,-0.39226362,957.3626,817.1429,793.7729,955.7509,800.6227,-0.25531005859375,0.0028076171875,0.96533203125,3.8580322265625,-4.44122314453125,1.921539306640625,1,2.0,1.0,1.0,2.0,45.00
2021-04-08 10:23:56.839,,,,,,,,,,,,,,,,,,,,,,,,,,,,,,,,,,,,,,/muse/elements/blink
2021-04-08 10:23:57.266,0.5781076,0.055064764,0.97530895,1.3738143,0.5749423,-0.16858836,0.44037092,0.9577309,0.71435595,0.054381505,0.23907743,0.86621535,0.45738786,0.47609094,-0.1211509,0.42278543,-0.2544555,0.28676832,-0.47893897,-0.39226362,800.6227,816.7399,801.4286,809.4872,860.2564,-0.27874755859375,0.01434326171875,0.96966552734375,1.786956787109375,-2.385101318359375,-0.695343017578125,1,2.0,1.0,1.0,2.0,45.00
2021-04-08 10:23:57.788,0.5781076,0.055064764,1.0410026,1.3738143,0.5749423,-0.16858836,0.44846466,0.9577309,0.71435595,0.054381505,0.3019934,0.86621535,0.45738786,0.47609094,-0.2246631,0.42278543,-0.2544555,0.28676832,-0.4581644,-0.39226362,807.8755,823.1868,809.0842,801.4286,651.13556,-0.3115234375,-0.01239013671875,0.95556640625,4.344024658203125,-3.267364501953125,2.73651123046875,1,2.0,1.0,1.0,2.0,45.00
2021-04-08 10:23:58.316,0.5781076,0.8077208,1.0416601,1.3738143,0.5749423,0.83116764,0.47603408,0.9577309,0.71435595,0.42486215,0.26796934,0.86621535,0.45738786,0.49411815,-0.27159578,0.42278543,-0.2544555,0.21303557,-0.47448584,-0.39226362,794.57874,799.41394,800.2198,769.19415,745.82416,-0.298095703125,-0.00958251953125,0.9630126953125,5.136566162109375,-6.781463623046875,0.67291259765625,1,2.0,1.0,1.0,2.0,45.00
2021-04-08 10:23:58.819,1.1091403,0.778887,0.80612254,1.3738143,1.2396469,0.72072625,0.27529353,0.9577309,1.2774115,0.44491276,0.29141134,0.86621535,0.51238996,0.4885059,-0.06715786,0.42278543,-0.51363546,0.18336271,-0.4462083,-0.39226362,949.304,839.707,811.0989,931.1722,709.15753,-0.1865234375,0.0108642578125,0.97802734375,7.334747314453125,-23.065948486328125,-0.46356201171875,1,1.0,1.0,1.0,1.0,40.00
2021-04-08 10:23:58.852,,,,,,,,,,,,,,,,,,,,,,,,,,,,,,,,,,,,,,/muse/elements/blink
2021-04-08 10:23:59.325,1.1091403,0.72724646,0.655236,1.3738143,1.2396469,0.6379095,0.24831566,0.9577309,1.2774115,0.42512798,0.28791735,0.86621535,0.51238996,0.4863605,0.018997798,0.42278543,-0.51363546,0.17781883,-0.36889148,-0.39226362,552.4176,783.2967,804.65204,525.42126,698.68134,-0.15283203125,0.00970458984375,0.984375,4.246826171875,2.51220703125,2.130889892578125,1,1.0,1.0,1.0,1.0,40.00
2021-04-08 10:23:59.547,,,,,,,,,,,,,,,,,,,,,,,,,,,,,,,,,,,,,,/muse/elements/blink
2021-04-08 10:23:59.829,1.1446496,0.647655,0.56867665,1.3738143,1.2972246,0.4560038,0.22015896,0.9577309,1.2735821,0.36293137,0.22581056,0.86621535,0.55423796,0.5025192,0.057197556,0.42278543,-0.49109232,0.13187535,-0.31307542,-0.39226362,791.75824,819.15753,809.89014,748.6447,879.59705,-0.215576171875,8.544921875E-4,0.97393798828125,4.149627685546875,-1.084136962890625,-1.368255615234375,1,1.0,1.0,1.0,1.0,40.00
2021-04-08 10:24:00.331,1.1343454,0.47169548,0.40995812,1.3738143,1.3067795,0.22682627,0.22048192,0.9577309,1.2735821,0.17552347,0.11303588,0.86621535,0.57479465,0.5535462,0.026579147,0.42278543,-0.48659062,0.16791022,-0.31243646,-0.39226362,818.7546,805.05493,811.50183,836.4835,684.9817,-0.24578857421875,0.00982666015625,0.976806640625,3.4991455078125,-3.880462646484375,-0.829925537109375,1,1.0,1.0,1.0,1.0,40.00
2021-04-08 10:24:00.382,,,,,,,,,,,,,,,,,,,,,,,,,,,,,,,,,,,,,,/muse/elements/blink
