TimeStamp,Delta_TP9,Delta_AF7,Delta_AF8,Delta_TP10,Theta_TP9,Theta_AF7,Theta_AF8,Theta_TP10,Alpha_TP9,Alpha_AF7,Alpha_AF8,Alpha_TP10,Beta_TP9,Beta_AF7,Beta_AF8,Beta_TP10,Gamma_TP9,Gamma_AF7,Gamma_AF8,Gamma_TP10,RAW_TP9,RAW_AF7,RAW_AF8,RAW_TP10,AUX_RIGHT,Accelerometer_X,Accelerometer_Y,Accelerometer_Z,Gyro_X,Gyro_Y,Gyro_Z,HeadBandOn,HSI_TP9,HSI_AF7,HSI_AF8,HSI_TP10,Battery,Elements
2021-04-27 16:04:29.050,0.55304986,-0.04319828,0.4735064,0.45969784,0.61593896,0.18836688,0.20294061,0.6486478,0.6068816,0.58597,0.26067233,0.965403,0.91867685,1.28608,0.55589455,0.9716636,0.6037132,1.1990864,0.27676144,0.94168174,861.4652,820.7692,803.8461,810.696,806.6667,0.16888427734375,0.0045166015625,0.98486328125,4.26177978515625,-4.68048095703125,0.814971923828125,1,1.0,1.0,1.0,1.0,100.00
2021-04-27 16:04:29.555,0.5404034,-0.04319828,0.5649017,0.5130308,0.60301983,0.18836688,0.17877561,0.6656392,0.59466726,0.58597,0.4965749,0.965403,0.91781986,1.28608,0.64422244,0.9922862,0.5873647,1.1990864,0.25404027,0.94121164,687.8022,811.0989,807.8755,731.31866,719.2308,0.17742919921875,0.00726318359375,0.98370361328125,5.0244140625,-4.74029541015625,2.1533203125,1,1.0,1.0,1.0,1.0,100.00
2021-04-27 16:04:30.064,0.5404034,-0.12327929,0.67298484,0.5130308,0.60301983,0.23989815,0.20419797,0.6656392,0.59466726,0.5618302,0.57166946,0.965403,0.91781986,1.2742666,0.5977554,0.9922862,0.5873647,1.228585,0.2650911,0.94121164,641.8681,781.28204,795.78754,705.9341,706.7399,0.15948486328125,0.01251220703125,0.9837646484375,4.5458984375,-3.349609375,1.248626708984375,1,1.0,1.0,1.0,1.0,100.00
2021-04-27 16:04:30.575,0.5404034,-0.12327929,0.6504684,0.5130308,0.60301983,0.23989815,0.34941334,0.6656392,0.59466726,0.5618302,0.57166946,0.965403,0.91781986,1.2742666,0.5425425,0.9922862,0.5873647,1.228585,0.34233978,0.94121164,817.9487,804.2491,815.9341,784.5055,774.0293,0.160400390625,0.00494384765625,0.98748779296875,5.62255859375,-3.701019287109375,1.98883056640625,1,1.0,1.0,1.0,1.0,100.00
2021-04-27 16:04:31.081,0.62957776,-0.12327929,0.42674515,0.55541706,0.3940379,0.23989815,0.18953732,0.0048347977,0.9958096,0.5618302,0.43749368,0.792453,0.86824924,1.2742666,0.4583499,1.1517087,0.84928834,1.228585,0.39576414,0.98588187,908.60803,838.49817,841.7216,844.5421,828.4249,0.160400390625,0.00762939453125,0.98370361328125,4.11224365234375,-4.717864990234375,-2.22808837890625,1,1.0,1.0,1.0,1.0,100.00
2021-04-27 16:04:31.587,0.55016065,0.27578196,0.1338815,0.34107774,0.3836873,0.2667168,0.16970046,0.094176695,0.99652964,0.51398706,0.29625553,0.80957955,0.8588841,1.1786736,0.47193867,1.1174108,0.7287849,1.0706978,0.34950414,0.8221399,792.1612,800.2198,819.5604,809.0842,768.3883,0.1529541015625,0.0216064453125,0.9854736328125,5.06927490234375,-4.613189697265625,1.398162841796875,1,1.0,1.0,1.0,1.0,100.00
2021-04-27 16:04:32.089,0.44065177,0.27578196,0.10497125,0.26372698,0.34815684,0.2667168,0.024234409,0.13786446,0.98925036,0.51398706,0.28891602,0.7836605,0.87961644,1.1786736,0.49948868,1.1213391,0.6726898,1.0706978,0.22064465,0.73552346,839.304,809.0842,823.5897,791.75824,838.0952,0.16143798828125,0.023193359375,0.983642578125,4.44122314453125,-4.314117431640625,1.697235107421875,1,1.0,1.0,1.0,1.0,100.00
2021-04-27 16:04:32.603,0.14197011,0.27578196,0.1832208,0.12680684,0.18037084,0.2667168,0.014626308,0.11198771,0.8573319,0.51398706,0.4246431,0.6360297,0.9544062,1.1786736,0.48237693,1.100655,0.62490195,1.0706978,0.100370646,0.73130804,901.3553,865.09155,846.9597,834.87177,767.5824,0.15155029296875,0.02886962890625,0.988525390625,5.084228515625,-5.046844482421875,1.278533935546875,1,1.0,1.0,1.0,1.0,100.00
2021-04-27 16:04:33.108,0.29953608,-0.097453944,0.20676826,0.29684135,0.101226956,0.06242044,-0.008681416,0.14009878,0.9935735,0.57202023,0.8599014,0.7564057,0.9649304,1.2205102,0.6124609,1.0786769,0.68387,0.99247175,0.25054273,0.83176994,782.49084,808.2784,809.0842,778.46155,757.1062,0.15753173828125,0.02099609375,0.98272705078125,4.284210205078125,-3.790740966796875,-0.934600830078125,1,1.0,1.0,1.0,1.0,100.00
2021-04-27 16:04:33.626,0.4911628,-0.097453944,0.32939363,0.403908,9.522071E-4,0.06242044,0.21102738,0.2711649,1.0075443,0.57202023,0.8872295,0.77400863,0.99429184,1.2205102,0.62306136,1.0577673,0.66281486,0.99247175,0.22895867,0.8298087,621.31866,792.96704,789.34064,684.9817,643.8828,0.14801025390625,0.04473876953125,0.99114990234375,2.97576904296875,-4.77020263671875,0.059814453125,1,1.0,1.0,1.0,1.0,100.00
2021-04-27 16:04:34.136,0.55086803,0.10690089,0.37415436,0.43554923,0.04888291,0.28558093,0.2959803,0.37754154,1.0075443,0.72751725,0.874034,0.8064967,0.94711673,1.171604,0.58107036,1.0492982,0.6344569,0.94213426,0.20358092,0.78895885,910.6227,855.42126,850.18317,856.63007,767.98535,0.15234375,0.04150390625,0.98779296875,4.62066650390625,-4.94964599609375,2.100982666015625,1,1.0,1.0,1.0,1.0,100.00
2021-04-27 16:04:34.660,0.43657592,0.1650195,0.30788854,0.3667518,0.07187591,0.38848552,0.31685585,0.38903856,0.77052253,0.74647987,0.75964683,0.69506335,0.928932,1.1619021,0.45445248,1.0799487,0.6480823,0.9875797,0.16322668,0.78222203,915.4579,808.2784,827.619,859.0476,873.1502,0.1507568359375,0.048828125,0.9970703125,4.91973876953125,-4.089813232421875,0.0897216796875,1,1.0,1.0,1.0,1.0,100.00
2021-04-27 16:04:35.165,0.46412614,0.074590266,0.33918712,0.2691947,0.17108971,0.31014413,0.26397797,0.31370977,0.9249577,0.7868752,0.7972118,0.52555156,0.8950143,1.1604645,0.46000668,1.0855675,0.6362909,0.92650867,0.24298903,0.7640393,836.8865,846.1539,833.2601,817.1429,773.6264,0.13983154296875,0.04327392578125,0.99615478515625,4.224395751953125,-4.007568359375,1.667327880859375,1,1.0,1.0,1.0,1.0,100.00
2021-04-27 16:04:35.700,0.9859998,-0.3749742,0.8079866,0.81603646,0.6495615,0.045240346,0.59847504,0.5228076,1.2207187,0.72651225,1.2746776,1.2567981,0.9598816,1.1849318,0.7588631,1.139457,0.5504046,0.87108266,0.24282677,0.70687985,653.5531,789.7436,796.1905,721.6484,716.4103,0.137451171875,0.04815673828125,0.99462890625,2.88604736328125,-3.84307861328125,-0.426177978515625,1,1.0,1.0,1.0,1.0,100.00
2021-04-27 16:04:36.204,1.0121342,-0.3749742,0.8206771,0.82303077,0.6882173,0.045240346,0.6152181,0.5802157,1.2207187,0.72651225,1.2746776,1.2718332,0.95033646,1.1849318,0.73101586,1.0981501,0.5113845,0.87108266,0.1878173,0.6188115,672.8938,772.4176,787.326,714.7985,707.5458,0.146484375,0.03802490234375,0.98675537109375,4.882354736328125,-4.486083984375,1.83929443359375,1,1.0,1.0,1.0,1.0,100.00
2021-04-27 16:04:36.718,0.9857833,-0.3749742,0.7708309,0.76665616,0.6897166,0.045240346,0.6379755,0.5277393,1.2207187,0.72651225,1.2763699,1.2718332,0.90179,1.1849318,0.7271202,1.0496446,0.4958478,0.87108266,0.13331969,0.647132,865.89746,810.696,813.91943,809.4872,796.99634,0.14404296875,0.03509521484375,0.9908447265625,4.65057373046875,-4.1571044921875,1.1663818359375,1,1.0,1.0,1.0,1.0,100.00
2021-04-27 16:04:37.223,0.39559516,-0.21213567,0.34690654,0.15963411,0.35493183,-0.12886983,0.39079726,0.29362094,0.48671213,0.39923725,0.6588114,0.90951204,0.79899645,1.2508738,0.50000024,0.96073496,0.61718845,0.8635547,0.111457035,0.7959865,778.46155,770.40295,790.14655,759.92676,799.41394,0.147705078125,0.03582763671875,0.98345947265625,4.239349365234375,-4.583282470703125,0.620574951171875,1,1.0,1.0,1.0,1.0,100.00
2021-04-27 16:04:37.739,0.2832118,-0.2064296,0.4128908,0.1711906,0.24289633,-0.2263169,0.36562365,0.122100465,0.57971525,0.40339673,0.65228057,0.8178111,0.88183373,1.2276295,0.54895246,0.99073267,0.6383425,0.85891944,0.048302125,0.80940795,715.6044,823.1868,820.7692,738.5714,717.2161,0.142578125,0.03314208984375,0.99090576171875,4.68048095703125,-4.358978271484375,0.8673095703125,1,1.0,1.0,1.0,1.0,100.00
2021-04-27 16:04:38.257,0.050929986,-0.31976318,0.4698431,0.011356701,0.23361214,-0.2676273,0.22378755,0.003914364,0.5844953,0.3362107,0.3783679,0.80573326,0.9309558,1.2193937,0.4853027,1.0467325,0.7008502,0.8645393,0.12163688,0.88544613,634.21246,788.5348,794.57874,699.89014,711.5751,0.1334228515625,0.03472900390625,0.99249267578125,4.007568359375,-4.11224365234375,0.49346923828125,1,1.0,1.0,1.0,1.0,100.00
2021-04-27 16:04:38.768,-0.22507146,-0.111877985,0.26479843,-0.013377131,0.093770735,0.1754855,0.024695635,-0.21277407,0.5839105,0.7186377,0.48462492,0.19872056,0.88776344,1.1189667,0.36433214,1.0406798,0.65020365,0.8234891,0.12528326,0.8438424,801.8315,789.34064,807.47253,786.1172,848.97437,0.14208984375,0.03472900390625,0.99249267578125,3.90289306640625,-5.99639892578125,2.848663330078125,1,1.0,1.0,1.0,1.0,100.00
2021-04-27 16:04:39.278,-0.23740067,-0.118750066,0.046672415,-0.08425326,0.25376523,0.31520864,-0.041413195,-0.02207733,0.597806,0.752458,0.46149808,0.79437006,0.80855036,1.1093345,0.23662955,1.0292172,0.63663876,0.7923753,0.1413993,0.8655716,929.9634,854.21246,840.10986,861.8681,730.9158,0.158447265625,0.0306396484375,0.98394775390625,4.725341796875,-5.794525146484375,-1.136474609375,1,1.0,1.0,1.0,1.0,100.00
2021-04-27 16:04:39.786,0.17880166,-0.16665287,-0.16807619,-0.11350343,0.24646814,0.1650412,-0.0041367053,0.09171431,0.59875304,0.756161,0.5232599,0.8303507,0.7546171,1.1172018,0.32125348,0.9604257,0.5568353,0.82804644,0.059747178,0.7670249,818.3516,796.99634,802.23444,811.0989,780.87915,0.14727783203125,0.0418701171875,0.9873046875,4.702911376953125,-3.90289306640625,0.82244873046875,1,1.0,1.0,1.0,1.0,100.00
2021-04-27 16:04:40.298,0.3259039,-0.16590852,-0.08697091,0.21018216,0.18185306,-0.013153038,-0.054508995,0.16476886,0.73175895,0.5509905,0.35961494,0.8303507,0.86054844,1.1252666,0.41994932,0.9979751,0.4888924,0.8287511,0.014843613,0.69062835,634.61536,769.19415,787.72894,709.9634,752.674,0.14385986328125,0.04052734375,0.99310302734375,4.66552734375,-4.538421630859375,0.5084228515625,1,1.0,1.0,1.0,1.0,100.00
2021-04-27 16:04:40.804,0.41883504,-0.030379986,0.1365765,0.35596612,0.007198445,-0.15109722,0.048958644,0.21777068,0.71348053,0.5454906,0.4454123,0.72437024,0.85374665,1.1389388,0.49585018,0.98744047,0.48381254,0.8893244,-0.031189088,0.7233472,688.20514,826.8132,805.8608,707.1429,665.2381,0.14453125,0.03662109375,0.99298095703125,4.66552734375,-4.0972900390625,1.562652587890625,1,1.0,1.0,1.0,1.0,100.00
2021-04-27 16:04:41.320,0.37859944,-0.061584298,0.18165813,0.44905114,0.116980694,-0.0635661,0.07550658,0.2511394,0.69844866,0.4906263,0.43036303,0.5667793,0.8608879,1.1440614,0.5177854,0.96821225,0.47870946,0.86257994,-0.067604914,0.780043,789.34064,810.696,819.9634,801.02563,774.83514,0.13861083984375,0.04376220703125,0.99609375,4.08233642578125,-5.540313720703125,1.07666015625,1,1.0,1.0,1.0,1.0,100.00
2021-04-27 16:04:41.828,0.22322926,-0.123761676,0.14493577,0.40285578,0.16970934,-0.0993435,0.14485514,0.25611538,0.6296916,0.49406192,0.41521367,0.46351215,0.84030086,1.1629952,0.5198102,0.9735001,0.466962,0.78028584,-0.060701404,0.7494897,665.64105,781.685,793.36993,713.5897,704.7253,0.1298828125,0.04266357421875,0.99481201171875,4.822540283203125,-4.59075927734375,1.263580322265625,1,1.0,1.0,1.0,1.0,100.00
2021-04-27 16:04:42.341,0.10413671,-0.14839804,0.11662681,0.3829734,0.235037,-0.095065966,0.15028843,0.19272062,0.42431882,0.3297869,0.5303653,0.41853982,0.81878287,1.1538588,0.45905012,0.98406154,0.40109003,0.7514596,0.019597614,0.6622466,735.7509,819.15753,810.696,734.94507,701.50183,0.14178466796875,0.04705810546875,0.99151611328125,4.762725830078125,-5.7720947265625,2.213134765625,1,1.0,1.0,1.0,1.0,100.00
2021-04-27 16:04:42.849,-0.08155163,-0.072165124,0.68263984,0.33283165,0.110466115,-0.19290102,0.09004534,0.062491875,0.20837502,0.13733914,0.5582749,0.3942167,0.8370806,1.1764652,0.44531432,1.0927787,0.3285532,0.6879897,0.1480554,0.4565536,933.9927,817.5458,828.4249,861.4652,889.67035,0.15625,0.04522705078125,0.98931884765625,4.23187255859375,-5.764617919921875,-1.383209228515625,1,1.0,1.0,1.0,1.0,100.00
2021-04-27 16:04:43.358,-0.07027927,-0.0064291037,0.89513785,0.37638053,0.14527513,-0.15616417,0.40734035,-0.028778952,0.053817935,-0.028996458,0.5475178,0.06658483,0.81965643,1.1705354,0.43083718,1.1197141,0.3493054,0.7138877,0.17240569,0.41777584,842.1245,827.619,818.7546,815.5311,772.8205,0.15582275390625,0.03961181640625,0.98944091796875,4.02252197265625,-4.194488525390625,1.039276123046875,1,1.0,1.0,1.0,1.0,100.00
2021-04-27 16:04:43.869,-0.07027927,-0.0064291037,1.0311685,0.37638053,0.14527513,-0.15616417,0.4949986,-0.028778952,0.053817935,-0.028996458,0.60697544,0.06658483,0.81965643,1.1705354,0.50889415,1.1197141,0.3493054,0.7138877,0.09938517,0.41777584,650.32965,806.26373,815.12823,697.47253,665.2381,0.15386962890625,0.0517578125,0.99139404296875,4.538421630859375,-4.194488525390625,0.366363525390625,1,1.0,1.0,1.0,1.0,100.00
2021-04-27 16:04:44.378,-0.07027927,-0.0064291037,0.88608384,0.37638053,0.14527513,-0.15616417,0.49197456,-0.028778952,0.053817935,-0.028996458,0.51968557,0.06658483,0.81965643,1.1705354,0.4985873,1.1197141,0.3493054,0.7138877,0.03463133,0.41777584,669.67035,772.4176,785.7143,701.0989,751.06226,0.14910888671875,0.04522705078125,0.9891357421875,4.5159912109375,-5.48797607421875,0.2392578125,1,1.0,1.0,1.0,1.0,100.00
2021-04-27 16:04:44.882,0.46359643,-0.055416927,0.79816884,0.37638053,0.09809612,0.109927185,0.3084786,-0.028778952,0.41389945,0.43554413,0.4442615,0.06658483,0.7652853,1.085009,0.46282583,1.1197141,0.7355055,0.94593126,-0.005096805,0.41777584,839.304,824.3956,831.2454,817.5458,736.9597,0.15625,0.04412841796875,0.98883056640625,4.852447509765625,-4.2169189453125,1.016845703125,1,1.0,1.0,1.0,1.0,100.00
2021-04-27 16:04:45.405,0.29675943,-0.060105026,0.37181446,0.27874997,0.05931482,0.12016332,-0.04011254,0.10128765,0.43312165,0.43554413,0.38816178,0.36075866,0.7518879,1.0998561,0.39848977,0.9008351,0.81522024,0.959208,0.10245923,1.0385416,637.4359,819.9634,811.0989,697.47253,659.19415,0.14190673828125,0.04730224609375,0.99102783203125,3.372039794921875,-3.641204833984375,0.657958984375,1,1.0,1.0,1.0,1.0,100.00
2021-04-27 16:04:45.907,0.31543165,-0.18267442,0.37811914,0.20225021,0.07487238,0.18918413,-0.13447762,0.10677969,0.54445153,0.34299603,0.24202992,0.61369246,0.80638003,1.1080304,0.3085677,0.87131745,0.7886751,0.91356564,0.10736653,1.0199229,674.10254,776.4469,774.83514,703.5165,693.0403,0.14996337890625,0.05267333984375,0.9891357421875,5.061798095703125,-4.493560791015625,0.979461669921875,1,1.0,1.0,1.0,1.0,100.00
2021-04-27 16:04:46.417,0.26733527,-0.18267442,0.35102823,0.1988586,0.15166095,0.18918413,0.03597727,0.2225551,0.40865868,0.34299603,0.240216,0.5543052,0.8634591,1.1080304,0.2975196,0.9304319,0.729147,0.91356564,0.1372723,0.9343517,854.61536,825.6044,819.5604,806.6667,807.0696,0.14361572265625,0.0487060546875,0.98895263671875,5.7720947265625,-4.6954345703125,1.278533935546875,1,1.0,1.0,1.0,1.0,100.00
2021-04-27 16:04:46.936,0.3534531,-0.18267442,0.32069474,0.25842977,0.16278137,0.18918413,0.20089199,0.2371264,0.41284633,0.34299603,0.20701139,0.5341989,0.8654606,1.1080304,0.36205807,0.9315753,0.59403026,0.91356564,0.09277005,0.8032202,644.2857,807.8755,799.81683,710.7692,650.32965,0.14337158203125,0.04443359375,0.99359130859375,3.63372802734375,-4.3963623046875,0.2691650390625,1,1.0,1.0,1.0,1.0,100.00
2021-04-27 16:04:47.447,0.3105583,-0.18267442,0.19264065,0.30297196,0.18627976,0.18918413,0.2839558,0.27236143,0.34702694,0.34299603,0.29899472,0.43496692,0.8424632,1.1080304,0.3649231,0.9937125,0.48270684,0.91356564,0.06462668,0.74590343,881.6117,838.0952,825.6044,808.68134,724.0659,0.145751953125,0.04803466796875,0.9949951171875,4.673004150390625,-4.007568359375,1.607513427734375,1,1.0,1.0,1.0,1.0,100.00
2021-04-27 16:04:47.953,0.39530823,-0.18267442,0.3682259,0.3117016,0.09232324,0.18918413,0.3533542,0.16749714,0.3290211,0.34299603,0.35934645,0.42767927,0.7605075,1.1080304,0.33322614,0.97127426,0.47391,0.91356564,0.1305708,0.79540884,895.7143,803.0403,814.3223,852.1978,857.8388,0.14593505859375,0.0516357421875,0.9888916015625,4.553375244140625,-4.725341796875,0.4486083984375,1,1.0,1.0,1.0,1.0,100.00
2021-04-27 16:04:48.479,0.44103256,-0.18267442,0.4053903,0.28899673,0.08548578,0.18918413,0.25027677,0.17635404,0.30288142,0.34299603,0.35928014,0.4251519,0.73944765,1.1080304,0.27122885,1.0465361,0.48004615,0.91356564,0.11930306,0.8287041,683.36993,804.65204,809.4872,742.1978,866.7033,0.1529541015625,0.046630859375,0.98876953125,5.136566162109375,-5.24871826171875,1.31591796875,1,1.0,1.0,1.0,1.0,100.00
2021-04-27 16:04:49.008,0.29692206,-0.2371125,0.36125556,0.14277296,-0.20778912,-0.024083236,0.23559435,0.008349195,0.040851694,0.40013418,0.34370035,0.36567995,0.81187475,1.206777,0.334745,1.0167314,0.27026442,0.71194196,0.06759236,0.53630745,641.8681,803.8461,797.3993,694.2491,718.8278,0.15032958984375,0.0457763671875,0.99114990234375,4.4561767578125,-5.106658935546875,0.9869384765625,1,1.0,1.0,1.0,1.0,100.00
2021-04-27 16:04:49.535,0.1862268,-0.10214604,0.025790896,0.041933764,-0.27449796,0.0077954084,-0.0017399669,-0.046378568,0.13539974,0.4062806,0.34889635,0.38862476,0.7668168,1.1648899,0.40017357,0.96810615,0.35365734,0.6838853,-0.087157406,0.58554447,809.4872,796.1905,805.8608,773.6264,782.0879,0.148681640625,0.04541015625,0.99151611328125,4.822540283203125,-4.777679443359375,0.934600830078125,1,1.0,1.0,1.0,1.0,100.00
2021-04-27 16:04:50.036,0.120266676,-0.0889099,-0.13805036,-0.02984827,-0.09350353,0.015020252,-0.10911699,-0.10972286,0.37516853,0.4062806,0.299232,0.34880206,0.734339,1.1625559,0.4197508,0.9304611,0.31647304,0.66203344,-0.09100646,0.5887625,907.8022,849.3773,829.2308,845.7509,778.0586,0.146240234375,0.04742431640625,0.9891357421875,4.35150146484375,-5.420684814453125,0.904693603515625,1,1.0,1.0,1.0,1.0,100.00
2021-04-27 16:04:50.537,-0.025476083,0.1142367,0.091247134,0.016438795,0.19949041,0.2071415,0.27608612,0.097147405,0.3857663,0.5765091,0.35869578,0.40408856,0.7109669,1.0835516,0.4158446,0.9709051,0.36278632,0.62396085,-0.04268056,0.5999662,808.2784,779.67035,799.81683,811.0989,730.9158,0.14556884765625,0.052734375,0.9912109375,4.7552490234375,-3.7384033203125,1.89910888671875,1,1.0,1.0,1.0,1.0,100.00
2021-04-27 16:04:51.063,-0.04705915,0.07987693,0.06936502,0.14497261,0.24101937,0.210522,0.3356395,0.1644494,0.44672972,0.5803922,0.4904447,0.45890906,0.73695314,1.0759537,0.3813849,0.9998421,0.38414434,0.82782143,-0.0060029165,0.60517395,643.47986,783.2967,789.34064,712.381,789.34064,0.1480712890625,0.046875,0.99371337890625,3.865509033203125,-4.44122314453125,0.59814453125,1,1.0,1.0,1.0,1.0,100.00
2021-04-27 16:04:51.566,0.072980024,0.11403802,0.10332313,0.428193,0.32189107,0.28272814,0.38013592,0.3410328,0.64390695,0.5799495,0.6443101,0.5249435,0.7673845,1.0649601,0.35807678,1.0160474,0.45054725,0.8672856,-0.03273436,0.64415336,704.7253,782.0879,799.81683,713.9927,649.92676,0.14300537109375,0.03863525390625,0.99078369140625,4.844970703125,-4.314117431640625,1.5850830078125,1,1.0,1.0,1.0,1.0,100.00
2021-04-27 16:04:52.068,0.5017847,0.11403802,0.16069654,0.5523407,0.37070534,0.28272814,0.21286826,0.2325176,0.5590785,0.5799495,0.6895754,0.42773253,0.76088023,1.0649601,0.36412144,0.93820566,0.4827147,0.8672856,-0.03215416,0.6498745,906.1905,777.6557,803.8461,854.61536,909.81683,0.1527099609375,0.04974365234375,0.9932861328125,4.284210205078125,-4.08233642578125,1.084136962890625,1,1.0,1.0,1.0,1.0,100.00
2021-04-27 16:04:52.593,0.6019906,0.11403802,0.30192816,0.5536726,0.39801148,0.28272814,0.17162946,0.18986425,0.7740215,0.5799495,0.67111725,0.66966647,0.747775,1.0649601,0.38278797,0.9418158,0.4708393,0.8672856,-0.07550118,0.6071786,633.8095,789.34064,807.0696,700.696,736.55676,0.15191650390625,0.04827880859375,0.98687744140625,4.329071044921875,-4.508514404296875,1.084136962890625,1,1.0,1.0,1.0,1.0,100.00
2021-04-27 16:04:53.098,0.6010261,0.11403802,0.36324215,0.5255359,0.38943204,0.28272814,0.17452636,0.2182446,0.8445118,0.5799495,0.61360055,0.7012125,0.73671687,1.0649601,0.4437417,0.9398158,0.42145878,0.8672856,-0.07091397,0.5237147,699.89014,827.619,823.5897,705.9341,630.989,0.13720703125,0.04522705078125,0.99224853515625,4.0972900390625,-4.246826171875,1.256103515625,1,1.0,1.0,1.0,1.0,100.00
2021-04-27 16:04:53.612,0.37281725,0.11403802,0.31621048,0.46973076,0.26751083,0.28272814,0.063683994,0.24216133,0.8534827,0.5799495,0.4844862,0.70705724,0.75662106,1.0649601,0.4294197,0.92979115,0.42888525,0.8672856,-0.025857719,0.53597206,919.4872,796.5934,814.7253,850.58606,927.9487,0.1365966796875,0.0416259765625,0.9912109375,4.77020263671875,-4.403839111328125,1.428070068359375,1,1.0,1.0,1.0,1.0,100.00
2021-04-27 16:04:54.120,0.1463324,-0.2653942,0.19265027,0.14528102,0.32651296,-0.216963,0.033921182,0.30088913,0.8683572,0.33594796,0.47827548,0.6744569,0.8033042,1.1280653,0.43600944,0.92863345,0.5070053,0.672884,-0.010693096,0.62219614,783.2967,828.4249,821.5751,741.79486,829.6337,0.14544677734375,0.044921875,0.989013671875,4.433746337890625,-4.643096923828125,0.91217041015625,1,1.0,1.0,1.0,1.0,100.00
2021-04-27 16:04:54.625,0.052336812,-0.10693577,0.16591704,-0.058722384,0.31045812,-0.24514396,4.1232342E-4,0.112881415,0.77224684,0.41934645,0.38764447,0.48635778,0.82950896,1.116033,0.42284042,0.93898803,0.5387481,0.79640776,0.03040573,0.70418113,716.8132,810.293,819.15753,760.7326,670.07324,0.13336181640625,0.04510498046875,0.99444580078125,4.3365478515625,-4.044952392578125,1.55517578125,1,1.0,1.0,1.0,1.0,100.00
2021-04-27 16:04:55.138,-0.08658057,-0.10693577,0.37060645,-0.24745439,0.2934871,-0.24514396,-0.091147676,0.2187571,0.77478313,0.41934645,0.31061634,0.6576829,0.7753083,1.116033,0.4372094,0.96127033,0.48972756,0.79640776,0.02218418,0.68724024,669.2674,768.7912,791.75824,732.1245,751.06226,0.1427001953125,0.0504150390625,0.98834228515625,4.568328857421875,-5.674896240234375,1.248626708984375,1,1.0,1.0,1.0,1.0,100.00
2021-04-27 16:04:55.666,-0.015452925,-0.05573689,0.5009277,-0.14559112,0.23240729,-0.040147025,-0.050491024,0.2835256,0.6422263,0.47394383,0.16806465,0.7853099,0.7535319,1.1510234,0.39718664,1.0010678,0.5004001,0.9512098,0.023747956,0.7263957,794.9817,817.1429,817.9487,773.6264,740.18317,0.15838623046875,0.0396728515625,0.985595703125,3.9776611328125,-4.59075927734375,-1.07666015625,1,1.0,1.0,1.0,1.0,100.00
2021-04-27 16:04:56.196,0.03174378,-0.055494223,0.46366167,-0.06303761,0.13956304,0.24143375,-0.15586601,0.46893996,0.63439035,0.5832528,0.16457674,0.77117395,0.7299961,1.1680863,0.36581936,0.9947243,0.522981,0.85059583,-0.015353745,0.7468266,933.5897,810.293,832.8571,868.315,892.8938,0.13970947265625,0.0419921875,0.98614501953125,4.20196533203125,-3.955230712890625,1.248626708984375,1,1.0,1.0,1.0,1.0,100.00
2021-04-27 16:04:56.723,0.009564218,-0.066911064,0.13744886,0.06817205,0.0894425,0.16167563,0.1456118,0.32721114,0.6323439,0.5832528,0.44507918,0.7047085,0.7856099,1.1238313,0.41148445,0.9903351,0.5742293,0.8197975,-0.031864993,0.7761563,897.326,830.0366,816.7399,819.9634,763.1502,0.1416015625,0.0372314453125,0.9908447265625,4.089813232421875,-5.00946044921875,1.472930908203125,1,1.0,1.0,1.0,1.0,100.00
2021-04-27 16:04:57.248,0.031257506,0.01165502,-0.10030955,-0.11186577,0.26331016,0.10046225,0.30124122,0.2176133,0.43681654,0.5339134,0.47354448,0.59275997,0.7171139,1.089388,0.39656326,0.99010205,0.4628724,0.7531767,-0.04594599,0.69926244,636.63007,817.5458,807.0696,697.8755,632.6007,0.13958740234375,0.0440673828125,0.991455078125,4.65057373046875,-4.41131591796875,0.61309814453125,1,1.0,1.0,1.0,1.0,100.00
2021-04-27 16:04:57.758,0.10814489,0.048563834,0.025455203,0.013256773,0.33850577,-0.026781922,0.3221128,0.06811936,0.43015066,0.35686916,0.4628012,0.68210596,0.70903045,1.0237601,0.39944172,0.99589634,0.37530574,0.7213852,-0.022438042,0.63867176,737.3626,798.20514,799.41394,765.9707,768.3883,0.13726806640625,0.0419921875,0.99072265625,5.084228515625,-4.9346923828125,1.203765869140625,1,1.0,1.0,1.0,1.0,100.00
2021-04-27 16:04:58.264,0.28699142,0.32453412,0.23234585,0.17907797,0.32535565,-0.109807074,0.10591368,0.020593593,0.43597823,0.37505716,0.45412266,0.62653714,0.7232455,0.9903535,0.33349884,0.9536409,0.31137353,0.75959176,0.0014004982,0.5800588,642.27106,813.1135,817.9487,695.05493,682.5641,0.14874267578125,0.04583740234375,0.98858642578125,4.239349365234375,-6.0711669921875,-1.57012939453125,1,1.0,1.0,1.0,1.0,100.00
2021-04-27 16:04:58.777,0.24176729,0.26286396,0.39266607,0.34111595,0.09563884,-0.070555,-0.23385753,0.09266033,0.52869654,0.5728788,0.23622935,0.7049141,0.73547584,0.9626473,0.34729898,0.90704954,0.4275145,0.83575886,0.060818225,0.5754822,902.5641,809.0842,818.3516,857.8388,780.07324,0.14105224609375,0.04949951171875,0.99322509765625,4.867401123046875,-4.0374755859375,1.233673095703125,1,1.0,1.0,1.0,1.0,100.00
2021-04-27 16:04:59.304,0.33267674,0.23337077,0.40695697,0.33655253,0.31608424,0.016746841,-0.16654569,0.33369642,0.6434214,0.6397172,0.10829364,0.75940084,0.7537577,1.0186391,0.33388248,0.89795506,0.46254122,0.8089015,0.026738789,0.5471807,774.43225,739.3773,788.5348,815.9341,988.7912,0.1407470703125,0.04632568359375,0.98443603515625,5.345916748046875,-5.301055908203125,-0.5682373046875,1,1.0,1.0,1.0,1.0,100.00
2021-04-27 16:04:59.818,0.3897185,0.02870297,0.19859625,0.16565028,0.41379943,0.088260055,0.11287369,0.3348024,0.6410326,0.7182798,0.3538785,0.7363403,0.7256311,1.0396807,0.25106236,0.9307993,0.47598776,0.74575484,-0.061407175,0.636662,827.2161,838.0952,830.0366,803.44324,722.8571,0.11029052734375,0.07098388671875,0.990966796875,6.706695556640625,-5.15899658203125,4.882354736328125,1,1.0,1.0,1.0,1.0,100.00
2021-04-27 16:05:00.340,0.4703898,0.004540873,-0.093218744,0.10330591,0.4303738,0.025006033,0.08513285,0.2658831,0.65492004,0.6369387,0.306488,0.7464292,0.73109114,1.0528362,0.23568253,0.90219665,0.48629442,0.73385435,-0.10670839,0.71895355,676.52014,784.10254,799.011,734.5421,786.9231,0.10968017578125,0.06304931640625,0.99566650390625,4.224395751953125,-3.745880126953125,0.657958984375,1,1.0,1.0,1.0,1.0,100.00
2021-04-27 16:05:00.855,0.37255055,-0.047807246,-0.06826765,0.066747144,0.22564636,-0.15217005,0.0138474535,0.09784037,0.5174038,0.5395199,0.31759042,0.68559474,0.6646878,1.0613363,0.2318423,0.89379126,0.43882954,0.75092643,-0.09191133,0.7506505,682.1612,802.23444,817.5458,724.0659,786.52014,0.10498046875,0.067138671875,0.9932861328125,4.373931884765625,-5.076751708984375,1.7645263671875,1,1.0,1.0,1.0,1.0,100.00
2021-04-27 16:05:01.373,0.28262866,-0.04208253,0.20067246,0.14789726,0.049740493,-0.22163317,0.1591195,0.102782466,0.42079392,0.43527743,0.36976126,0.59316635,0.6905634,1.0824326,0.2911949,0.88478833,0.30901346,0.69772774,-0.08047959,0.6699976,844.94507,828.8278,816.7399,793.36993,793.7729,0.11029052734375,0.0645751953125,0.9921875,4.897308349609375,-5.2337646484375,2.13836669921875,1,1.0,1.0,1.0,1.0,100.00
2021-04-27 16:05:01.901,0.23303081,-0.023848921,0.27426922,0.15365575,0.052184995,-0.30134404,0.247878,0.09582145,0.42312953,0.5059015,0.39588594,0.43329602,0.707004,1.0888047,0.31418306,0.92290026,0.36495927,0.7286612,-0.052760098,0.62198836,912.23444,812.3077,830.0366,860.65936,815.12823,0.11688232421875,0.0648193359375,0.99432373046875,4.44122314453125,-4.77020263671875,2.280426025390625,1,1.0,1.0,1.0,1.0,100.00
2021-04-27 16:05:02.406,0.27792662,-0.1179029,0.33967653,0.19696784,-0.08007979,-0.2738008,0.26171604,0.18625699,0.27749613,0.5059015,0.4032221,0.41272414,0.7354431,1.0441089,0.33627832,0.91289246,0.46759212,0.7380652,-0.075765885,0.562814,754.2857,808.68134,801.8315,761.53845,686.5934,0.1099853515625,0.04901123046875,0.99530029296875,3.648681640625,-4.5458984375,0.538330078125,1,1.0,1.0,1.0,1.0,100.00
2021-04-27 16:05:02.915,0.24367319,-0.15285344,0.26561907,-0.02724604,0.11424158,-0.23925008,0.015775925,0.27213237,0.46729317,0.31847587,0.37504226,0.65109426,0.6785176,1.02537,0.42317563,0.9394908,0.4984221,0.79966074,-0.02277654,0.5726734,646.30035,799.81683,801.8315,721.2454,674.5055,0.12139892578125,0.0546875,0.9935302734375,4.605712890625,-5.301055908203125,1.308441162109375,1,1.0,1.0,1.0,1.0,100.00
2021-04-27 16:05:03.420,0.17378841,-0.011615503,0.230778,-0.039121926,0.19183743,0.039935336,-0.16054142,0.32983968,0.47858948,0.34090894,0.4138815,0.7424893,0.69083816,1.0453146,0.41926435,0.921208,0.45373008,0.68092406,-0.029229281,0.4927787,753.47986,801.4286,807.8755,743.8095,737.3626,0.11175537109375,0.044677734375,0.99395751953125,4.77020263671875,-6.7291259765625,0.979461669921875,1,1.0,1.0,1.0,1.0,100.00
2021-04-27 16:05:03.941,0.26538843,0.10979887,0.023676733,0.15253115,0.17171791,0.12057292,-0.0800562,0.3491133,0.48369446,0.38814637,0.43101123,0.7518954,0.7342388,1.0787781,0.3611265,0.911201,0.45153046,0.5969356,-0.029469455,0.63208437,898.5348,843.3333,835.6777,828.4249,792.96704,0.10858154296875,0.0450439453125,0.99249267578125,4.5758056640625,-4.000091552734375,1.009368896484375,1,1.0,1.0,1.0,1.0,100.00
2021-04-27 16:05:04.470,0.24072851,0.10022252,-0.033871874,0.33117607,0.07302637,0.05582389,0.112341575,0.29044503,0.43526056,0.5293301,0.41470733,0.7518954,0.7768085,0.99507505,0.1914652,0.8801413,0.5109801,0.71402854,0.0070967614,0.7081703,753.0769,763.1502,850.18317,759.12085,821.5751,0.11822509765625,0.05035400390625,0.99932861328125,5.001983642578125,-3.880462646484375,2.332763671875,1,1.0,1.0,1.0,1.0,100.00
2021-04-27 16:05:05.000,0.31908807,0.062793836,0.5215247,0.41690513,-0.1221513,-0.071493536,0.32072657,0.19165635,0.35317788,0.51561797,0.5861747,0.5990578,0.78857917,0.905986,0.19675587,0.869089,0.54806036,0.80124784,0.06169675,0.7813015,693.0403,792.5641,807.0696,743.4066,661.6117,0.11785888671875,0.05224609375,1.0010986328125,4.628143310546875,-5.106658935546875,0.800018310546875,1,1.0,1.0,1.0,1.0,100.00
2021-04-27 16:05:05.502,0.13738632,0.107389696,0.67590487,0.43608484,0.050597575,-0.112227105,0.3867248,0.074974425,0.23780657,0.46679536,0.5587663,0.4902268,0.74182755,0.8341389,0.23884434,0.835267,0.5696703,0.8410115,0.10515918,0.7656714,659.59705,801.4286,794.9817,706.7399,684.57874,0.1229248046875,0.0567626953125,0.99261474609375,4.433746337890625,-4.88983154296875,0.426177978515625,1,1.0,1.0,1.0,1.0,100.00
2021-04-27 16:05:06.009,0.113454595,0.107389696,0.96189415,0.4766129,0.08598839,-0.112227105,0.3768876,0.062147465,0.09143983,0.46679536,0.5471133,0.34097677,0.6968438,0.8341389,0.35439783,0.802353,0.57648796,0.8410115,0.047276158,0.7776542,842.52747,796.99634,810.293,805.8608,828.8278,0.13262939453125,0.06353759765625,0.98931884765625,5.72723388671875,-5.443115234375,2.773895263671875,1,1.0,1.0,1.0,1.0,100.00
2021-04-27 16:05:06.518,0.113454595,0.107389696,0.6150662,0.4766129,0.08598839,-0.112227105,0.054981306,0.062147465,0.09143983,0.46679536,0.25491157,0.34097677,0.6968438,0.8341389,0.271609,0.802353,0.57648796,0.8410115,-0.027745694,0.7776542,916.6667,824.7985,824.7985,853.00366,794.9817,0.156982421875,0.0579833984375,0.98211669921875,4.90478515625,-6.280517578125,1.966400146484375,1,1.0,1.0,1.0,1.0,100.00
2021-04-27 16:05:07.027,0.113454595,0.107389696,0.6622129,0.4766129,0.08598839,-0.112227105,0.26684132,0.062147465,0.09143983,0.46679536,0.33985388,0.34097677,0.6968438,0.8341389,0.26319593,0.802353,0.57648796,0.8410115,0.004898929,0.7776542,817.5458,801.4286,801.8315,807.8755,759.5238,0.12530517578125,0.03173828125,0.98388671875,0.59814453125,5.9814453125,-0.620574951171875,1,1.0,1.0,1.0,1.0,100.00
2021-04-27 16:05:07.539,0.113454595,0.107389696,0.8883573,0.4766129,0.08598839,-0.112227105,0.4342659,0.062147465,0.09143983,0.46679536,0.3879196,0.34097677,0.6968438,0.8341389,0.25704017,0.802353,0.57648796,0.8410115,0.011630024,0.7776542,667.6557,737.76556,778.46155,755.09155,1010.9524,0.15228271484375,-0.0037841796875,0.9896240234375,4.329071044921875,-9.64508056640625,2.1832275390625,1,2.0,1.0,1.0,2.0,100.00
2021-04-27 16:05:08.058,0.113454595,0.107389696,0.8955557,0.4766129,0.08598839,-0.112227105,0.477359,0.062147465,0.09143983,0.46679536,0.45584974,0.34097677,0.6968438,0.8341389,0.25181922,0.802353,0.57648796,0.8410115,0.009814125,0.7776542,895.31134,839.707,830.0366,839.304,819.5604,0.1177978515625,0.029052734375,0.9949951171875,7.245025634765625,-1.9140625,0.10467529296875,1,2.0,1.0,1.0,2.0,100.00
2021-04-27 16:05:08.580,0.113454595,0.107389696,0.9200654,0.4766129,0.08598839,-0.112227105,0.3777615,0.062147465,0.09143983,0.46679536,0.46164295,0.34097677,0.6968438,0.8341389,0.33052152,0.802353,0.57648796,0.8410115,-3.1450822E-4,0.7776542,879.19415,811.0989,812.3077,831.6484,801.8315,0.1065673828125,0.0390625,0.998779296875,5.749664306640625,-4.164581298828125,2.340240478515625,1,2.0,1.0,1.0,2.0,100.00
2021-04-27 16:05:09.086,1.4759755,0.107389696,0.5347457,0.4766129,1.2814143,-0.112227105,0.17738418,0.062147465,1.036158,0.46679536,0.4393018,0.34097677,0.8074471,0.8341389,0.33626434,0.802353,0.38001335,0.8410115,-0.0039208313,0.7776542,953.3333,793.36993,850.989,937.619,786.1172,0.06451416015625,0.0244140625,0.9996337890625,6.003875732421875,-5.96649169921875,6.3702392578125,1,1.0,1.0,1.0,1.0,100.00
2021-04-27 16:05:09.597,1.4759755,0.107389696,0.9182499,0.4766129,1.2814143,-0.112227105,0.33065546,0.062147465,1.036158,0.46679536,0.2912794,0.34097677,0.8074471,0.8341389,0.42157513,0.802353,0.38001335,0.8410115,0.0459002,0.7776542,700.293,820.7692,805.8608,742.6007,616.8865,0.10772705078125,0.07366943359375,0.99810791015625,6.646881103515625,-5.09918212890625,1.682281494140625,1,1.0,1.0,1.0,1.0,100.00
2021-04-27 16:05:10.102,1.5076048,0.107389696,0.9701122,0.4766129,1.3086345,-0.112227105,0.40275118,0.062147465,1.0318784,0.46679536,0.1345741,0.34097677,0.799325,0.8341389,0.31073833,0.802353,0.36874318,0.8410115,-0.004031904,0.7776542,658.3883,778.46155,790.14655,709.9634,745.42126,0.11328125,0.10064697265625,0.99578857421875,6.1309814453125,-4.987030029296875,1.084136962890625,1,1.0,1.0,1.0,1.0,100.00
2021-04-27 16:05:10.622,1.5126362,0.107389696,0.7524277,0.4766129,1.2883507,-0.112227105,0.21737006,0.062147465,0.97927606,0.46679536,0.22567523,0.34097677,0.77484703,0.8341389,0.40037835,0.802353,0.33267668,0.8410115,0.01809481,0.7776542,894.90845,830.4396,821.978,844.5421,787.326,0.1055908203125,0.09222412109375,0.9927978515625,2.504730224609375,-7.596435546875,2.415008544921875,1,1.0,1.0,1.0,1.0,100.00
2021-04-27 16:05:11.123,0.60439,0.27684343,0.7443602,0.4766129,0.424366,0.30195215,0.13568363,0.062147465,0.66743475,0.66273636,0.40653142,0.34097677,0.93212724,1.0235089,0.3546128,0.802353,0.22387098,0.695915,0.012308671,0.7776542,706.7399,872.3443,764.35895,700.293,606.4103,0.12982177734375,0.07684326171875,0.99224853515625,4.08233642578125,-7.185211181640625,-0.650482177734375,1,1.0,1.0,1.0,1.0,100.00
2021-04-27 16:05:11.639,0.60439,0.27684343,0.6472774,1.1517717,0.424366,0.30195215,0.008558461,0.9665273,0.66743475,0.66273636,0.3897372,0.622972,0.93212724,1.0235089,0.37798968,1.0837307,0.22387098,0.695915,0.028389351,0.7491599,666.8498,775.64105,791.75824,717.2161,799.41394,0.18060302734375,0.08404541015625,0.98602294921875,3.760833740234375,-5.802001953125,-1.099090576171875,1,1.0,1.0,1.0,1.0,100.00
2021-04-27 16:05:12.144,0.46099716,0.32306647,0.88303244,1.0645137,0.3919851,0.28432712,0.15961982,0.9142959,0.6266915,0.6464057,0.3897372,0.76250815,0.97699153,1.0330983,0.23014145,0.99795836,0.21148898,0.6505629,0.013013239,0.7510592,796.99634,799.41394,805.8608,778.0586,824.3956,0.1949462890625,0.0809326171875,0.984375,3.93280029296875,-4.97955322265625,0.25421142578125,1,1.0,1.0,1.0,1.0,100.00
2021-04-27 16:05:12.647,0.110527016,0.32306647,0.023317583,0.93915266,0.16992624,0.28432712,0.22713114,0.8095756,0.37058732,0.6464057,0.49876788,0.95237905,0.63625777,1.0330983,0.22931851,0.91166174,0.5882382,0.6505629,0.018241405,0.8174553,931.5751,805.8608,827.619,855.0183,799.41394,0.19873046875,0.06915283203125,0.97906494140625,3.222503662109375,-4.314117431640625,-0.246734619140625,1,1.0,1.0,1.0,1.0,100.00
2021-04-27 16:05:13.148,0.29817444,0.32306647,0.6218777,0.82471275,0.66968095,0.28432712,0.5197573,0.60670817,1.1125287,0.6464057,0.5393669,1.2029846,0.6610375,1.0330983,0.2781499,0.85810167,0.52506024,0.6505629,0.009222185,0.7414056,819.15753,785.31134,802.6374,800.2198,920.293,0.1951904296875,0.079833984375,0.97979736328125,5.4730224609375,-2.3626708984375,2.803802490234375,1,1.0,1.0,1.0,1.0,100.00
2021-04-27 16:05:13.662,0.89578813,0.32306647,0.6218777,0.92168117,0.79384667,0.28432712,0.5197573,0.67079157,1.189707,0.6464057,0.5393669,1.2093667,0.7350501,1.0330983,0.2781499,0.8769099,0.5034407,0.6505629,0.009222185,0.7054549,811.9048,827.619,809.0842,786.9231,824.3956,0.21905517578125,0.07623291015625,0.97454833984375,6.273040771484375,-8.00018310546875,3.521575927734375,1,1.0,1.0,1.0,1.0,100.00
2021-04-27 16:05:14.169,1.0530496,0.32306647,0.9605096,1.0685958,0.93803954,0.28432712,0.7561587,0.8007162,1.189707,0.6464057,0.6068797,1.2093667,0.78076136,1.0330983,0.30100802,0.8967499,0.45415625,0.6505629,-0.007877382,0.6406281,821.5751,787.72894,846.1539,761.9414,779.2674,0.192626953125,0.0711669921875,0.9910888671875,6.23565673828125,-1.62994384765625,1.921539306640625,1,1.0,1.0,1.0,1.0,100.00
2021-04-27 16:05:14.683,1.2961189,0.32306647,1.0531589,1.0562661,0.94609976,0.28432712,0.6879924,0.8491139,1.1819313,0.6464057,0.5026543,1.0258368,0.85646266,1.0330983,0.16374132,0.91514456,0.4728074,0.6505629,-0.040233076,0.5630247,877.5824,758.71796,784.90845,862.674,1064.9451,0.17822265625,0.09283447265625,0.9810791015625,6.362762451171875,-7.01324462890625,-2.594451904296875,1,1.0,1.0,1.0,1.0,100.00
2021-04-27 16:05:15.210,1.3479823,0.32306647,1.0531589,1.0826472,0.93266124,0.28432712,0.6879924,0.8431791,1.1323088,0.6464057,0.5026543,0.9562432,0.8590607,1.0330983,0.16374132,0.9142466,0.41043687,0.6505629,-0.040233076,0.46942773,782.49084,823.1868,809.0842,751.4652,853.00366,0.1536865234375,0.09649658203125,0.9910888671875,3.715972900390625,-3.72344970703125,1.652374267578125,1,1.0,1.0,1.0,1.0,100.00
2021-04-27 16:05:15.740,1.3479823,0.32306647,0.98152566,1.0826472,0.93266124,0.28432712,0.5827644,0.8431791,1.1323088,0.6464057,0.40518788,0.9562432,0.8590607,1.0330983,0.19619836,0.9142466,0.41043687,0.6505629,-0.014572734,0.46942773,718.4249,775.2381,796.1905,759.5238,710.3663,0.13287353515625,0.09722900390625,0.9818115234375,5.226287841796875,-5.9515380859375,-0.418701171875,1,1.0,1.0,1.0,1.0,100.00
2021-04-27 16:05:16.249,1.3479823,0.32306647,1.0189595,1.0826472,0.93266124,0.28432712,0.581957,0.8431791,1.1323088,0.6464057,0.3219034,0.9562432,0.8590607,1.0330983,0.31082186,0.9142466,0.41043687,0.6505629,0.052363202,0.46942773,642.674,810.293,789.7436,688.20514,617.28937,0.13311767578125,0.13323974609375,0.97454833984375,4.822540283203125,-4.26177978515625,2.385101318359375,1,1.0,1.0,1.0,1.0,100.00
2021-04-27 16:05:16.776,1.3479823,0.32306647,1.0189595,1.0826472,0.93266124,0.28432712,0.581957,0.8431791,1.1323088,0.6464057,0.3219034,0.9562432,0.8590607,1.0330983,0.31082186,0.9142466,0.41043687,0.6505629,0.052363202,0.46942773,904.17584,827.619,829.6337,842.9304,741.39197,0.154296875,0.11865234375,0.99664306640625,2.91595458984375,-3.372039794921875,2.452392578125,1,2.0,1.0,1.0,2.0,100.00
2021-04-27 16:05:17.284,1.3479823,0.32306647,1.0970451,1.0826472,0.93266124,0.28432712,0.62198937,0.8431791,1.1323088,0.6464057,0.51652914,0.9562432,0.8590607,1.0330983,0.3317829,0.9142466,0.41043687,0.6505629,-0.14433749,0.46942773,927.5458,799.41394,834.87177,868.315,863.0769,0.1265869140625,0.10736083984375,0.99151611328125,7.40203857421875,-4.44122314453125,11.551666259765625,1,2.0,1.0,1.0,2.0,100.00
2021-04-27 16:05:17.811,1.3479823,0.32306647,1.0970451,1.0826472,0.93266124,0.28432712,0.62198937,0.8431791,1.1323088,0.6464057,0.51652914,0.9562432,0.8590607,1.0330983,0.3317829,0.9142466,0.41043687,0.6505629,-0.14433749,0.46942773,658.7912,794.9817,802.23444,724.4689,682.96704,0.1148681640625,0.0972900390625,0.990478515625,4.807586669921875,-6.1309814453125,1.12152099609375,1,2.0,1.0,1.0,2.0,100.00
2021-04-27 16:05:18.312,1.3479823,0.32306647,1.0970451,0.75765544,0.93266124,0.28432712,0.62198937,0.61434966,1.1323088,0.6464057,0.51652914,0.7703265,0.8590607,1.0330983,0.3317829,1.0168754,0.41043687,0.6505629,-0.14433749,0.4086333,709.5604,814.7253,786.1172,749.85345,711.1722,0.14923095703125,0.09417724609375,0.9998779296875,3.401947021484375,-13.435821533203125,1.069183349609375,1,1.0,1.0,1.0,1.0,100.00
2021-04-27 16:05:18.831,1.1493533,0.32306647,1.0970451,0.84377605,0.94553995,0.28432712,0.62198937,0.7008615,0.8407799,0.6464057,0.51652914,0.80616546,0.8199041,1.0330983,0.3317829,1.032805,0.32452077,0.6505629,-0.14433749,0.40563828,904.17584,804.65204,813.1135,844.5421,1000.87915,0.10003662109375,0.12237548828125,0.9910888671875,5.99639892578125,-2.01873779296875,0.575714111328125,1,1.0,1.0,1.0,1.0,100.00
2021-04-27 16:05:19.357,1.1973784,0.32306647,1.0970451,0.91727805,0.9880397,0.28432712,0.62198937,0.8243866,0.8401933,0.6464057,0.51652914,0.6138547,0.82427657,1.0330983,0.3317829,1.0522469,0.3441568,0.6505629,-0.14433749,0.4135778,863.0769,828.8278,815.9341,835.6777,790.54944,0.1361083984375,0.139404296875,0.9852294921875,5.203857421875,-5.211334228515625,-0.680389404296875,1,1.0,1.0,1.0,1.0,100.00
2021-04-27 16:05:19.861,1.0085534,-0.15536009,1.0970451,0.82381576,0.6930547,0.26154202,0.62198937,0.64323676,0.8359858,0.52911556,0.51652914,0.6969217,0.65592307,0.97511125,0.3317829,0.84090614,0.46743354,0.82406664,-0.14433749,0.68521595,920.293,816.7399,801.8315,861.8681,904.17584,0.11944580078125,0.10748291015625,0.98553466796875,4.628143310546875,-4.373931884765625,3.028106689453125,1,1.0,1.0,1.0,1.0,100.00
2021-04-27 16:05:20.371,0.6211233,0.06935449,0.24258986,0.44558942,0.21289185,0.22591817,0.05491739,0.3670408,0.5181299,0.5657713,-0.015362429,0.66763645,0.55615,0.9920149,0.2258264,0.7224127,0.5405786,0.77793545,-0.23732872,0.6632586,691.4286,781.28204,798.60803,735.34796,670.4762,0.119384765625,0.11468505859375,0.9952392578125,2.49725341796875,-4.224395751953125,-2.385101318359375,1,1.0,1.0,1.0,1.0,100.00
2021-04-27 16:05:20.882,0.6211233,0.06935449,0.7367823,0.44558942,0.21289185,0.22591817,0.35476232,0.3670408,0.5181299,0.5657713,0.30292177,0.66763645,0.55615,0.9920149,0.20578018,0.7224127,0.5405786,0.77793545,-0.10300677,0.6632586,806.6667,824.3956,814.7253,760.7326,793.7729,0.11578369140625,0.11480712890625,0.99853515625,4.6954345703125,-5.4132080078125,1.92901611328125,1,1.0,1.0,1.0,1.0,100.00
2021-04-27 16:05:21.393,0.34260544,0.22555873,0.7256182,0.37002727,0.31962332,0.09029225,0.37226558,0.40305114,0.2853113,0.59985954,0.53302735,0.55933934,0.6060872,1.0045704,0.18176354,0.7573027,0.56853074,0.65694344,-0.114962794,0.58265835,906.1905,819.5604,803.44324,840.10986,800.6227,0.12420654296875,0.12640380859375,0.97430419921875,6.3104248046875,-4.822540283203125,1.854248046875,1,1.0,1.0,1.0,1.0,100.00
2021-04-27 16:05:21.897,0.94074905,0.53353685,0.76998234,0.37002727,0.81149435,0.36763144,0.3506015,0.40305114,0.6461738,0.51055247,0.5772342,0.55933934,0.71218354,1.0049503,0.14227079,0.7573027,0.57662326,0.5805468,-0.094941035,0.58265835,796.5934,780.4762,806.26373,815.5311,980.32965,0.11138916015625,0.09796142578125,0.98333740234375,2.938385009765625,-4.65057373046875,-3.3197021484375,1,1.0,1.0,1.0,1.0,100.00
2021-04-27 16:05:22.417,0.85233796,0.48367047,0.554702,0.37002727,0.69717884,0.31976035,0.10513873,0.40305114,0.6466628,0.5679231,0.5772342,0.55933934,0.7535177,0.9782724,0.111513615,0.7573027,0.46761665,0.61786354,-0.17373988,0.58265835,655.16486,804.2491,800.6227,726.08057,647.50916,0.10968017578125,0.12188720703125,0.98748779296875,3.970184326171875,-5.749664306640625,1.42059326171875,1,1.0,1.0,1.0,1.0,100.00
2021-04-27 16:05:22.923,0.7478848,0.39221114,0.4861259,0.37002727,0.6234648,0.22695872,0.038398657,0.40305114,0.6882161,0.57766604,0.40515265,0.55933934,0.70150673,0.9127179,0.11201428,0.7573027,0.53005105,0.6847647,-0.19398993,0.58265835,902.1612,814.3223,820.7692,844.1392,777.6557,0.134765625,0.113037109375,0.9959716796875,4.553375244140625,-5.1739501953125,0.859832763671875,1,1.0,1.0,1.0,1.0,100.00
2021-04-27 16:05:23.433,0.68114114,0.27511862,0.4535525,0.37002727,0.55207574,-0.0043560844,0.03939244,0.40305114,0.7557434,0.44055036,0.23021522,0.55933934,0.65403485,0.8561771,0.19302543,0.7573027,0.51109827,0.73207617,-0.16105983,0.58265835,875.16486,838.0952,819.9634,795.38464,813.5165,0.11102294921875,0.09637451171875,0.98388671875,3.66363525390625,-2.91595458984375,-1.33087158203125,1,1.0,1.0,1.0,1.0,100.00
2021-04-27 16:05:23.962,0.63889164,0.2728204,0.60924035,0.37002727,0.5585061,-0.03791673,0.3208806,0.40305114,0.751353,0.43426076,0.32309583,0.55933934,0.53926015,0.8498011,0.21462135,0.7573027,0.59776855,0.7356535,-0.16803198,0.58265835,875.16486,795.78754,817.9487,847.76556,839.304,0.09112548828125,0.1119384765625,0.994384765625,5.869293212890625,-6.078643798828125,4.77020263671875,1,1.0,1.0,1.0,1.0,100.00
2021-04-27 16:05:24.472,0.82807356,0.40363675,0.75993204,0.37002727,0.70845586,0.0031156703,0.40680438,0.40305114,0.74460423,0.30207565,0.32309583,0.55933934,0.48891625,0.89884037,0.27340528,0.7573027,0.53680384,0.71598536,-0.12563716,0.58265835,693.44324,794.17584,805.05493,757.9121,697.8755,0.1070556640625,0.114013671875,0.99359130859375,5.54779052734375,-5.21881103515625,3.072967529296875,1,1.0,1.0,1.0,1.0,100.00
2021-04-27 16:05:24.976,0.82807356,0.3926645,0.9019246,0.37002727,0.70845586,-0.024421481,0.61137766,0.40305114,0.74460423,0.30207565,0.29798964,0.55933934,0.48891625,0.8942826,0.13411875,0.7573027,0.53680384,0.733852,-0.19703783,0.58265835,884.43225,842.1245,823.9927,821.1722,789.34064,0.1258544921875,0.11676025390625,0.97967529296875,2.8411865234375,-7.0281982421875,4.433746337890625,1,1.0,1.0,1.0,1.0,100.00
2021-04-27 16:05:25.480,0.82807356,0.3926645,0.5477866,0.37002727,0.70845586,-0.024421481,0.10224559,0.40305114,0.74460423,0.30207565,0.47178757,0.55933934,0.48891625,0.8942826,0.19286068,0.7573027,0.53680384,0.733852,-0.23779723,0.58265835,833.2601,796.1905,795.78754,798.60803,859.45056,0.0855712890625,0.1103515625,0.9918212890625,4.1571044921875,-4.02252197265625,-0.418701171875,1,1.0,1.0,1.0,1.0,100.00
2021-04-27 16:05:25.982,1.0607656,0.3926645,0.68328935,0.37002727,0.8590423,-0.024421481,0.48127288,0.40305114,0.81790227,0.30207565,0.61282,0.55933934,0.6094946,0.8942826,0.24998473,0.7573027,0.4068352,0.733852,-0.1453401,0.58265835,695.4579,796.99634,801.8315,757.1062,747.4359,0.10205078125,0.11578369140625,0.99688720703125,5.30853271484375,-3.566436767578125,-3.12530517578125,1,1.0,1.0,1.0,1.0,100.00
2021-04-27 16:05:26.509,1.0607656,0.3926645,0.6220266,0.37002727,0.8590423,-0.024421481,0.45953572,0.40305114,0.81790227,0.30207565,0.61675847,0.55933934,0.6094946,0.8942826,0.21222904,0.7573027,0.4068352,0.733852,-0.1532499,0.58265835,689.41394,790.14655,796.5934,733.73627,726.08057,0.0712890625,0.09124755859375,0.99114990234375,3.880462646484375,-2.8411865234375,1.188812255859375,1,1.0,1.0,1.0,1.0,100.00
2021-04-27 16:05:27.033,1.1208051,0.4630237,0.5966233,1.1137171,0.7825509,0.61031514,0.47827083,0.7231479,0.8268677,0.17181896,0.63122535,0.76390684,0.67071134,0.9331777,0.20238203,0.8279285,0.3859849,0.56386656,-0.14015417,0.53705037,900.14655,758.71796,823.1868,871.13556,896.9231,0.1002197265625,0.08660888671875,0.9840087890625,6.05621337890625,-5.031890869140625,3.72344970703125,1,1.0,1.0,1.0,1.0,100.00
2021-04-27 16:05:27.542,1.0255296,0.4516944,0.55113566,1.1137171,0.458357,0.6627252,0.4011368,0.7231479,0.50952506,0.020386057,0.46814945,0.76390684,0.73569214,0.9010803,0.15744057,0.8279285,0.35213822,0.63770473,-0.13978973,0.53705037,891.685,811.9048,806.6667,837.6923,798.60803,0.10577392578125,0.09808349609375,0.97723388671875,7.82073974609375,-6.258087158203125,-3.536529541015625,1,1.0,1.0,1.0,1.0,100.00
2021-04-27 16:05:28.056,1.0255296,0.4516944,0.71978813,1.1137171,0.458357,0.6627252,0.5427632,0.7231479,0.50952506,0.020386057,0.38708004,0.76390684,0.73569214,0.9010803,0.20723218,0.8279285,0.35213822,0.63770473,-0.120308384,0.53705037,760.32965,815.9341,822.7839,769.19415,724.0659,0.04974365234375,0.12890625,0.9827880859375,5.390777587890625,1.375732421875,4.478607177734375,1,1.0,1.0,1.0,1.0,100.00
2021-04-27 16:05:28.582,1.2586328,0.4079785,0.8225043,1.2375108,1.2239374,0.54195714,0.5934316,0.95080876,0.9440225,0.23392095,0.41090518,0.69938487,0.7617519,0.8877034,0.2738992,0.8085624,0.32871175,0.6302467,-0.1420015,0.45543587,694.65204,778.46155,785.7143,738.97437,763.95605,0.08392333984375,0.111572265625,0.97760009765625,2.400054931640625,-5.81695556640625,-0.7476806640625,1,1.0,1.0,1.0,1.0,100.00
2021-04-27 16:05:29.090,1.3578693,0.4079785,0.82063234,1.2687649,1.2116026,0.54195714,0.54279184,0.97529596,0.96418756,0.23392095,0.39056295,0.7066186,0.76769584,0.8877034,0.25913018,0.8160518,0.40918332,0.6302467,-0.178708,0.4999674,700.293,804.65204,804.2491,749.85345,641.8681,0.003173828125,0.11346435546875,1.005859375,1.846771240234375,0.201873779296875,0.37384033203125,1,1.0,1.0,1.0,1.0,100.00
2021-04-27 16:05:29.619,1.200933,0.4079785,0.86738616,1.2687649,1.0568653,0.54195714,0.5278677,0.97529596,0.9654977,0.23392095,0.24693212,0.7066186,0.79420555,0.8877034,0.29766992,0.8160518,0.38603634,0.6302467,-0.1937979,0.4999674,710.3663,789.7436,801.8315,747.8388,736.55676,0.02398681640625,0.12176513671875,0.99078369140625,4.658050537109375,-3.730926513671875,-2.6617431640625,1,1.0,1.0,1.0,1.0,100.00
2021-04-27 16:05:30.145,1.1577132,0.4079785,0.70873415,1.3367766,0.89396113,0.54195714,0.31878453,1.0375106,0.9023638,0.23392095,0.19032654,0.7066186,0.81456774,0.8877034,0.015423823,0.83233196,0.42043865,0.6302467,-0.21733916,0.52227455,848.1685,802.6374,811.9048,817.1429,751.06226,0.02093505859375,0.11810302734375,0.99560546875,6.34033203125,-7.902984619140625,1.3458251953125,1,1.0,1.0,1.0,1.0,100.00
2021-04-27 16:05:30.672,0.73493516,0.62392646,0.3878103,1.3367766,0.59936273,0.31617257,0.35563022,1.0375106,0.66090167,0.50315475,0.282488,0.7066186,0.75965226,0.8215702,0.12977731,0.83233196,0.380615,0.4858196,-0.20753145,0.52227455,882.8205,830.4396,809.4872,816.337,743.4066,0.1260986328125,0.177734375,0.9854736328125,3.730926513671875,-4.553375244140625,0.336456298828125,1,1.0,1.0,1.0,1.0,100.00
2021-04-27 16:05:31.197,0.73089516,0.62392646,0.6959145,1.3367766,0.5439563,0.31617257,0.5732551,1.0375106,0.3752891,0.50315475,0.43530974,0.7066186,0.65258586,0.8215702,0.18288456,0.83233196,0.40695444,0.4858196,-0.18032415,0.52227455,761.53845,738.97437,813.5165,794.17584,741.39197,0.0703125,0.1240234375,1.01092529296875,5.90667724609375,-4.882354736328125,9.443206787109375,1,1.0,1.0,1.0,1.0,100.00
2021-04-27 16:05:31.729,0.73089516,0.72738403,0.7932965,1.3367766,0.5439563,0.4233076,0.70709264,1.0375106,0.3752891,0.50315475,0.43530974,0.7066186,0.65258586,0.8185455,0.26573533,0.83233196,0.40695444,0.5154793,-0.12826203,0.52227455,848.1685,848.5714,794.57874,797.8022,697.0696,0.1009521484375,0.1512451171875,0.98602294921875,4.777679443359375,-5.27862548828125,-3.18511962890625,1,1.0,1.0,1.0,1.0,100.00
2021-04-27 16:05:32.252,0.73089516,0.72738403,0.9900193,1.3367766,0.5439563,0.4233076,0.83379436,1.0375106,0.3752891,0.50315475,0.43530974,0.7066186,0.65258586,0.8185455,0.3024317,0.83233196,0.40695444,0.5154793,-0.11683111,0.52227455,697.8755,784.10254,809.0842,759.5238,713.9927,0.0965576171875,0.17608642578125,1.00848388671875,9.114227294921875,-7.753448486328125,1.233673095703125,1,1.0,1.0,1.0,1.0,100.00
2021-04-27 16:05:32.776,0.8177763,0.72738403,0.9900193,1.3367766,0.73155874,0.4233076,0.83379436,1.0375106,0.9796812,0.50315475,0.43530974,0.7066186,0.7597184,0.8185455,0.3024317,0.83233196,0.6588083,0.5154793,-0.11683111,0.52227455,699.4872,786.1172,795.78754,736.1539,688.20514,0.1231689453125,0.145263671875,0.9786376953125,4.882354736328125,-2.145843505859375,2.639312744140625,1,1.0,1.0,1.0,1.0,100.00
2021-04-27 16:05:33.304,0.6433999,0.57335275,0.9900193,0.12205044,0.62655306,0.30463353,0.83379436,0.49845356,0.99591076,0.27044472,0.43530974,0.89217657,0.6749164,0.9416775,0.3024317,0.9067741,0.5839238,0.4299144,-0.11683111,0.6755136,843.73627,814.7253,813.1135,793.36993,746.2271,0.05029296875,0.15753173828125,0.990234375,4.964599609375,0.64300537109375,-0.650482177734375,1,1.0,1.0,1.0,1.0,100.00
2021-04-27 16:05:33.831,0.51868534,0.34950405,-0.054964498,0.13424926,0.4285985,0.19373614,0.03258849,0.4031576,0.95915675,0.30177635,0.39371708,0.8933323,0.6782859,0.8137189,0.17729639,0.87544847,0.49789748,0.48917747,-0.13193256,0.64109117,892.8938,797.8022,834.0659,847.76556,875.16486,0.06689453125,0.15643310546875,0.98992919921875,3.282318115234375,-6.661834716796875,0.9271240234375,1,1.0,1.0,1.0,1.0,100.00
2021-04-27 16:05:34.338,0.19000106,0.33226722,0.5521055,0.10466127,0.28589255,0.17378561,0.47820216,0.38054675,0.42167705,0.32671264,0.46735382,0.86457133,0.7082189,0.8145478,0.2334515,0.8227447,0.35587615,0.4784685,-0.2555616,0.63606244,871.9414,825.6044,813.91943,834.4689,877.98535,0.07318115234375,0.15496826171875,0.98443603515625,2.175750732421875,-9.1815185546875,9.114227294921875,1,1.0,1.0,1.0,1.0,100.00
2021-04-27 16:05:34.841,0.21071598,0.035759233,0.9404382,0.14844944,0.18201207,0.05778785,0.73003405,0.25169426,0.084941,0.20789155,0.61348754,0.3178336,0.78310883,0.7028857,0.30207336,0.8346073,0.2725732,0.5080625,-0.29461864,0.5958238,669.67035,801.4286,795.78754,721.6484,648.71796,0.08355712890625,0.1126708984375,0.9888916015625,3.401947021484375,-5.286102294921875,4.538421630859375,1,1.0,1.0,1.0,1.0,100.00
2021-04-27 16:05:35.351,0.2141129,0.020234512,1.0890397,0.19673455,0.3123672,-0.080887385,0.8767492,0.2487322,0.36198983,0.16827181,0.61262864,0.14100808,0.77178884,0.7077533,0.30262646,0.85238135,0.31460804,0.51345366,-0.45441437,0.5816999,774.43225,792.5641,786.1172,769.19415,733.73627,0.0899658203125,0.12579345703125,1.00579833984375,5.1739501953125,-2.9608154296875,1.435546875,1,1.0,1.0,1.0,1.0,100.00
2021-04-27 16:05:35.864,0.26179048,0.020234512,1.2534899,0.5630583,0.33285502,-0.080887385,0.84335196,0.54991794,0.36015734,0.16827181,0.62592363,0.58906305,0.7276845,0.7077533,0.2651687,0.8426559,0.34125525,0.51345366,-0.45917988,0.5592438,880.0,847.3626,817.1429,813.91943,820.3663,0.10638427734375,0.114501953125,0.9857177734375,6.34033203125,-4.613189697265625,0.657958984375,1,1.0,1.0,1.0,1.0,100.00
2021-04-27 16:05:36.373,0.26179048,0.020234512,1.085845,0.6367115,0.33285502,-0.080887385,0.5611776,0.5445836,0.36015734,0.16827181,0.32823884,0.6946413,0.7276845,0.7077533,0.22393294,0.8716462,0.34125525,0.51345366,-0.44478276,0.5628184,835.6777,809.89014,800.2198,822.7839,761.13556,0.1422119140625,0.10345458984375,0.9771728515625,2.863616943359375,-10.00396728515625,1.98883056640625,1,1.0,1.0,1.0,1.0,100.00
2021-04-27 16:05:36.887,1.0344204,0.020234512,1.1311128,0.6015777,0.8450159,-0.080887385,0.5928286,0.51603645,0.38660398,0.16827181,0.32823884,0.6946413,0.68928283,0.7077533,0.22832912,0.85143256,0.47226965,0.51345366,-0.44252625,0.5355556,789.7436,799.81683,796.5934,784.90845,780.07324,0.107177734375,0.12200927734375,0.992919921875,4.80010986328125,-3.970184326171875,-3.84307861328125,1,1.0,1.0,1.0,1.0,100.00
2021-04-27 16:05:37.413,0.8189168,0.020234512,0.8059838,0.5122491,0.67082965,-0.080887385,0.2753729,0.41106084,0.47080863,0.16827181,0.40238664,0.6946413,0.6596751,0.7077533,0.23050773,0.8363598,0.40812775,0.51345366,-0.2697891,0.5567594,875.16486,860.65936,804.65204,810.696,819.15753,0.0926513671875,0.14068603515625,0.9920654296875,2.743988037109375,-4.05242919921875,-2.340240478515625,1,1.0,1.0,1.0,1.0,100.00
2021-04-27 16:05:37.939,0.741821,0.020234512,1.121502,0.17033105,0.62466973,-0.080887385,0.464265,0.19632906,0.39212853,0.16827181,0.45397067,0.3746462,0.66295534,0.7077533,0.27978995,0.7479159,0.4023422,0.51345366,-0.20093313,0.56684625,858.24176,800.2198,807.0696,821.978,840.5128,0.080078125,0.124267578125,0.99072265625,3.2000732421875,-2.803802490234375,0.560760498046875,1,1.0,1.0,1.0,1.0,100.00
2021-04-27 16:05:38.444,0.3685789,0.020234512,1.0597678,0.19498825,0.2462342,-0.080887385,0.41633675,0.06907408,0.27212265,0.16827181,0.45397067,-0.01954169,0.6941255,0.7077533,0.2806507,0.7538264,0.25726435,0.51345366,-0.17603707,0.5647628,871.53845,812.71063,811.9048,820.7692,768.7912,0.0762939453125,0.10968017578125,0.990234375,2.97576904296875,-4.97955322265625,0.575714111328125,1,1.0,1.0,1.0,1.0,100.00
2021-04-27 16:05:38.961,0.6106686,0.020234512,0.9060957,0.264239,-0.013844003,-0.080887385,0.36305016,0.107944235,0.3575401,0.16827181,0.46577433,0.11576363,0.85315335,0.7077533,0.31035542,0.85567844,0.25206983,0.51345366,-0.08125619,0.46102285,752.27106,813.1135,805.05493,780.87915,691.4286,0.0589599609375,0.111572265625,1.0018310546875,3.162689208984375,-5.869293212890625,6.572113037109375,1,1.0,1.0,1.0,1.0,100.00
2021-04-27 16:05:39.473,0.4876964,0.068567045,-0.11496387,0.22724646,0.16416864,-0.03557883,0.15119502,0.31561455,0.48638365,0.28302443,0.28375497,0.49861336,0.76313025,0.79542065,0.23302849,0.78522843,0.18459459,0.26979068,-0.14658682,0.31071326,687.3993,776.4469,794.57874,742.1978,750.2564,0.07269287109375,0.11090087890625,0.996826171875,5.09918212890625,-6.02630615234375,0.95703125,1,1.0,1.0,1.0,1.0,100.00
2021-04-27 16:05:39.996,0.4608022,0.012289243,-0.24344413,0.16108091,0.30159044,0.16025902,0.10989245,0.44597578,0.6126283,0.45568773,0.32389325,0.6242384,0.7193904,0.7858292,0.15575254,0.8179925,0.26982263,0.37044704,-0.2691937,0.38540077,776.8498,808.68134,804.2491,780.87915,708.7546,0.06781005859375,0.12298583984375,1.00439453125,4.762725830078125,-10.714263916015625,0.007476806640625,1,1.0,1.0,1.0,1.0,100.00
2021-04-27 16:05:40.524,0.27887022,-0.02187349,-0.21642727,0.21792603,0.45977798,0.15208046,0.08760331,0.45384362,0.6474134,0.47733954,0.3051684,0.64720416,0.721099,0.7651263,0.1180265,0.8612991,0.30050382,0.53215885,-0.32851306,0.3865667,736.1539,781.685,832.4542,690.2198,886.4469,0.02813720703125,0.13616943359375,1.0277099609375,8.98712158203125,-2.49725341796875,7.1478271484375,1,1.0,1.0,1.0,1.0,100.00
2021-04-27 16:05:41.049,0.28272882,0.032434423,0.5076812,0.22885726,0.5184735,0.1890553,0.084573686,0.46486908,0.6332736,0.46776545,0.29419613,0.6002676,0.7630579,0.79806006,0.19731036,0.9180003,0.37763542,0.63683283,-0.20948991,0.47258356,810.293,818.3516,813.1135,805.8608,776.4469,0.068115234375,0.1146240234375,0.99346923828125,3.342132568359375,-4.7552490234375,0.55328369140625,1,1.0,1.0,1.0,1.0,100.00
2021-04-27 16:05:41.577,-0.063240536,0.1316526,0.8621019,0.3743384,0.5506568,-0.09438488,0.17558628,0.23988922,0.54251504,0.35486972,0.40021533,0.34845984,0.85355544,0.82439184,0.28455928,0.96009904,0.3533344,0.743785,-0.13312022,0.44994465,683.36993,805.4579,807.8755,736.1539,624.1392,0.0439453125,0.09820556640625,0.995849609375,2.52716064453125,-5.510406494140625,0.112152099609375,1,1.0,1.0,1.0,1.0,100.00
2021-04-27 16:05:42.092,-0.07753623,0.14616144,0.935883,0.44356152,0.53786355,-0.18096313,0.1510341,0.2296445,0.45660648,0.25699675,0.4045171,0.3246464,0.8385107,0.81570965,0.36901677,0.9428624,0.36736906,0.76979727,-0.14140128,0.45175338,776.8498,799.011,788.93774,801.4286,848.97437,-0.05218505859375,0.05780029296875,1.068359375,3.297271728515625,1.2860107421875,-0.201873779296875,1,1.0,1.0,1.0,1.0,100.00
2021-04-27 16:05:42.608,1.2635704,0.3287701,0.65641415,1.2360511,0.24704744,0.2505961,-0.04745707,0.27368307,0.7644,0.47149226,0.31911993,0.6268354,0.8754477,0.8706115,0.345881,1.0252964,0.14769255,0.5722423,-0.15684357,0.41868117,916.26373,827.2161,809.89014,869.5238,792.96704,0.0487060546875,0.0911865234375,1.00262451171875,6.65435791015625,-4.14215087890625,2.400054931640625,1,1.0,1.0,1.0,1.0,100.00
2021-04-27 16:05:43.114,1.2635704,0.42235303,0.5958147,1.2360511,0.24704744,0.55745405,0.22837205,0.27368307,0.7644,0.8455929,0.4879261,0.6268354,0.8754477,0.88503146,0.31466758,1.0252964,0.14769255,0.5499833,-0.09733433,0.41868117,807.8755,805.8608,799.81683,792.1612,707.5458,0.0543212890625,0.08551025390625,1.0093994140625,4.134674072265625,-7.319793701171875,0.0897216796875,1,1.0,1.0,1.0,1.0,100.00
2021-04-27 16:05:43.617,1.2635704,0.49065307,0.64931613,1.2360511,0.24704744,0.6141857,0.3534816,0.27368307,0.7644,0.8638233,0.5881595,0.6268354,0.8754477,0.86631596,0.1990215,1.0252964,0.14769255,0.5629422,-0.16161847,0.41868117,898.93774,810.696,829.6337,856.63007,824.7985,0.02081298828125,0.09130859375,0.99884033203125,4.42626953125,-4.508514404296875,2.908477783203125,1,1.0,1.0,1.0,1.0,100.00
2021-04-27 16:05:44.141,1.2635704,0.4313945,0.65283954,1.2360511,0.24704744,0.53172135,0.35295427,0.27368307,0.7644,0.86475587,0.5881595,0.6268354,0.8754477,0.9075159,0.16307048,1.0252964,0.14769255,0.55584013,-0.22048095,0.41868117,682.96704,796.99634,788.5348,730.10986,660.80585,0.05206298828125,0.07373046875,0.9852294921875,3.102874755859375,-2.669219970703125,-4.05242919921875,1,1.0,1.0,1.0,1.0,100.00
2021-04-27 16:05:44.672,0.7233223,0.3096578,0.51826125,1.2360511,0.4885191,0.21067797,0.18586452,0.27368307,0.61762464,0.66889983,0.53802955,0.6268354,0.74372655,0.92296946,0.15585206,1.0252964,0.3781302,0.6211575,-0.19628705,0.41868117,781.685,794.17584,780.4762,770.0,822.7839,0.00274658203125,0.06732177734375,0.991943359375,2.930908203125,-1.3458251953125,-3.013153076171875,1,1.0,1.0,1.0,1.0,100.00
2021-04-27 16:05:45.179,0.6106739,0.11699785,0.65330833,0.67964786,0.3409361,-0.13063955,0.007072743,0.582078,0.7110788,0.5525675,0.3460196,0.83108497,0.7270608,0.9913556,0.24015622,0.95947194,0.40323922,0.6563063,-0.16285317,0.6952175,687.8022,794.9817,780.87915,707.9487,712.381,0.01385498046875,0.06988525390625,1.0030517578125,4.134674072265625,-6.53472900390625,-1.532745361328125,1,1.0,1.0,1.0,1.0,100.00
2021-04-27 16:05:45.715,0.7889923,0.049164247,0.82189894,0.84958935,0.42280906,-0.05895404,0.06933697,0.6430171,0.7467301,0.5481687,0.35250175,0.83108497,0.69892156,0.95875347,0.21356271,0.9512216,0.40540218,0.6592916,-0.1276766,0.69560754,829.2308,819.5604,797.8022,785.31134,714.3956,0.01263427734375,0.0927734375,1.0263671875,2.930908203125,-3.6785888671875,0.097198486328125,1,1.0,1.0,1.0,1.0,100.00
2021-04-27 16:05:46.221,0.95671105,-0.08318986,0.805567,0.95248646,0.51783735,-0.11108418,0.086929664,0.6361393,0.7989342,0.5406162,0.404315,0.7732042,0.65689164,0.91393775,0.19401382,0.90548,0.38846123,0.55839676,-0.21338786,0.6870205,775.2381,797.3993,799.011,759.92676,758.315,0.05291748046875,0.0775146484375,1.0013427734375,3.63372802734375,-5.39825439453125,-0.35888671875,1,1.0,1.0,1.0,1.0,100.00
2021-04-27 16:05:46.724,0.97052413,-0.15771258,0.63520724,1.0214622,0.56922644,-0.08404838,0.07355318,0.70953786,0.70077777,0.55904937,0.4441955,0.5557129,0.633942,0.8697989,0.13107292,0.9039372,0.40109423,0.49820572,-0.21985826,0.6498401,723.663,792.1612,800.6227,753.47986,763.1502,0.064208984375,0.0975341796875,1.0001220703125,5.166473388671875,-3.409423828125,0.844879150390625,1,1.0,1.0,1.0,1.0,100.00
2021-04-27 16:05:47.252,0.9347725,0.093455866,0.5114292,1.1140379,0.60507256,0.1401331,0.04930395,0.9578959,0.6923026,0.48529094,0.42576864,0.60965705,0.61353654,0.8441874,0.14719786,0.8434488,0.38657573,0.50304425,-0.22236001,0.5018322,840.9158,827.2161,819.9634,789.34064,780.07324,-0.003662109375,0.14105224609375,1.01068115234375,7.588958740234375,-3.267364501953125,6.945953369140625,1,1.0,1.0,1.0,1.0,100.00
2021-04-27 16:05:47.774,0.7831686,0.31256428,0.45177636,0.9449649,0.59902906,0.28059328,0.25639012,0.83929944,0.6568251,0.58477724,0.38915116,1.0756886,0.56228834,0.8383657,0.14299104,0.8390139,0.4009057,0.52155447,-0.23339456,0.5483327,783.69965,792.1612,788.1319,769.19415,784.90845,0.04180908203125,0.10357666015625,1.0010986328125,2.504730224609375,-4.18701171875,1.65985107421875,1,1.0,1.0,1.0,1.0,100.00
2021-04-27 16:05:48.290,0.66513413,0.43713382,0.4173106,0.79526335,0.5049955,0.3492598,0.32675758,0.7246348,0.5846596,0.5878123,0.365301,1.0773319,0.48118255,0.82180357,0.15647723,0.81409764,0.2749524,0.5819046,-0.13667679,0.5348711,888.46155,821.1722,826.8132,841.31866,825.2015,0.06463623046875,0.08929443359375,0.99005126953125,5.42816162109375,-4.762725830078125,0.665435791015625,1,1.0,1.0,1.0,1.0,100.00
2021-04-27 16:05:48.806,0.39165288,0.48990855,0.21602601,0.49285,0.19079493,0.32324824,0.38946503,0.510594,0.3773021,0.5386392,0.31341988,1.1574701,0.44399318,0.8309276,0.18222314,0.7898715,0.28120282,0.6326678,-0.15920655,0.5391411,843.73627,803.0403,809.0842,819.5604,821.5751,0.06036376953125,0.0982666015625,1.000244140625,4.05242919921875,-10.42266845703125,2.355194091796875,1,1.0,1.0,1.0,1.0,100.00
2021-04-27 16:05:49.318,0.501749,0.43405744,0.35673225,0.5508441,0.15759979,0.21128833,0.21862063,0.4146187,0.44332635,0.34813675,0.31804353,1.0292178,0.46318135,0.812676,0.23935345,0.7428949,0.29472196,0.6174489,-0.18903014,0.48585144,725.2747,798.60803,803.8461,753.0769,705.5311,0.03265380859375,0.091796875,0.98760986328125,3.386993408203125,-1.981353759765625,0.64300537109375,1,1.0,1.0,1.0,1.0,100.00
2021-04-27 16:05:49.852,0.64420366,0.36033568,0.38843432,0.77034277,0.16703427,0.12619253,0.2479199,0.54082197,0.55645984,0.3349923,0.40884486,0.85758907,0.47511393,0.754574,0.2657445,0.6917107,0.4103458,0.612303,-0.33348534,0.60497874,523.4066,790.9524,786.52014,549.19415,629.3773,0.0328369140625,0.096923828125,1.01458740234375,6.8487548828125,-5.824432373046875,2.6019287109375,1,1.0,1.0,1.0,1.0,100.00
2021-04-27 16:05:50.373,0.6964318,0.10909604,0.47318372,0.8217194,0.12828846,0.36365446,0.3187586,0.5353666,0.53138244,0.46642914,0.64756006,0.70969856,0.47211307,0.6756767,0.2427866,0.607419,0.46224374,0.5511599,-0.39455444,0.64445704,700.696,780.4762,794.17584,763.5531,763.5531,0.0479736328125,0.0863037109375,0.9774169921875,5.72723388671875,-2.1533203125,3.69354248046875,1,1.0,1.0,1.0,1.0,100.00
2021-04-27 16:05:50.890,0.70999867,0.07842935,0.57642466,0.88531053,0.1969344,0.4244168,0.42964682,0.6139968,0.5236314,0.48825282,0.6685252,0.5054943,0.46628946,0.6740634,0.21095039,0.5585536,0.5243993,0.53165114,-0.3383032,0.7575531,882.4176,836.8865,823.5897,836.4835,791.75824,0.05450439453125,0.09393310546875,0.98675537109375,3.828125,-3.715972900390625,-3.5888671875,1,1.0,1.0,1.0,1.0,100.00
2021-04-27 16:05:51.395,0.64810926,0.0706473,0.5558052,0.85212547,0.20217586,0.3820018,0.3645047,0.6237379,0.4866251,0.5154726,0.67540646,0.5001809,0.487049,0.73360455,0.15539092,0.58577955,0.5373305,0.5999815,-0.17561598,0.7706477,896.52014,814.7253,807.47253,849.3773,864.2857,0.03485107421875,0.0982666015625,1.00225830078125,4.329071044921875,-3.117828369140625,0.4486083984375,1,1.0,1.0,1.0,1.0,100.00
2021-04-27 16:05:51.906,0.77361214,0.13289247,0.45617938,0.45721695,0.050289925,0.25604087,0.26752648,0.1699703,0.5473818,0.51971483,0.6596931,0.15469965,0.64781487,0.79986936,0.16904885,0.7337132,0.43219516,0.5527288,-0.13059957,0.42808846,711.1722,752.27106,790.14655,769.59705,1031.5018,0.05242919921875,0.076171875,0.982421875,5.854339599609375,-8.38897705078125,-4.553375244140625,1,1.0,1.0,1.0,1.0,100.00
2021-04-27 16:05:52.409,0.8239626,0.28436816,0.28472418,0.45721695,0.08116362,0.068543024,-0.050170384,0.1699703,0.55012554,0.47123605,0.1432166,0.15469965,0.62656903,0.87841433,0.09784887,0.7337132,0.3945454,0.50689125,-0.10705826,0.42808846,726.8865,799.81683,789.34064,737.3626,678.93774,0.0501708984375,0.119384765625,1.00714111328125,6.317901611328125,-4.762725830078125,7.469329833984375,1,1.0,1.0,1.0,1.0,100.00
2021-04-27 16:05:52.926,0.715693,0.5270879,0.9022517,0.53799444,0.45947367,0.2307823,0.1707741,0.71698755,0.9077406,0.73980254,0.34234938,0.74495333,0.66333973,0.8992139,0.10756475,0.9001778,0.324422,0.3698835,-0.17437977,0.41184464,857.03296,815.5311,809.0842,822.381,811.0989,8.544921875E-4,0.093994140625,0.99639892578125,3.48419189453125,-4.179534912109375,3.3197021484375,1,1.0,1.0,1.0,1.0,100.00
2021-04-27 16:05:53.442,0.42773753,0.5283951,0.9234971,0.446626,0.5760365,0.24302332,0.16943866,0.72291917,0.89298594,0.73891723,0.34234938,0.75085765,0.65760064,0.86195487,0.1157007,0.83216166,0.3798987,0.4757302,-0.2160748,0.5083803,888.86444,814.3223,805.8608,823.1868,734.5421,0.023193359375,0.10015869140625,0.99957275390625,4.957122802734375,-2.9010009765625,0.91217041015625,1,1.0,1.0,1.0,1.0,100.00
2021-04-27 16:05:53.963,0.4169539,0.46505997,0.85553837,0.36055216,0.4741927,0.1614157,0.19481872,0.6137568,0.8948467,0.7092765,0.43486604,0.82850915,0.71360046,0.8012565,0.10196766,0.7830172,0.33556002,0.49394965,-0.24910991,0.4283192,753.47986,800.6227,812.3077,770.40295,666.04395,0.02099609375,0.1187744140625,1.00567626953125,5.256195068359375,-7.559051513671875,1.734619140625,1,1.0,1.0,1.0,1.0,100.00
2021-04-27 16:05:54.472,0.35761893,0.2794938,0.38973898,0.22464184,0.3695031,0.066937484,0.07406852,0.3785564,0.7172945,0.5377406,0.37780383,0.7571515,0.6761995,0.8335825,0.0051218383,0.6586147,0.31786203,0.5132883,-0.23524982,0.45010677,692.23444,769.59705,781.28204,744.61536,722.8571,0.04791259765625,0.1168212890625,0.9927978515625,4.299163818359375,-1.577606201171875,4.388885498046875,1,1.0,1.0,1.0,1.0,100.00
2021-04-27 16:05:54.987,0.50671846,0.2944081,0.23974977,0.23889667,0.32829967,0.0052041183,0.13492149,0.2670993,0.6010418,0.1477243,0.41745046,0.72710997,0.65747035,0.84697497,-0.064880185,0.66978294,0.30216682,0.48609716,-0.1515144,0.53993666,782.8938,803.8461,811.50183,776.04395,816.337,0.02178955078125,0.104736328125,0.998046875,4.269256591796875,-5.87677001953125,1.973876953125,1,1.0,1.0,1.0,1.0,100.00
2021-04-27 16:05:55.495,0.483684,0.28493524,0.24194494,0.2590616,0.35784644,0.059660107,0.147254,0.20588341,0.47696552,0.4022212,0.43968135,0.7050178,0.58925825,0.824094,-0.028971516,0.70646787,0.3494747,0.5778956,-0.16811137,0.65805393,892.49084,812.71063,807.47253,836.08057,754.68866,0.02215576171875,0.09326171875,0.99267578125,3.57391357421875,-6.3104248046875,2.041168212890625,1,1.0,1.0,1.0,1.0,100.00
2021-04-27 16:05:55.996,0.64762247,0.3048725,0.32486993,0.6898908,0.35620558,0.1411579,0.12649155,0.5406467,0.4707879,0.40607902,0.31324014,0.5677365,0.6401386,0.7749444,0.024670456,0.75050676,0.41859874,0.4976958,-0.1856926,0.6615064,721.6484,772.4176,803.44324,759.92676,777.6557,0.0533447265625,0.07794189453125,1.0035400390625,4.90478515625,-5.21881103515625,-3.84307861328125,1,1.0,1.0,1.0,1.0,100.00
2021-04-27 16:05:56.511,0.77753794,0.26741338,0.46907124,0.8991265,0.50729907,0.16043301,0.29391035,0.80708843,0.588075,0.40398028,0.53434324,0.6900545,0.6564723,0.76008207,0.06771039,0.81981015,0.36601675,0.47957042,-0.25436485,0.5635029,776.8498,801.8315,800.6227,787.326,765.56775,0.0396728515625,0.10601806640625,1.02667236328125,3.446807861328125,-12.060089111328125,-0.665435791015625,1,1.0,1.0,1.0,1.0,100.00
2021-04-27 16:05:57.038,0.9028658,0.5355046,0.6676846,1.0505213,0.5906766,0.14633596,0.38390318,0.96722806,0.5561371,0.3166556,0.5179422,0.6900545,0.660901,0.76637286,0.123636134,0.8312749,0.3594731,0.36782318,-0.23528123,0.4644881,906.5934,816.337,811.9048,856.63007,764.35895,0.07037353515625,0.09991455078125,1.0089111328125,4.209442138671875,-6.041259765625,-3.84307861328125,1,1.0,1.0,1.0,1.0,100.00
2021-04-27 16:05:57.566,0.97066486,0.58283144,1.0687033,1.0505213,0.7012885,0.12100452,0.62474257,0.96722806,0.50404614,0.31123984,0.60774153,0.6900545,0.58044124,0.75445557,0.14681385,0.8312749,0.14644438,0.39930508,-0.26330832,0.4644881,865.89746,773.6264,808.2784,849.7802,975.4945,0.0196533203125,0.10369873046875,0.97760009765625,7.94036865234375,3.087921142578125,2.3028564453125,1,1.0,1.0,1.0,1.0,100.00
2021-04-27 16:05:58.081,1.0326111,0.38656563,1.0770757,1.0505213,0.76258415,-0.007767751,0.59034306,0.96722806,0.50257635,0.29881555,0.58258134,0.6900545,0.5953935,0.6044885,0.16969867,0.8312749,0.13980167,0.5804985,-0.34320956,0.4644881,863.8828,825.2015,816.337,809.4872,770.0,0.022216796875,0.0894775390625,0.98480224609375,4.41131591796875,-2.49725341796875,0.418701171875,1,1.0,1.0,1.0,1.0,100.00
2021-04-27 16:05:58.586,0.25674582,0.2640801,1.0063032,0.33104977,0.21090867,0.063696645,0.60106254,0.4817948,0.3409091,0.13417935,0.4181211,0.4539426,0.53558254,0.5525181,0.08807183,0.622024,0.46100724,0.6389361,-0.37195897,0.598294,726.8865,769.19415,784.90845,761.9414,777.6557,0.03289794921875,0.09796142578125,0.9974365234375,2.76641845703125,-7.46185302734375,-0.560760498046875,1,1.0,1.0,1.0,1.0,100.00
2021-04-27 16:05:59.096,0.71276885,0.43439445,0.44248226,0.8594669,0.28336734,0.35999256,0.33817366,0.59924185,0.40270606,0.27331257,0.3950873,0.6912528,0.6541546,0.53932786,0.061313502,0.61778307,0.40662995,0.61021364,-0.30376866,0.5796158,814.7253,790.54944,793.7729,795.78754,999.2674,0.04217529296875,0.1131591796875,0.9967041015625,5.899200439453125,-6.078643798828125,2.325286865234375,1,1.0,1.0,1.0,1.0,100.00
2021-04-27 16:05:59.605,0.75371665,0.4461069,0.2965356,0.8594669,0.28001246,0.4128147,0.21808095,0.59924185,0.48562154,0.55611783,0.44014427,0.6912528,0.6613422,0.61794394,0.04271393,0.61778307,0.4176964,0.67980355,-0.20964694,0.5796158,867.9121,828.4249,825.6044,828.022,931.1722,0.02728271484375,0.09210205078125,1.003662109375,4.329071044921875,-5.36834716796875,0.157012939453125,1,1.0,1.0,1.0,1.0,100.00
2021-04-27 16:06:00.112,0.84313583,0.53236693,0.3703999,1.0580847,0.35292625,0.5046781,-0.008606157,0.67157304,0.47679043,0.57484293,0.38586533,0.775305,0.74454063,0.6681276,0.10995057,0.7714255,0.4706367,0.6971634,-0.18084432,0.54789144,808.68134,775.2381,795.78754,825.6044,888.0586,0.028076171875,0.10125732421875,0.99420166015625,5.263671875,-2.64678955078125,5.570220947265625,1,1.0,1.0,1.0,1.0,100.00
2021-04-27 16:06:00.618,0.7680855,0.47948813,0.60303503,1.0177839,0.35819024,0.4330639,0.14699496,0.61724603,0.4432867,0.53152865,0.47040185,0.64918435,0.74263155,0.7495601,0.15888335,0.8857306,0.5425558,0.77108943,-0.20559482,0.5557606,844.5421,804.2491,804.2491,812.71063,850.18317,0.0626220703125,0.1119384765625,1.00201416015625,4.373931884765625,-8.08990478515625,5.360870361328125,1,1.0,1.0,1.0,1.0,100.00
2021-04-27 16:06:01.133,0.8005273,0.63066804,0.78665143,1.0177839,0.45198587,0.5213791,0.3353418,0.61724603,0.4432867,0.49092647,0.36145046,0.64918435,0.78918475,0.7851156,0.19475488,0.8857306,0.62084925,0.739085,-0.26181445,0.5557606,763.5531,803.0403,793.7729,771.2088,668.0586,0.02880859375,0.10162353515625,1.013671875,4.9945068359375,2.67669677734375,1.054229736328125,1,1.0,1.0,1.0,1.0,100.00
2021-04-27 16:06:01.638,0.8005273,0.63066804,0.93912774,1.0177839,0.45198587,0.5213791,0.4780932,0.61724603,0.4432867,0.49092647,0.3179039,0.64918435,0.78918475,0.7851156,0.15288311,0.8857306,0.62084925,0.739085,-0.3125648,0.5557606,877.1795,796.5934,803.44324,840.10986,902.1612,0.00665283203125,0.09173583984375,1.01544189453125,5.181427001953125,-10.131072998046875,1.00189208984375,1,1.0,1.0,1.0,1.0,100.00
2021-04-27 16:06:02.159,0.8005273,0.63066804,0.93912774,1.0177839,0.45198587,0.5213791,0.4780932,0.61724603,0.4432867,0.49092647,0.3179039,0.64918435,0.78918475,0.7851156,0.15288311,0.8857306,0.62084925,0.739085,-0.3125648,0.5557606,844.1392,829.6337,819.9634,822.7839,753.0769,-0.0062255859375,0.093994140625,0.98101806640625,3.162689208984375,-1.831817626953125,2.115936279296875,1,1.0,1.0,1.0,1.0,100.00
2021-04-27 16:06:02.663,0.8005273,0.4355704,0.39171323,1.0177839,0.45198587,0.2927578,0.13092071,0.61724603,0.4432867,0.23633038,0.26696366,0.64918435,0.78918475,0.7855195,0.17815477,0.8857306,0.62084925,0.43265027,-0.52726626,0.5557606,742.6007,796.1905,805.8608,784.5055,699.0842,0.0286865234375,0.0938720703125,0.99432373046875,4.000091552734375,-4.88983154296875,5.375823974609375,1,2.0,1.0,1.0,2.0,100.00
2021-04-27 16:06:03.166,1.036257,0.41048834,0.30345193,1.0130883,0.023521723,0.23837489,0.35711882,0.6688995,0.7310077,0.47698903,0.38016135,0.7222874,0.6032255,0.78695613,0.14144966,0.8685659,0.3644988,0.43463677,-0.34051463,0.4007908,702.71063,795.38464,797.8022,745.42126,742.6007,0.04278564453125,0.10302734375,1.001220703125,4.957122802734375,-5.6524658203125,2.340240478515625,1,1.0,1.0,1.0,1.0,100.00
2021-04-27 16:06:03.678,0.9288684,0.39928225,0.39572233,0.9800735,-0.030992748,0.20156415,0.39216602,0.6023979,0.7310077,0.4811912,0.41400877,0.7222874,0.5738742,0.74981624,0.115868814,0.8816274,0.37310746,0.53430045,-0.28757235,0.51781696,851.39197,817.9487,805.4579,816.7399,770.0,0.0186767578125,0.09674072265625,0.98870849609375,2.983245849609375,-4.448699951171875,0.381317138671875,1,1.0,1.0,1.0,1.0,100.00
2021-04-27 16:06:04.193,0.82557225,0.29359967,0.32630974,0.8244508,-0.037895415,0.105760835,0.33610567,0.51766264,0.7310077,0.40251255,0.45427364,0.72587365,0.6263389,0.7127598,0.12329337,0.86944294,0.30691668,0.50927055,-0.282656,0.40909815,739.7802,790.14655,794.9817,778.46155,733.3333,0.10040283203125,0.1025390625,1.01123046875,10.09368896484375,-6.639404296875,-1.1962890625,1,1.0,1.0,1.0,1.0,100.00
2021-04-27 16:06:04.701,0.66072035,0.038457535,0.43144745,0.7715155,-0.08424497,0.061027396,0.08543527,0.52230483,0.62266994,0.52725935,0.46271867,0.7398286,0.63212854,0.6456736,0.09688029,0.8474258,0.3008287,0.5107098,-0.39146098,0.40955552,712.381,774.83514,784.90845,753.8828,952.1245,0.0645751953125,0.092529296875,1.0023193359375,0.2691650390625,-2.474822998046875,-1.435546875,1,1.0,1.0,1.0,1.0,100.00
2021-04-27 16:06:05.209,0.63226295,-0.38117152,0.4601211,0.70459205,0.23793128,0.1406862,-0.10118601,0.5620264,0.9147452,0.5217735,0.33294964,0.84229064,0.5863879,0.64854693,0.009186731,0.8464725,0.37972692,0.43712476,-0.44676146,0.40515572,820.7692,822.7839,802.23444,791.3553,757.50916,-4.8828125E-4,0.1217041015625,0.97857666015625,7.67120361328125,-0.897216796875,5.06927490234375,1,1.0,1.0,1.0,1.0,100.00
2021-04-27 16:06:05.717,0.90531844,0.19041131,0.6658665,0.8963514,0.5271599,0.2625163,0.14102642,0.7074083,0.9416811,0.5294427,0.37272263,0.8504667,0.4988941,0.69116086,-0.040663127,0.8169765,0.45459622,0.41519344,-0.39996368,0.41215244,893.2967,781.28204,799.81683,867.9121,972.674,0.08892822265625,0.131103515625,1.00970458984375,5.689849853515625,-3.506622314453125,4.4561767578125,1,1.0,1.0,1.0,1.0,100.00
2021-04-27 16:06:06.227,1.0328867,0.5823018,0.7097024,0.89581454,0.5716197,0.34058106,0.18301639,0.6180678,0.9607053,0.47455412,0.3053457,0.8335689,0.56604356,0.7507679,-0.07053167,0.7551933,0.3786403,0.41903856,-0.3570953,0.42676416,796.5934,810.293,801.02563,795.78754,764.7619,0.03802490234375,0.1025390625,0.99725341796875,6.587066650390625,-2.76641845703125,1.016845703125,1,1.0,1.0,1.0,1.0,100.00
2021-04-27 16:06:06.735,1.0373303,0.6853853,0.667881,0.839153,0.5505744,0.30644426,0.14834663,0.4663526,0.88814443,0.4186535,0.251068,0.5107855,0.5970228,0.7774132,0.05909336,0.6530087,0.31011832,0.33893633,-0.2985512,0.36640507,821.5751,808.68134,801.8315,872.3443,650.32965,0.02587890625,0.09967041015625,1.00994873046875,5.330963134765625,-0.605621337890625,1.876678466796875,1,1.0,1.0,1.0,1.0,100.00
2021-04-27 16:06:07.249,1.0461398,0.73933154,0.6938089,0.74257433,0.53963226,0.24923693,0.5467464,0.26983818,0.8647056,0.26366234,0.6684437,0.44122636,0.59795296,0.78701085,0.20504773,0.6185339,0.27306455,0.41454732,-0.20737265,0.48967767,763.5531,762.74725,793.7729,786.9231,971.4652,-0.02569580078125,0.13671875,1.0025634765625,1.1065673828125,-7.050628662109375,-2.6617431640625,1,1.0,1.0,1.0,1.0,100.00
2021-04-27 16:06:07.751,0.6445456,0.47843522,0.6159732,0.3531954,0.43228647,-0.10158255,0.59026927,0.091285594,0.6794654,0.22161712,0.69945115,0.009549177,0.4822708,0.77514535,0.2728204,0.62737316,0.3316633,0.3845565,-0.24886915,0.5711066,790.14655,807.8755,811.50183,784.5055,786.1172,0.02996826171875,0.1102294921875,1.00531005859375,5.93658447265625,-5.001983642578125,3.297271728515625,1,1.0,1.0,1.0,1.0,100.00
2021-04-27 16:06:08.269,0.6445456,0.39522186,0.532455,0.3531954,0.43228647,-0.37272024,0.590597,0.091285594,0.6794654,0.06006673,0.7152839,0.009549177,0.4822708,0.8440553,0.2189143,0.62737316,0.3316633,0.29582322,-0.3308878,0.5711066,716.0073,799.81683,795.78754,748.6447,639.45056,2.44140625E-4,0.13592529296875,0.990234375,7.917938232421875,-3.775787353515625,1.21124267578125,1,1.0,1.0,1.0,1.0,100.00
2021-04-27 16:06:08.784,0.7126495,0.2853348,0.30038288,0.22247808,0.3850877,-0.15407649,0.19552577,0.16011672,0.5347452,0.30845916,0.5871267,0.41230616,0.3821544,0.7929692,0.09573189,0.5730024,0.28108162,0.38539565,-0.4635779,0.32674605,738.5714,788.5348,795.38464,770.80585,817.9487,0.036376953125,0.16436767578125,0.9742431640625,2.99072265625,-10.789031982421875,-1.07666015625,1,1.0,1.0,1.0,1.0,100.00
2021-04-27 16:06:09.286,0.76416063,0.18179518,0.31039402,0.31051376,0.23472778,-0.15017891,0.03445242,0.049781535,0.6383375,0.31556973,0.33202007,0.4575815,0.56505007,0.7809926,0.015876913,0.667036,0.42168584,0.46076626,-0.34312227,0.46948364,857.8388,815.12823,816.7399,813.1135,807.8755,0.05743408203125,0.18084716796875,0.9879150390625,4.418792724609375,-5.570220947265625,3.9178466796875,1,1.0,1.0,1.0,1.0,100.00
2021-04-27 16:06:09.792,0.6535923,0.19497834,0.29864514,0.46252617,0.1570764,-0.15192421,0.14068684,0.3871212,1.0454865,0.44011182,0.396105,0.9583967,0.71649987,0.6991598,0.084287874,0.6773916,0.429064,0.5453161,-0.2181703,0.4718853,854.61536,817.5458,799.41394,815.5311,784.10254,0.11090087890625,0.21435546875,1.000732421875,6.826324462890625,-11.2750244140625,5.39825439453125,1,1.0,1.0,1.0,1.0,100.00
2021-04-27 16:06:10.298,0.82077676,0.12447187,0.16768262,0.62680626,0.32445523,-0.06424078,0.39321485,0.66271883,1.0881251,0.5646663,0.577229,1.1991047,0.8523344,0.7028873,0.09545152,0.71701944,0.4656353,0.51991963,-0.20366193,0.50911766,733.73627,787.326,801.8315,776.4469,801.4286,0.0780029296875,0.19659423828125,0.975830078125,5.15899658203125,-4.47113037109375,-2.0037841796875,1,1.0,1.0,1.0,1.0,100.00
2021-04-27 16:06:10.823,0.9118581,0.1641542,0.07648438,0.7307298,0.49904966,0.06225005,0.45992696,0.8135844,1.0881251,0.58585083,0.5930618,1.1991047,0.90410054,0.69985217,0.10911677,0.68000627,0.3853125,0.45241547,-0.26671728,0.47069493,778.0586,782.0879,845.7509,751.4652,873.5531,0.08245849609375,0.18768310546875,0.96942138671875,2.579498291015625,-7.65625,0.777587890625,1,1.0,1.0,1.0,1.0,100.00
2021-04-27 16:06:11.349,1.0885398,-0.06341737,0.39788243,0.80493176,0.6771523,0.2098416,0.5166828,0.95244193,1.0752014,0.5798791,0.65068877,1.190915,0.90267825,0.7520311,0.12947643,0.68747175,0.3967051,0.35368145,-0.4422153,0.5184042,828.8278,785.7143,802.6374,828.022,950.5128,0.06536865234375,0.186767578125,0.98126220703125,5.4132080078125,-4.433746337890625,4.792633056640625,1,1.0,1.0,1.0,1.0,100.00
2021-04-27 16:06:11.862,1.2076253,0.02506599,0.5692377,0.76562774,0.7391683,0.27909058,0.321857,0.9043271,0.67379993,0.17291217,0.62018937,1.1803977,0.91885483,0.76837635,0.13419504,0.6721697,0.3474125,0.31568873,-0.5288058,0.5300946,911.02563,788.93774,807.47253,875.56775,1145.1282,0.06951904296875,0.177978515625,0.97772216796875,3.90289306640625,-4.8748779296875,4.269256591796875,1,1.0,1.0,1.0,1.0,100.00
2021-04-27 16:06:12.371,1.2076253,0.14373982,0.5398206,0.76562774,0.7391683,-0.3779854,0.1433341,0.9043271,0.67379993,-0.040673047,0.34904534,1.1803977,0.91885483,0.5945679,0.19674435,0.6721697,0.3474125,0.25382036,-0.49302173,0.5300946,798.60803,811.0989,806.6667,792.5641,703.5165,0.0855712890625,0.1656494140625,0.9796142578125,3.22998046875,-4.673004150390625,0.007476806640625,1,1.0,1.0,1.0,1.0,100.00
2021-04-27 16:06:12.900,0.44616723,0.20112327,0.043012995,0.28284407,-0.049499176,-0.10235083,0.08800264,0.24793068,0.6299513,0.19353789,0.22793937,0.51191103,0.46343967,0.64874053,0.16535665,0.8612909,0.3927974,0.29259002,-0.27075553,0.5826454,715.2015,795.38464,790.9524,767.1795,732.1245,0.0648193359375,0.1651611328125,0.97552490234375,6.407623291015625,-4.77020263671875,-0.351409912109375,1,1.0,1.0,1.0,1.0,100.00
2021-04-27 16:06:13.409,0.49212617,0.18580408,0.06605315,0.25476086,-0.024910202,-0.1149398,0.05297628,0.20399947,0.6378863,0.40792048,0.32069317,0.54763806,0.4878602,0.7061193,0.13295619,0.83342314,0.36713254,0.2835609,-0.19819377,0.57404137,731.31866,798.20514,786.9231,760.32965,911.02563,0.08319091796875,0.1815185546875,0.97979736328125,4.88983154296875,-10.220794677734375,-0.889739990234375,1,1.0,1.0,1.0,1.0,100.00
2021-04-27 16:06:13.922,0.9066121,0.29296458,0.12914811,0.8627717,0.4308595,0.14861153,0.06627658,0.6387276,0.8889139,0.44087577,0.40296662,0.84474117,0.45362255,0.73407376,0.08830021,0.76569295,0.35428867,0.32366318,-0.16392793,0.58174986,874.7619,809.4872,809.4872,830.84247,731.7216,0.08880615234375,0.178955078125,0.98492431640625,5.091705322265625,-8.05999755859375,-1.443023681640625,1,1.0,1.0,1.0,1.0,100.00
2021-04-27 16:06:14.428,0.86863834,0.29407114,0.1848009,0.8307951,0.4761445,0.29058152,0.15454969,0.60151815,0.9018047,0.45181346,0.5415729,0.83558786,0.44255587,0.706859,-0.025425471,0.6209464,0.3036295,0.3614605,-0.22543038,0.48085475,855.42126,807.47253,806.26373,823.9927,774.83514,0.107177734375,0.216796875,0.98388671875,3.177642822265625,-6.811370849609375,4.127197265625,1,1.0,1.0,1.0,1.0,100.00
2021-04-27 16:06:14.933,0.9001569,0.37969416,0.33606714,1.0802594,0.7009073,0.32485756,0.17422695,0.6668184,0.9453877,0.41690075,0.5596911,0.8951659,0.5236289,0.62656975,0.03740973,0.6211772,0.3757169,0.4959442,-0.3235115,0.48392335,724.4689,801.02563,800.6227,780.4762,721.6484,0.0904541015625,0.17156982421875,0.98382568359375,1.443023681640625,-1.727142333984375,3.78326416015625,1,1.0,1.0,1.0,1.0,100.00
2021-04-27 16:06:15.449,0.78329265,0.35683364,0.36202762,1.0015796,0.71619046,0.20400809,0.18419549,0.4228168,0.9716702,0.33399305,0.54759896,0.7481237,0.6509997,0.5894921,0.15518445,0.6523158,0.4635585,0.514226,-0.31182006,0.4422132,875.16486,813.1135,805.4579,828.022,861.06226,0.07843017578125,0.13525390625,0.99151611328125,2.99072265625,-4.717864990234375,4.007568359375,1,1.0,1.0,1.0,1.0,100.00
2021-04-27 16:06:15.958,0.98883396,0.6066258,0.37730837,1.2305139,0.883974,0.0790324,0.26141706,0.80818665,0.95679283,0.36506507,0.4100027,0.83031994,0.8079672,0.61632323,0.21861394,0.7035972,0.51884526,0.47110304,-0.35890815,0.43773234,859.85345,810.696,811.0989,829.2308,804.2491,0.0240478515625,0.1220703125,0.9735107421875,5.443115234375,2.205657958984375,6.467437744140625,1,1.0,1.0,1.0,1.0,100.00
2021-04-27 16:06:16.483,1.0050346,0.6685773,0.31817985,1.2135489,0.8233894,0.1167983,0.3460595,1.0688611,0.9280041,0.20394681,0.28985596,0.7081029,0.8499637,0.64896214,0.2026428,0.77536947,0.5341707,0.3242946,-0.3639112,0.3410393,716.4103,805.05493,801.02563,762.74725,673.2967,0.01531982421875,0.095703125,1.00775146484375,0.97198486328125,-4.32159423828125,2.88604736328125,1,1.0,1.0,1.0,1.0,100.00
2021-04-27 16:06:16.995,1.0077921,0.84119,0.23410663,1.2135489,0.81225294,0.25539201,0.41937461,1.0688611,0.7271669,0.14232013,0.23635118,0.7081029,0.8831299,0.6652408,0.09536484,0.77536947,0.50384843,0.20259205,-0.43106496,0.3410393,720.0366,779.67035,791.75824,747.4359,740.989,0.04290771484375,0.154296875,0.99066162109375,7.379608154296875,-7.035675048828125,0.83740234375,1,1.0,1.0,1.0,1.0,100.00
2021-04-27 16:06:17.506,0.9653348,0.84119,0.7067423,1.2135489,0.79109794,0.25539201,0.41775376,1.0688611,0.6986965,0.14232013,0.35684606,0.7081029,0.856402,0.6652408,0.10350293,0.77536947,0.4706261,0.20259205,-0.22314633,0.3410393,922.3077,814.3223,803.8461,893.2967,839.707,0.0361328125,0.129638671875,0.98199462890625,7.245025634765625,-6.811370849609375,6.093597412109375,1,1.0,1.0,1.0,1.0,100.00
2021-04-27 16:06:18.033,0.9653348,0.84119,0.9163694,1.2135489,0.79109794,0.25539201,0.58312416,1.0688611,0.6986965,0.14232013,0.22848117,0.7081029,0.856402,0.6652408,0.06998511,0.77536947,0.4706261,0.20259205,-0.24147062,0.3410393,863.8828,826.8132,804.2491,815.12823,743.4066,0.04541015625,0.1444091796875,1.0029296875,5.286102294921875,-2.01873779296875,2.788848876953125,1,1.0,1.0,1.0,1.0,100.00
2021-04-27 16:06:18.553,0.9653348,0.84119,0.8038085,1.2135489,0.79109794,0.25539201,0.42294925,1.0688611,0.6986965,0.14232013,0.35573426,0.7081029,0.856402,0.6652408,0.09004627,0.77536947,0.4706261,0.20259205,-0.2894919,0.3410393,880.80585,808.2784,812.71063,840.5128,852.6007,0.04052734375,0.16143798828125,0.9908447265625,3.3197021484375,-6.50482177734375,-0.73272705078125,1,1.0,1.0,1.0,1.0,100.00
2021-04-27 16:06:19.062,0.9653348,0.38983995,0.67584753,1.2135489,0.79109794,0.052574635,0.3414791,1.0688611,0.6986965,0.3690958,0.31938493,0.7081029,0.856402,0.62748116,0.045606747,0.77536947,0.4706261,0.21183193,-0.33637327,0.3410393,707.9487,782.0879,796.5934,763.5531,973.47986,0.06585693359375,0.19500732421875,1.00238037109375,5.091705322265625,-6.048736572265625,1.95892333984375,1,2.0,1.0,1.0,2.0,100.00
2021-04-27 16:06:19.595,0.8436207,0.35041347,0.36287388,1.0477135,0.81094855,0.15209001,5.5832346E-4,1.0561285,1.046792,0.4517335,0.31938493,0.9804438,0.6591675,0.6305469,0.10821154,0.8034384,0.15283619,0.29548573,-0.319569,0.3068728,736.9597,792.5641,793.36993,768.3883,695.4579,0.0931396484375,0.14483642578125,0.98394775390625,4.11224365234375,-4.224395751953125,0.4486083984375,1,1.0,1.0,1.0,1.0,100.00
2021-04-27 16:06:20.106,0.707873,0.16298123,0.13667688,1.0477135,0.66567194,0.07105085,-0.08064694,1.0561285,1.0513862,0.32532874,0.16518202,0.9804438,0.7321733,0.6965049,0.11216664,0.8034384,0.21604319,0.35759404,-0.3599044,0.3068728,616.08057,784.5055,807.8755,648.71796,675.7143,0.0927734375,0.15740966796875,0.97735595703125,3.955230712890625,-0.366363525390625,2.056121826171875,1,1.0,1.0,1.0,1.0,100.00
2021-04-27 16:06:20.634,0.631536,0.25986347,0.06395652,1.0874392,0.62829566,0.2325306,-0.04104293,1.1082395,0.91576594,0.64958024,0.4974531,0.90286255,0.7572709,0.731331,0.17980804,0.7460343,0.27310565,0.42132393,-0.41384223,0.4076446,807.47253,823.1868,818.7546,792.1612,744.21246,0.05853271484375,0.15313720703125,0.98419189453125,3.940277099609375,-4.20196533203125,-1.173858642578125,1,1.0,1.0,1.0,1.0,100.00
2021-04-27 16:06:21.157,0.32372284,0.34713238,-0.06927502,1.0874392,0.22723527,0.2243576,0.10877247,1.1082395,0.3353547,0.66006726,0.5428118,0.90286255,0.8282389,0.7391716,0.14172052,0.7460343,0.30123055,0.41338167,-0.45968676,0.4076446,753.0769,806.26373,799.81683,783.2967,701.50183,0.05633544921875,0.11444091796875,0.972412109375,5.495452880859375,-2.429962158203125,-0.64300537109375,1,1.0,1.0,1.0,1.0,100.00
2021-04-27 16:06:21.686,0.35955095,0.4104659,-0.05843477,1.0874392,0.29387966,0.25240555,0.22754101,1.1082395,0.3047799,0.66006726,0.56293565,0.90286255,0.83095765,0.69828695,0.18470818,0.7460343,0.29484648,0.39892155,-0.42616713,0.4076446,796.1905,805.4579,799.81683,799.41394,736.9597,0.03741455078125,0.16278076171875,0.972900390625,8.49365234375,-2.654266357421875,0.25421142578125,1,1.0,1.0,1.0,1.0,100.00
2021-04-27 16:06:22.202,0.6286439,0.30699015,-0.01125017,0.754576,0.47487673,-0.076690726,0.09746481,0.5568074,0.6462073,0.43946877,0.43403542,0.49689704,0.714051,0.72146004,0.13586551,0.7295602,0.36767417,0.4004395,-0.35063905,0.42258272,698.2784,795.78754,801.02563,767.98535,684.17584,0.040771484375,0.28692626953125,0.9903564453125,13.68255615234375,-7.357177734375,11.761016845703125,1,1.0,1.0,1.0,1.0,100.00
2021-04-27 16:06:22.712,0.87209886,0.3901599,0.16739514,0.7464634,0.40963557,-0.17772403,0.01731,0.5021002,0.6462073,0.3062624,0.22759025,0.5109557,0.6795076,0.704954,0.08689578,0.7078644,0.34461182,0.43133712,-0.40395755,0.4356891,773.22345,774.43225,790.9524,797.3993,985.56775,0.08184814453125,0.25360107421875,0.974365234375,4.74029541015625,-4.194488525390625,4.508514404296875,1,1.0,1.0,1.0,1.0,100.00
2021-04-27 16:06:23.221,0.90127265,0.3399481,0.28643852,0.7403606,0.33467814,0.015238447,-0.01590718,0.4783194,0.7227388,0.53521,0.012466789,0.47700772,0.7192841,0.64533794,-0.021759216,0.7297741,0.34473118,0.46156296,-0.4441316,0.40765253,832.4542,832.8571,801.4286,796.5934,775.64105,0.0718994140625,0.2291259765625,0.9659423828125,6.198272705078125,-6.407623291015625,3.162689208984375,1,1.0,1.0,1.0,1.0,100.00
2021-04-27 16:06:23.723,1.1686246,0.41431707,0.23165311,0.73315954,0.6146131,0.08784549,0.04005309,0.3970842,0.8736144,0.53309226,0.14706461,0.26797912,0.7037376,0.5043408,-0.014172493,0.6707258,0.41083425,0.44249293,-0.5530738,0.45586976,861.8681,792.5641,805.8608,844.1392,802.23444,0.0699462890625,0.20758056640625,0.967041015625,3.75335693359375,-4.687957763671875,-2.49725341796875,1,1.0,1.0,1.0,1.0,100.00
2021-04-27 16:06:24.229,1.2070243,0.31519657,0.13636065,0.7845665,0.7405022,0.11585242,-0.05866784,0.34715536,0.8736144,0.5008348,0.16828759,0.24168535,0.74992454,0.54425836,0.042463295,0.69417524,0.46591297,0.3845301,-0.60120875,0.47787353,714.7985,753.47986,833.663,767.98535,708.3516,0.03985595703125,0.21148681640625,0.99835205078125,2.594451904296875,-4.844970703125,2.833709716796875,1,1.0,1.0,1.0,1.0,100.00
2021-04-27 16:06:24.736,1.4328967,0.38206863,0.62476665,0.7845665,0.9959981,0.0106386095,0.17328854,0.34715536,0.8736144,0.31185618,0.32153845,0.24168535,0.7243567,0.5643624,0.04981061,0.69417524,0.5634501,0.31979683,-0.55288225,0.47787353,855.42126,818.7546,807.0696,806.6667,855.0183,0.08978271484375,0.19793701171875,0.9915771484375,3.970184326171875,-6.81884765625,15.080718994140625,1,1.0,1.0,1.0,1.0,100.00
2021-04-27 16:06:25.243,1.4328967,0.30419376,0.77086174,0.7845665,0.9959981,-0.012814211,0.20154181,0.34715536,0.8736144,0.049333826,0.29494777,0.24168535,0.7243567,0.683287,0.061100382,0.69417524,0.5634501,0.2446732,-0.5247825,0.47787353,849.3773,797.8022,801.4286,823.5897,752.27106,0.096923828125,0.19342041015625,0.9774169921875,5.18890380859375,-2.938385009765625,6.8487548828125,1,1.0,1.0,1.0,1.0,100.00
2021-04-27 16:06:25.760,1.4328967,0.2693771,0.75908595,0.7845665,0.9959981,0.012791294,0.21569304,0.34715536,0.8736144,-0.014348871,0.29469088,0.24168535,0.7243567,0.6907069,0.043430768,0.69417524,0.5634501,0.25705954,-0.2933723,0.47787353,749.0476,805.8608,807.47253,772.8205,656.3736,0.09295654296875,0.208251953125,0.98162841796875,4.448699951171875,-4.71038818359375,1.33087158203125,1,1.0,1.0,1.0,1.0,100.00
2021-04-27 16:06:26.291,0.06974825,-0.1264376,0.21640536,-0.23314366,0.15452906,-0.12341555,-0.17936197,-0.085110456,0.14308201,0.19382586,0.2153948,0.51215,0.46118224,0.7499592,0.13049954,0.6001183,0.49273974,0.48467308,-0.28243184,0.45043817,812.3077,805.8608,801.8315,792.5641,745.42126,0.0989990234375,0.18310546875,0.973876953125,4.80010986328125,-6.77398681640625,0.2093505859375,1,1.0,1.0,1.0,1.0,100.00
2021-04-27 16:06:26.818,0.2262119,0.059709135,0.14345062,0.081606895,0.22167888,-0.15515037,-0.06963061,-0.0903049,0.49167892,0.22492427,0.27235436,0.51215,0.53268844,0.72857475,0.09846146,0.6377162,0.43131334,0.42177793,-0.2986946,0.396223,736.1539,761.53845,788.93774,789.7436,926.337,0.09869384765625,0.1885986328125,0.9798583984375,3.2000732421875,-10.15350341796875,-0.58319091796875,1,1.0,1.0,1.0,1.0,100.00
2021-04-27 16:06:27.319,0.6361187,0.41037348,0.4170477,0.08087405,0.47528464,0.037741516,0.14574546,-0.032561347,0.69235235,0.44232902,0.34847245,0.49839765,0.61280686,0.7093454,0.10025936,0.6339499,0.4063941,0.32579407,-0.33150843,0.33894107,743.4066,801.8315,799.81683,763.5531,734.94507,0.14093017578125,0.1663818359375,0.962646484375,3.22998046875,-4.66552734375,-0.19439697265625,1,1.0,1.0,1.0,1.0,100.00
2021-04-27 16:06:27.837,0.8254553,0.50915897,0.6440373,0.4541909,0.592004,0.08360123,0.2977093,0.06036241,0.69235235,0.45995018,0.41499195,0.28870568,0.7075629,0.6638951,0.028710617,0.75005037,0.35216558,0.37637168,-0.31586766,0.3450093,862.674,813.1135,811.0989,826.8132,769.19415,0.09661865234375,0.13812255859375,0.98583984375,3.60382080078125,-1.18133544921875,3.0804443359375,1,1.0,1.0,1.0,1.0,100.00
2021-04-27 16:06:28.346,1.0122148,0.6294014,0.77902293,0.81429183,0.7143994,0.21460117,0.37533438,0.7603752,0.69235235,0.45995018,0.41383907,0.72242016,0.7720442,0.64264,0.032269113,0.793492,0.37477732,0.42520177,-0.2952344,0.5545449,718.8278,793.36993,783.69965,757.9121,732.9304,0.042724609375,0.13775634765625,0.97650146484375,3.0804443359375,-0.022430419921875,-0.246734619140625,1,1.0,1.0,1.0,1.0,100.00
2021-04-27 16:06:28.872,1.0122148,0.4434841,0.88398093,0.8119599,0.7143994,0.15150157,0.39731425,0.84459853,0.69235235,0.4320398,0.3571956,0.8281098,0.7720442,0.6252342,0.02152951,0.90961504,0.37477732,0.45754856,-0.27981257,0.4371827,738.1685,819.9634,797.3993,754.68866,664.0293,0.0826416015625,0.15472412109375,0.98553466796875,4.85992431640625,-5.540313720703125,0.6280517578125,1,1.0,1.0,1.0,1.0,100.00
2021-04-27 16:06:29.398,1.0122148,0.4434841,0.8928141,0.84168917,0.7143994,0.15150157,0.40684593,0.9008283,0.69235235,0.4320398,0.016071849,0.82276267,0.7720442,0.6252342,0.011579221,0.9321866,0.37477732,0.45754856,-0.22037965,0.37477794,709.15753,793.7729,788.5348,739.3773,657.5824,0.03643798828125,0.14044189453125,0.98846435546875,2.97576904296875,-1.62994384765625,-2.175750732421875,1,1.0,1.0,1.0,1.0,100.00
2021-04-27 16:06:29.927,1.0122148,0.54423153,0.7753217,0.80843836,0.7143994,0.39632306,0.17979686,0.9464928,0.69235235,0.14820766,0.07498265,0.7337889,0.7720442,0.6819394,0.13044778,1.0405694,0.37477732,0.14930773,-0.19000147,0.16520236,786.9231,803.8461,800.2198,770.0,746.63007,0.03326416015625,0.16741943359375,0.97943115234375,8.770294189453125,-3.446807861328125,7.65625,1,1.0,1.0,1.0,1.0,100.00
2021-04-27 16:06:30.434,1.0440822,0.5263646,0.7508889,0.80843836,1.0199206,0.2866558,0.09358173,0.9464928,0.8003489,0.23679608,0.27272508,0.7337889,0.62094164,0.66127324,0.20774104,1.0405694,0.3887393,0.23705581,-0.28126055,0.16520236,786.1172,799.011,793.36993,801.8315,734.1392,0.07733154296875,0.18634033203125,0.990966796875,6.20574951171875,-4.299163818359375,0.5682373046875,1,1.0,1.0,1.0,1.0,100.00
2021-04-27 16:06:30.943,1.0440822,0.49468568,0.64459157,0.80843836,1.0199206,0.25156602,0.26885334,0.9464928,0.8003489,0.24186136,0.60097086,0.7337889,0.62094164,0.6115303,0.26395664,1.0405694,0.3887393,0.2681527,-0.2934232,0.16520236,850.58606,813.91943,815.5311,841.7216,819.15753,0.08294677734375,0.16229248046875,0.96893310546875,4.598236083984375,-6.437530517578125,1.128997802734375,1,1.0,1.0,1.0,1.0,100.00
2021-04-27 16:06:31.468,1.0440822,0.40856364,0.58823425,0.80843836,1.0199206,0.14446403,0.3362723,0.9464928,0.8003489,0.30047104,0.60266346,0.7337889,0.62094164,0.6179065,0.28252694,1.0405694,0.3887393,0.22654293,-0.3665951,0.16520236,724.87177,799.81683,795.78754,751.06226,695.4579,0.09967041015625,0.1806640625,0.98492431640625,4.164581298828125,-4.65057373046875,1.65985107421875,1,1.0,1.0,1.0,1.0,100.00
2021-04-27 16:06:31.982,0.01964652,0.31680697,0.35550213,0.80843836,0.16875347,0.14314456,0.32454494,0.9464928,0.59227586,0.26684767,0.5902429,0.7337889,0.5457633,0.6111612,0.21117081,1.0405694,0.25838885,0.20308276,-0.27783826,0.16520236,719.6337,782.8938,793.7729,762.74725,739.7802,0.06500244140625,0.17205810546875,0.9813232421875,4.852447509765625,-3.132781982421875,1.323394775390625,1,1.0,1.0,1.0,1.0,100.00
2021-04-27 16:06:32.511,-0.015905323,0.13396972,0.112095706,0.59632874,0.08178327,0.10543035,-0.010548142,0.21038814,0.6773634,0.43448195,0.47065684,0.30882815,0.5814437,0.70962316,0.13417432,0.7171882,0.22758423,0.15310906,-0.30051267,0.24644104,898.5348,762.3443,794.9817,870.7326,1065.348,0.08587646484375,0.16619873046875,0.97442626953125,5.959014892578125,-4.867401123046875,0.34393310546875,1,1.0,1.0,1.0,1.0,100.00
2021-04-27 16:06:33.018,-0.015905323,0.10078371,0.1792004,0.59632874,0.08178327,0.23544374,0.2452474,0.21038814,0.6773634,0.6069225,0.4472273,0.30882815,0.5814437,0.69330114,0.15487786,0.7171882,0.22758423,0.3510414,-0.26256526,0.24644104,772.01465,799.81683,802.23444,781.28204,728.0952,0.07879638671875,0.18170166015625,0.98370361328125,5.899200439453125,-6.9384765625,1.487884521484375,1,1.0,1.0,1.0,1.0,100.00
2021-04-27 16:06:33.529,-0.050326962,0.09134394,0.25518233,0.6572998,-0.072194114,0.21362533,0.3249067,0.29682297,0.61257535,0.5783067,0.42037836,0.26489526,0.62650335,0.7580376,0.16030593,0.62668973,0.20619565,0.4287451,-0.23652066,0.16037065,794.9817,792.1612,807.47253,803.44324,688.20514,0.0977783203125,0.18304443359375,0.988037109375,4.18701171875,-4.844970703125,1.18133544921875,1,1.0,1.0,1.0,1.0,100.00
2021-04-27 16:06:34.032,0.5080591,0.12038363,0.28686208,0.6572998,0.36823598,0.2072133,0.41232455,0.29682297,0.102077775,0.57117754,0.48621523,0.26489526,0.4349546,0.7342773,0.15008347,0.62668973,0.4963602,0.5326304,-0.25151616,0.16037065,696.26373,796.1905,796.99634,757.9121,709.5604,0.0887451171875,0.18756103515625,0.99578857421875,5.929107666015625,-4.17205810546875,0.8074951171875,1,1.0,1.0,1.0,1.0,100.00
2021-04-27 16:06:34.537,0.47802696,-0.0068600783,-0.0018301869,0.32908532,0.46337223,0.02506797,0.20623946,-0.03741882,0.24843056,0.351152,0.3116574,0.33022505,0.5194481,0.73337096,0.08452806,0.66265553,0.40368655,0.5553911,-0.2896282,0.54927367,753.47986,822.381,796.99634,752.674,692.23444,0.08740234375,0.19561767578125,0.98565673828125,5.323486328125,-4.7552490234375,4.6954345703125,1,1.0,1.0,1.0,1.0,100.00
2021-04-27 16:06:35.059,0.5487682,-0.03784719,-0.016246995,0.35803527,0.4810042,0.0072779953,0.0974331,0.15588546,0.8018287,0.29116613,0.27577913,0.44601542,0.48723796,0.6684522,0.07534729,0.6698567,0.37473917,0.48584524,-0.40263352,0.50368726,807.0696,783.2967,799.41394,811.50183,785.7143,0.068359375,0.162353515625,0.97625732421875,0.889739990234375,-4.17205810546875,-0.396270751953125,1,1.0,1.0,1.0,1.0,100.00
2021-04-27 16:06:35.566,0.72982293,0.31856394,0.67971724,0.24800287,0.59915715,0.05310347,0.31720132,0.2867726,0.89939797,0.21332383,0.40184167,0.4010144,0.4862953,0.614625,0.12255045,0.71635693,0.3223026,0.3934873,-0.37654668,0.36492127,864.2857,815.9341,809.89014,819.5604,785.7143,0.08935546875,0.13824462890625,0.98681640625,4.05242919921875,-5.66741943359375,5.555267333984375,1,1.0,1.0,1.0,1.0,100.00
2021-04-27 16:06:36.081,0.88966846,0.4441103,1.0543977,0.59652734,0.6219361,0.14795844,0.57467747,0.6018571,0.96704614,0.14491284,0.43490285,0.7216287,0.5010499,0.58303154,0.10191537,0.6998246,0.371121,0.33431876,-0.39423007,0.49436375,739.3773,832.8571,787.326,734.94507,640.65936,0.0950927734375,0.1282958984375,0.98907470703125,2.73651123046875,-3.147735595703125,4.658050537109375,1,1.0,1.0,1.0,1.0,100.00
2021-04-27 16:06:36.589,0.7645565,0.69098556,1.2977214,0.8025591,0.3394752,0.30450022,0.7883943,0.6392383,0.7275834,-0.07192996,0.6218723,0.71278524,0.62035406,0.50161624,0.09447084,0.74150115,0.15984774,0.30893847,-0.43000147,0.44885927,695.05493,786.9231,789.34064,732.9304,670.4762,0.09613037109375,0.127197265625,0.99005126953125,3.730926513671875,-6.08612060546875,-2.22808837890625,1,1.0,1.0,1.0,1.0,100.00
2021-04-27 16:06:37.113,0.74906874,0.69098556,1.381735,0.7926507,0.32375434,0.30450022,0.8343626,0.6467238,0.7275834,-0.07192996,0.6228182,0.7248339,0.6108763,0.50161624,0.03907774,0.69866854,0.16916826,0.30893847,-0.41990793,0.4705113,751.4652,753.47986,804.2491,807.47253,920.293,0.10784912109375,0.11151123046875,0.98736572265625,3.99261474609375,-1.734619140625,2.639312744140625,1,1.0,1.0,1.0,1.0,100.00
2021-04-27 16:06:37.620,0.68186706,0.69098556,1.1787075,0.85815305,0.24476843,0.30450022,0.6486921,0.6134393,0.71514696,-0.07192996,0.62969506,0.7255492,0.5711879,0.50161624,0.10191929,0.79116154,0.14844456,0.30893847,-0.31628317,0.5760987,832.0513,814.7253,813.5165,796.5934,842.9304,0.12164306640625,0.11810302734375,0.9844970703125,4.015045166015625,-6.44500732421875,1.637420654296875,1,1.0,1.0,1.0,1.0,100.00
2021-04-27 16:06:38.128,0.6242181,0.6554037,1.0013458,0.84919494,0.112877235,0.23444325,0.47782356,0.6096491,0.41750208,0.41894612,0.590846,0.67813706,0.44368416,0.6112853,0.16957717,0.7990425,0.11990475,0.38950112,-0.2938389,0.6163417,896.1172,811.0989,810.696,854.21246,777.25275,0.1256103515625,0.12408447265625,0.99212646484375,4.538421630859375,-4.88983154296875,1.128997802734375,1,1.0,1.0,1.0,1.0,100.00
2021-04-27 16:06:38.638,0.6242181,0.5111966,-0.05055103,0.88099104,0.112877235,0.116662495,-0.10924823,0.55571043,0.41750208,0.46897694,0.28352624,0.6090819,0.44368416,0.70163256,0.22300708,0.9178244,0.11990475,0.41046286,-0.34831774,0.66433007,795.78754,800.6227,800.6227,798.60803,765.16486,0.1063232421875,0.13079833984375,0.9798583984375,6.452484130859375,-3.626251220703125,-0.575714111328125,1,1.0,1.0,1.0,1.0,100.00
2021-04-27 16:06:39.145,0.6242181,0.350097,0.04703276,1.1148547,0.112877235,0.22860311,0.0070949136,0.7412981,0.41750208,0.5857548,0.25685078,0.71509343,0.44368416,0.7370627,0.2640172,0.78984934,0.11990475,0.3429127,-0.33585235,0.2985432,686.1905,815.9341,795.38464,736.55676,728.9011,0.11846923828125,0.146240234375,0.9927978515625,3.0206298828125,-5.719757080078125,-2.041168212890625,1,1.0,1.0,1.0,1.0,100.00
2021-04-27 16:06:39.667,0.9451747,0.39115268,0.10398426,1.3257753,0.83352095,0.1750591,0.06913455,0.873913,0.75411767,0.5841983,0.2484983,0.7285971,0.6497751,0.72553784,0.19528422,0.7473855,0.19938405,0.31201482,-0.27132428,0.27623135,880.0,817.1429,820.7692,829.6337,790.14655,0.12005615234375,0.16082763671875,0.9881591796875,5.166473388671875,-6.302947998046875,1.71966552734375,1,1.0,1.0,1.0,1.0,100.00
2021-04-27 16:06:40.182,0.79701144,0.37918136,0.36624333,1.2520272,0.7940536,0.19630894,0.18839441,0.8421707,0.8224251,0.548173,0.38394833,0.76052344,0.76442647,0.66540575,0.34081325,0.71441156,0.44386765,0.21562384,-0.010378518,0.33405194,793.36993,779.2674,812.71063,755.09155,836.4835,0.10565185546875,0.141357421875,0.98626708984375,4.149627685546875,-3.611297607421875,-0.022430419921875,1,1.0,1.0,1.0,1.0,100.00
2021-04-27 16:06:40.703,0.79701144,0.34949413,0.4072915,1.2120101,0.7940536,-0.054497182,0.1788656,0.8101238,0.8224251,0.26981023,0.31340528,0.6931064,0.76442647,0.6172763,0.34432712,0.6948513,0.44386765,0.15296058,0.0646325,0.35166034,1083.0769,838.49817,787.72894,1031.0989,711.978,0.09796142578125,0.14764404296875,0.99041748046875,4.329071044921875,-5.061798095703125,-1.7645263671875,1,1.0,1.0,1.0,1.0,100.00
2021-04-27 16:06:41.204,0.6261472,0.33288053,0.52162164,1.1714864,0.75967515,-0.1363733,0.22048765,0.78854954,0.7934207,0.018470276,0.22202778,0.58016896,0.8383713,0.55959463,0.4741278,0.6574515,0.57238847,0.15457466,0.17254387,0.39926252,744.21246,777.6557,786.52014,764.35895,734.5421,0.084228515625,0.14068603515625,0.98748779296875,4.4561767578125,-4.6954345703125,-2.788848876953125,1,1.0,1.0,1.0,1.0,100.00
2021-04-27 16:06:41.708,0.5877107,0.33288053,0.77466923,1.1714864,0.7576795,-0.1363733,0.26016837,0.78854954,0.7870296,0.018470276,0.23868114,0.58016896,0.8648957,0.55959463,0.107563525,0.6574515,0.6054543,0.15457466,-0.30227256,0.39926252,693.8461,795.78754,799.81683,734.94507,755.89746,0.080810546875,0.1474609375,0.98040771484375,7.37213134765625,-5.316009521484375,6.003875732421875,1,1.0,1.0,1.0,1.0,100.00
2021-04-27 16:06:42.231,0.5877107,0.039023258,0.50734776,1.1714864,0.7576795,-0.23195654,0.048021134,0.78854954,0.7870296,0.067028366,0.26051632,0.58016896,0.8648957,0.62566906,0.07427622,0.6574515,0.6054543,0.33502492,-0.34142527,0.39926252,871.53845,814.3223,801.02563,827.2161,840.9158,0.092529296875,0.1484375,0.9775390625,3.63372802734375,-4.05242919921875,1.428070068359375,1,1.0,1.0,1.0,1.0,100.00
2021-04-27 16:06:42.761,0.508606,0.12958421,0.443034,0.6019728,-0.10339581,-0.23682949,0.049499724,0.30500808,0.45725054,0.12110112,0.26051632,0.25341567,0.5902313,0.56396997,0.0055671968,0.6177372,0.32857293,0.30176422,-0.3340725,0.48279962,881.2088,809.4872,812.3077,846.9597,816.337,0.11993408203125,0.15521240234375,0.9901123046875,3.828125,-5.562744140625,3.050537109375,1,1.0,1.0,1.0,1.0,100.00
2021-04-27 16:06:43.271,0.5527048,0.14568046,0.16115044,0.49368683,0.08507373,-0.047395807,-0.002108966,0.13440834,0.5482493,0.23710018,-0.0028511726,0.5399097,0.51863,0.595413,-0.01773103,0.6003654,0.3818387,0.28805748,-0.31700894,0.40280148,848.1685,808.68134,808.2784,826.4103,796.5934,0.12506103515625,0.1224365234375,0.98577880859375,4.194488525390625,-3.60382080078125,1.069183349609375,1,1.0,1.0,1.0,1.0,100.00
2021-04-27 16:06:43.793,0.5594682,0.26048648,0.15955184,0.4709059,0.17414649,1.3479221E-4,-0.004460878,0.0634673,0.64116925,0.3715939,-0.033456083,0.5764518,0.4652037,0.5757336,0.046670914,0.6135386,0.36498237,0.25236946,-0.3273233,0.37015453,751.8681,796.5934,796.1905,786.1172,762.3443,0.10162353515625,0.111328125,0.99029541015625,3.45428466796875,-2.28790283203125,-1.069183349609375,1,1.0,1.0,1.0,1.0,100.00
2021-04-27 16:06:44.300,0.5463362,0.18238191,0.2735079,0.18525814,0.27111813,0.08495806,0.06375642,-0.37378883,0.6130787,0.40368086,-0.024575988,0.56314206,0.39444634,0.5880974,0.09826818,0.5989909,0.39145607,0.35577017,-0.33941343,0.283241,711.5751,790.14655,795.78754,740.18317,724.87177,0.11212158203125,0.13427734375,0.98309326171875,5.809478759765625,-5.9814453125,1.039276123046875,1,1.0,1.0,1.0,1.0,100.00
2021-04-27 16:06:44.832,0.38073486,0.07364994,0.28189847,-0.037309237,0.28974277,0.07063543,0.0065911966,-0.43180504,0.63442594,0.4008215,0.25579646,0.56314206,0.3799607,0.5533134,0.060132325,0.6045936,0.2526939,0.39572003,-0.39044583,0.33580297,804.65204,815.5311,800.2198,790.54944,743.4066,0.1060791015625,0.1240234375,0.98797607421875,4.403839111328125,-5.016937255859375,1.188812255859375,1,1.0,1.0,1.0,1.0,100.00
2021-04-27 16:06:45.355,0.42039707,-0.21326801,0.33743036,0.777967,0.13838102,0.057273243,0.15884005,0.70514554,0.6501245,0.2814914,0.4703588,0.7028631,0.49531984,0.54266065,0.042906567,0.53159314,0.16380833,0.4526858,-0.31510854,0.35047546,902.1612,794.9817,794.9817,856.63007,898.5348,0.1151123046875,0.12017822265625,0.9833984375,4.246826171875,-5.45806884765625,1.188812255859375,1,1.0,1.0,1.0,1.0,100.00
2021-04-27 16:06:45.859,0.47578925,-0.07385852,0.2427889,0.6192537,0.34872517,0.040533993,0.12125136,0.6642256,0.9548683,0.23422912,0.46177626,0.78998953,0.6665235,0.51621646,0.10679045,0.6477291,0.1037518,0.28268823,-0.34599748,0.19412518,832.0513,818.3516,802.23444,810.293,785.31134,0.12371826171875,0.10052490234375,0.989501953125,3.30474853515625,-4.8150634765625,-2.093505859375,1,1.0,1.0,1.0,1.0,100.00
2021-04-27 16:06:46.368,0.5083905,0.06997462,0.14211605,0.5310387,0.626272,0.35525736,0.3385228,0.8981287,1.1025959,0.3537235,0.5467744,1.2600025,0.70602995,0.54983115,0.12740059,0.7442973,0.12594618,0.17737989,-0.35649326,0.13425425,702.3077,799.41394,796.1905,751.8681,636.2271,0.10528564453125,0.11090087890625,0.984619140625,3.745880126953125,-4.613189697265625,1.816864013671875,1,1.0,1.0,1.0,1.0,100.00
2021-04-27 16:06:46.875,0.57120675,0.07195937,0.059812233,0.49410132,0.6935649,0.4408809,0.33417287,0.86710846,1.1144407,0.40789652,0.46925044,1.2607613,0.7361456,0.5502703,0.061638806,0.7950684,0.22322424,0.06704247,-0.3999162,0.21599835,765.16486,776.04395,806.26373,794.17584,986.77655,0.1033935546875,0.1072998046875,0.98748779296875,4.134674072265625,-3.850555419921875,0.829925537109375,1,1.0,1.0,1.0,1.0,100.00
2021-04-27 16:06:47.380,0.48935837,0.11970178,0.011360735,0.4753034,0.6055037,0.41841686,0.39875147,0.8244003,1.1037279,0.4022431,0.43884018,1.2607613,0.6639914,0.60345757,5.167613E-4,0.74060476,0.2792546,0.18448247,-0.37462685,0.33460128,843.73627,813.1135,811.9048,822.381,923.5165,0.11346435546875,0.1051025390625,0.9896240234375,4.844970703125,-5.704803466796875,-0.515899658203125,1,1.0,1.0,1.0,1.0,100.00
2021-04-27 16:06:47.886,0.3963573,0.13607344,0.051281095,0.36242145,0.2601527,0.0998062,0.23379494,0.27389488,0.8807247,0.37847492,0.42849478,1.1222488,0.6391409,0.5925753,0.0105290925,0.6399078,0.32277793,0.24267069,-0.360762,0.39567074,883.6264,819.5604,805.8608,848.1685,838.0952,0.0982666015625,0.10150146484375,0.99578857421875,4.23187255859375,-4.179534912109375,2.1234130859375,1,1.0,1.0,1.0,1.0,100.00
2021-04-27 16:06:48.403,0.16285004,0.12000323,-0.03267192,0.010898203,0.1176006,-0.15901949,0.16529846,0.21211353,0.7057009,0.35460657,0.24102417,0.4477679,0.57803446,0.61862093,0.017788026,0.6012508,0.25134337,0.2807061,-0.391948,0.3121255,788.5348,805.05493,805.8608,788.93774,697.8755,0.095703125,0.101806640625,0.99169921875,3.45428466796875,-5.196380615234375,-0.2093505859375,1,1.0,1.0,1.0,1.0,100.00
2021-04-27 16:06:48.924,0.33823416,0.035959955,-0.08964649,0.526216,0.48262262,-0.26660648,-0.07934687,0.46880588,0.64220196,0.27280375,0.21753655,0.5416307,0.5496297,0.592802,-0.02687619,0.60733026,0.20203912,0.21635681,-0.39854625,0.22921893,829.2308,801.02563,799.011,805.4579,861.06226,0.11688232421875,0.1015625,0.97369384765625,5.81695556640625,-4.23187255859375,3.529052734375,1,1.0,1.0,1.0,1.0,100.00
2021-04-27 16:06:49.436,0.39576295,0.024124242,0.0068971757,0.65527797,0.5745339,-0.28938377,-0.16330127,0.5893478,0.5137681,0.2902166,0.055234794,0.5378561,0.50552505,0.5621411,-0.101150386,0.6043581,0.12097415,0.23997846,-0.39352652,0.1843928,1014.17584,813.1135,793.36993,961.79486,864.68866,0.09857177734375,0.086181640625,0.9830322265625,3.6187744140625,-3.028106689453125,-1.398162841796875,1,1.0,1.0,1.0,1.0,100.00
2021-04-27 16:06:49.944,0.53769267,0.11241081,0.101113476,0.8781479,0.7328082,-0.31300154,-0.22160904,0.72887886,0.4011199,0.21801859,-0.24077536,0.5276921,0.53705764,0.5200502,-0.16784005,0.5866891,0.063470356,0.18199319,-0.36216033,0.1200613,699.89014,815.12823,800.2198,693.8461,760.7326,0.1058349609375,0.09759521484375,0.9840087890625,5.21881103515625,-3.985137939453125,2.250518798828125,1,1.0,1.0,1.0,1.0,100.00
2021-04-27 16:06:50.460,0.5358101,0.44154027,0.3159654,0.856979,0.7669264,0.008281519,0.13160758,0.7494334,0.4005287,0.08240791,0.2941358,0.49259654,0.566448,0.4499998,-0.12061798,0.6184265,0.055942975,0.2270554,-0.35726988,0.17948027,699.89014,801.8315,795.38464,731.7216,728.0952,0.09881591796875,0.09539794921875,0.98431396484375,3.551483154296875,-4.717864990234375,-1.1065673828125,1,1.0,1.0,1.0,1.0,100.00
2021-04-27 16:06:50.986,0.5358101,0.6327116,0.47516263,0.856979,0.7669264,0.368409,0.2851772,0.7494334,0.4005287,0.12025897,0.34878734,0.49259654,0.566448,0.3838809,0.066822425,0.6184265,0.055942975,0.11317291,-0.45236143,0.17948027,749.45056,790.9524,795.78754,765.16486,767.1795,0.07537841796875,0.0924072265625,0.98486328125,4.964599609375,-3.222503662109375,1.07666015625,1,1.0,1.0,1.0,1.0,100.00
2021-04-27 16:06:51.513,0.5358101,0.66548026,0.48140636,0.856979,0.7669264,0.34837672,0.15952325,0.7494334,0.4005287,0.4374381,0.39236864,0.49259654,0.566448,0.50348926,-0.0393578,0.6184265,0.055942975,0.1520739,-0.5836391,0.17948027,846.9597,818.3516,806.6667,819.15753,761.9414,0.0733642578125,0.0799560546875,1.00006103515625,3.715972900390625,-4.553375244140625,-2.5421142578125,1,1.0,1.0,1.0,1.0,100.00
2021-04-27 16:06:52.020,0.70632,0.7202648,0.49670604,1.0527833,0.79194814,0.32996374,0.023542207,0.93979007,1.015565,0.44611076,0.4242635,1.0458324,0.59261066,0.5746593,0.05084691,0.6970238,0.3315927,0.20621173,-0.62604606,0.4146439,789.7436,792.1612,805.05493,785.7143,703.91943,0.0980224609375,0.0804443359375,1.01043701171875,6.706695556640625,-3.028106689453125,1.00189208984375,1,1.0,1.0,1.0,1.0,100.00
2021-04-27 16:06:52.531,0.62761116,0.7047656,0.44350922,0.93990725,0.6944155,0.30865908,-0.09945028,0.89840543,1.015565,0.51093704,0.36440796,1.0687687,0.53769845,0.6116635,0.1003778,0.6564545,0.31662345,0.22216187,-0.5798439,0.39799732,790.54944,773.22345,804.2491,815.5311,932.381,0.08306884765625,0.086669921875,0.99530029296875,5.301055908203125,-6.0113525390625,4.20196533203125,1,1.0,1.0,1.0,1.0,100.00
2021-04-27 16:06:53.055,0.4679331,0.57442576,0.2935077,0.76030093,0.54919803,0.24789111,-0.1911699,0.78979725,1.0118747,0.53526235,0.3486321,1.0694089,0.53873944,0.57457805,0.17021854,0.6245177,0.31854203,0.24181418,-0.41877297,0.38381985,709.15753,804.65204,802.23444,751.8681,607.2161,0.07415771484375,0.084716796875,0.9918212890625,4.8150634765625,-4.3963623046875,1.293487548828125,1,1.0,1.0,1.0,1.0,100.00
2021-04-27 16:06:53.585,0.27274182,0.081183024,0.11355643,0.55660766,0.24646465,0.12369554,-0.26585403,0.5807786,0.630997,0.43211177,0.28215328,0.7771373,0.47330695,0.5249005,0.12333485,0.5864738,0.30871674,0.19834517,-0.3923803,0.35278925,789.7436,806.26373,802.6374,781.685,738.1685,0.08465576171875,0.0968017578125,0.99462890625,4.59075927734375,-4.88983154296875,2.79632568359375,1,1.0,1.0,1.0,1.0,100.00
2021-04-27 16:06:54.101,0.18999375,-0.046243753,0.11478403,0.517851,0.08329225,-0.029514713,0.07157008,0.37098694,0.5882918,0.37632984,0.5298986,0.7075924,0.4749213,0.536808,0.043025382,0.5857036,0.32864177,0.2412688,-0.44244328,0.3440802,728.49817,798.20514,803.0403,754.2857,688.60803,0.076904296875,0.0885009765625,0.9871826171875,4.179534912109375,-5.87677001953125,-1.368255615234375,1,1.0,1.0,1.0,1.0,100.00
2021-04-27 16:06:54.622,0.23514819,0.10473281,0.22411507,0.63552666,0.059947405,0.015355659,0.33231476,0.29503492,0.19099413,0.30033478,0.49078497,0.535099,0.39011347,0.5474033,0.01990621,0.61780876,0.28085795,0.23745076,-0.50261927,0.25390974,842.52747,807.8755,800.6227,814.7253,756.30035,0.06072998046875,0.10791015625,0.99713134765625,4.35150146484375,-3.701019287109375,3.8580322265625,1,1.0,1.0,1.0,1.0,100.00
2021-04-27 16:06:55.139,0.20397148,0.26301557,0.04589594,0.585595,0.02195027,0.11967623,0.31880844,0.24147788,0.052121956,0.28983596,0.53020567,0.5338805,0.39037463,0.5231503,-0.021741135,0.6318754,0.26310456,0.35423905,-0.49710065,0.20107983,896.52014,810.696,810.696,842.9304,847.3626,0.0894775390625,0.1143798828125,0.99407958984375,10.57220458984375,-8.20953369140625,-0.64300537109375,1,1.0,1.0,1.0,1.0,100.00
2021-04-27 16:06:55.658,0.8374775,0.30827177,0.039963372,1.0276259,1.1500019,0.14337483,0.20072494,1.1940398,0.78123504,0.30188158,0.5125346,0.83685315,0.5029179,0.54717857,-0.072293505,0.5535487,0.34464645,0.3806564,-0.484402,0.35598913,818.3516,812.3077,797.8022,802.6374,797.3993,0.0870361328125,0.1275634765625,0.98516845703125,3.267364501953125,-7.0281982421875,-2.908477783203125,1,1.0,1.0,1.0,1.0,100.00
2021-04-27 16:06:56.184,1.2154127,0.21184981,-0.069545016,1.0276259,1.1847514,0.0759117,-0.20036215,1.1940398,0.81532556,0.30960226,0.3458334,0.83685315,0.5203817,0.52874243,-0.07359922,0.5535487,0.2495775,0.34460872,-0.43971553,0.35598913,718.8278,796.5934,793.36993,747.03296,590.696,0.0814208984375,0.1224365234375,0.98675537109375,5.15899658203125,-5.046844482421875,0.336456298828125,1,1.0,1.0,1.0,1.0,100.00
2021-04-27 16:06:56.710,1.2508284,0.16205722,0.033588383,0.9485878,1.206021,0.04552636,-0.10605077,1.0997386,0.81532556,0.19702709,0.3321342,0.83685315,0.530589,0.56086403,0.02391242,0.64562005,0.23700634,0.24481374,-0.39168754,0.30157912,736.55676,774.0293,795.78754,764.7619,736.9597,0.112548828125,0.12896728515625,0.9979248046875,3.043060302734375,-6.20574951171875,-0.6878662109375,1,1.0,1.0,1.0,1.0,100.00
2021-04-27 16:06:57.216,1.078229,0.113958664,0.022628872,0.67852986,0.87705594,0.037760224,-0.05042194,0.41583958,0.80365855,0.14061448,-0.05617064,0.1622888,0.6607958,0.54949045,0.090927176,0.746322,0.11864863,0.08358556,-0.36179626,0.1344767,717.2161,799.81683,799.011,755.4945,631.79486,0.07891845703125,0.12310791015625,0.996826171875,3.760833740234375,-3.880462646484375,2.930908203125,1,1.0,1.0,1.0,1.0,100.00
2021-04-27 16:06:57.726,0.49377087,0.077294886,0.023797791,0.84322727,0.48639238,0.07643359,-0.056740906,0.3670241,0.7876219,0.12660114,0.13819478,0.640892,0.66106385,0.58405125,0.09933176,0.7091896,0.2659972,0.14157076,-0.41823292,0.23288679,799.81683,791.3553,804.2491,805.4579,779.2674,0.0950927734375,0.1318359375,0.99774169921875,4.366455078125,-4.94964599609375,0.6280517578125,1,1.0,1.0,1.0,1.0,100.00
2021-04-27 16:06:58.248,0.59968895,0.04021013,0.07492106,0.88842565,0.5262797,-6.09126E-4,-0.072065145,0.36838904,0.79176587,0.31048802,0.2843919,0.640892,0.647967,0.5695902,0.031111378,0.6858228,0.32620308,0.13418075,-0.41375965,0.2359813,775.64105,796.99634,805.05493,778.86444,804.65204,0.09063720703125,0.12652587890625,0.9935302734375,4.164581298828125,-4.972076416015625,-1.36077880859375,1,1.0,1.0,1.0,1.0,100.00
