TimeStamp,Delta_TP9,Delta_AF7,Delta_AF8,Delta_TP10,Theta_TP9,Theta_AF7,Theta_AF8,Theta_TP10,Alpha_TP9,Alpha_AF7,Alpha_AF8,Alpha_TP10,Beta_TP9,Beta_AF7,Beta_AF8,Beta_TP10,Gamma_TP9,Gamma_AF7,Gamma_AF8,Gamma_TP10,RAW_TP9,RAW_AF7,RAW_AF8,RAW_TP10,AUX_RIGHT,Accelerometer_X,Accelerometer_Y,Accelerometer_Z,Gyro_X,Gyro_Y,Gyro_Z,HeadBandOn,HSI_TP9,HSI_AF7,HSI_AF8,HSI_TP10,Battery,Elements
2021-04-28 11:19:23.077,0.664947,0.042905737,0.3041753,0.5136229,0.43558615,0.19395822,-0.14755741,0.4621254,0.48038846,0.47478727,0.081392914,0.3565507,0.4472843,0.2513906,0.30428636,0.6605017,0.2526373,0.029663105,-0.16701439,0.4248942,755.4945,790.54944,805.8608,752.674,807.47253,0.1588134765625,-0.05010986328125,0.990966796875,5.241241455078125,-4.523468017578125,1.607513427734375,1,1.0,1.0,1.0,1.0,95.00
2021-04-28 11:19:23.584,0.664947,0.03341358,0.24673179,0.5136229,0.43558615,0.05981554,-0.2064272,0.4621254,0.48038846,0.2065984,0.09254317,0.3565507,0.4472843,0.22398649,0.21341358,0.6605017,0.2526373,0.06052681,-0.08260684,0.4248942,843.3333,807.47253,817.1429,843.3333,834.4689,0.158935546875,-0.05078125,0.98919677734375,4.2169189453125,-3.192596435546875,1.697235107421875,1,1.0,1.0,1.0,1.0,95.00
2021-04-28 11:19:24.092,0.664947,0.072293706,0.26169986,0.5136229,0.43558615,0.20330624,-0.15127784,0.4621254,0.48038846,0.291726,0.31400818,0.3565507,0.4472843,0.25718647,0.20148095,0.6605017,0.2526373,0.030774023,-0.07434608,0.4248942,780.87915,788.93774,799.41394,775.2381,769.59705,0.12640380859375,-0.0125732421875,0.98760986328125,5.0543212890625,1.398162841796875,-8.26934814453125,1,2.0,1.0,1.0,2.0,95.00
2021-04-28 11:19:24.603,0.664947,0.7983724,0.85781044,0.5136229,0.43558615,0.5805912,0.6144383,0.4621254,0.48038846,0.7015247,0.8020259,0.3565507,0.4472843,0.3755274,0.14623679,0.6605017,0.2526373,-0.11824505,-0.117268175,0.4248942,873.5531,794.57874,826.4103,873.5531,921.50183,0.0487060546875,0.0147705078125,0.97149658203125,19.477081298828125,3.327178955078125,-12.56103515625,1,2.0,1.0,1.0,2.0,95.00
2021-04-28 11:19:25.117,0.664947,1.068198,1.0207924,0.5136229,0.43558615,0.80075014,0.8263406,0.4621254,0.48038846,0.90910774,0.8665418,0.3565507,0.4472843,0.41294405,0.22360966,0.6605017,0.2526373,-0.16561204,-0.085542604,0.4248942,512.9304,760.7326,874.7619,522.6007,698.68134,-0.030029296875,0.06683349609375,0.9852294921875,3.1103515625,9.428253173828125,1.173858642578125,1,2.0,1.0,1.0,2.0,95.00
2021-04-28 11:19:25.625,0.664947,1.1814176,1.1258895,0.5136229,0.43558615,0.9066883,0.95378053,0.4621254,0.48038846,0.917861,0.8665418,0.3565507,0.4472843,0.426805,0.2305985,0.6605017,0.2526373,-0.16767573,-0.10721373,0.4248942,790.54944,789.34064,792.96704,773.22345,775.64105,-0.1217041015625,0.1185302734375,0.999755859375,3.0206298828125,-1.936492919921875,5.9814453125,1,2.0,1.0,1.0,2.0,95.00
2021-04-28 11:19:26.138,0.664947,1.2222314,1.0557666,0.5136229,0.43558615,0.97057486,0.9451786,0.4621254,0.48038846,0.8659491,0.819908,0.3565507,0.4472843,0.39795128,0.29583696,0.6605017,0.2526373,-0.30882242,-0.1120573,0.4248942,859.0476,801.8315,813.1135,836.4835,845.7509,-0.1279296875,0.10888671875,0.99786376953125,3.058013916015625,-4.493560791015625,6.691741943359375,1,2.0,1.0,1.0,2.0,95.00
2021-04-28 11:19:26.657,0.664947,0.8682051,0.65304196,0.5136229,0.43558615,0.694955,0.55032146,0.4621254,0.48038846,0.77219754,0.5710426,0.3565507,0.4472843,0.24139413,0.32523254,0.6605017,0.2526373,-0.15950672,-0.19971135,0.4248942,790.54944,784.5055,836.4835,798.60803,737.3626,-0.107177734375,0.08984375,0.98809814453125,4.702911376953125,-8.86749267578125,4.486083984375,1,2.0,1.0,1.0,2.0,95.00
2021-04-28 11:19:27.160,0.664947,0.90978694,0.6562098,0.5136229,0.43558615,0.45390117,0.23677161,0.4621254,0.48038846,0.68163174,0.51734746,0.3565507,0.4472843,0.23938116,0.31867054,0.6605017,0.2526373,-0.039287183,-0.1391345,0.4248942,907.3993,807.8755,816.7399,878.3883,867.9121,-0.0662841796875,0.07769775390625,0.9931640625,1.278533935546875,-15.364837646484375,6.990814208984375,1,2.0,1.0,1.0,2.0,95.00
2021-04-28 11:19:27.670,0.664947,0.90978694,0.6730982,0.5136229,0.43558615,0.45390117,0.260181,0.4621254,0.48038846,0.68163174,0.55741495,0.3565507,0.4472843,0.23938116,0.32227677,0.6605017,0.2526373,-0.039287183,-0.20692503,0.4248942,722.4542,811.50183,803.8461,707.9487,697.8755,-0.027099609375,0.1011962890625,1.00030517578125,9.31610107421875,-6.228179931640625,-34.206390380859375,1,2.0,1.0,1.0,2.0,95.00
2021-04-28 11:19:28.189,0.664947,1.0505382,0.7971073,0.5136229,0.43558615,0.82195836,0.5975509,0.4621254,0.48038846,0.8119688,0.65900224,0.3565507,0.4472843,0.30980462,0.3348489,0.6605017,0.2526373,-0.05308288,-0.30616993,0.4248942,682.96704,784.10254,780.07324,696.26373,624.5421,-0.0582275390625,0.15264892578125,0.9925537109375,8.815155029296875,-3.132781982421875,-11.701202392578125,1,2.0,1.0,1.0,2.0,95.00
2021-04-28 11:19:28.712,0.664947,0.9141136,0.71134555,0.5136229,0.43558615,0.84393597,0.6554405,0.4621254,0.48038846,0.77967393,0.6540417,0.3565507,0.4472843,0.3599136,0.3208659,0.6605017,0.2526373,-0.05831389,-0.36149275,0.4248942,867.9121,799.011,811.9048,845.34796,890.4762,-0.07403564453125,0.16650390625,0.98675537109375,8.172149658203125,-4.94964599609375,-1.757049560546875,1,2.0,1.0,1.0,2.0,95.00
2021-04-28 11:19:29.238,0.664947,0.7937978,0.66663367,0.5136229,0.43558615,0.7307378,0.66638327,0.4621254,0.48038846,0.77967393,0.6266081,0.3565507,0.4472843,0.3579232,0.30229655,0.6605017,0.2526373,-0.09261064,-0.34658355,0.4248942,759.5238,802.23444,821.5751,774.83514,751.4652,-0.05096435546875,0.1943359375,0.980224609375,3.596343994140625,-6.048736572265625,11.417083740234375,1,2.0,1.0,1.0,2.0,95.00
2021-04-28 11:19:29.741,0.664947,0.41284892,0.64588434,1.5878229,0.43558615,0.35683504,0.56681013,1.2954801,0.48038846,0.5702273,0.625106,1.0809135,0.4472843,0.36577162,0.2770784,0.724114,0.2526373,-0.067919865,-0.28516683,0.22673614,823.5897,800.6227,798.60803,808.2784,888.0586,-0.07080078125,0.14794921875,0.9912109375,0.590667724609375,1.353302001953125,12.740478515625,1,1.0,1.0,1.0,1.0,95.00
2021-04-28 11:19:30.257,0.664947,0.09906544,0.7027583,1.5390183,0.43558615,0.13825074,0.52948314,1.3887078,0.48038846,-0.20393445,0.5087043,1.2549789,0.4472843,0.35290694,0.2701896,0.85774463,0.2526373,-0.19248003,-0.2978265,0.2343984,795.38464,790.14655,806.26373,785.7143,879.59705,-0.1060791015625,0.115234375,0.99041748046875,2.355194091796875,-2.03369140625,6.243133544921875,1,1.0,1.0,1.0,1.0,95.00
2021-04-28 11:19:30.762,1.262088,0.28932664,0.5138584,1.5229084,1.4529356,-0.21591742,0.26488665,1.3811302,1.1414075,0.17849316,0.49635604,1.2588311,1.0013709,0.17066254,0.15649022,0.8833256,-0.06449273,-0.14846748,-0.24622019,0.22040871,856.2271,811.50183,825.6044,857.8388,770.0,-0.1065673828125,0.147216796875,0.98193359375,0.351409912109375,-8.50860595703125,9.40582275390625,1,1.0,1.0,1.0,1.0,95.00
2021-04-28 11:19:31.271,1.262088,0.29255134,0.43189618,1.4602507,1.4529356,-0.11898297,0.08442878,1.4415091,1.1414075,0.26862657,0.24777517,1.1731198,1.0013709,0.31670746,0.1052191,0.9822322,-0.06449273,-0.20655628,-0.2892048,0.21506451,819.15753,813.1135,792.96704,804.65204,786.52014,-0.00433349609375,0.11376953125,1.0113525390625,5.51788330078125,-1.60003662109375,3.78326416015625,1,1.0,1.0,1.0,1.0,95.00
2021-04-28 11:19:31.786,1.262088,0.29255134,0.65656894,1.4468658,1.4529356,-0.11898297,0.5999717,1.4846463,1.1414075,0.26862657,0.56312495,1.1731198,1.0013709,0.31670746,0.1966205,1.0555067,-0.06449273,-0.20655628,-0.31049973,0.16538775,572.1612,728.0952,820.7692,608.8278,652.3443,-0.10467529296875,0.07208251953125,0.99072265625,-1.5850830078125,4.029998779296875,11.7236328125,1,1.0,1.0,1.0,1.0,95.00
2021-04-28 11:19:32.299,1.262088,0.29654887,0.86660135,1.4468658,1.4529356,-0.022053398,0.76901925,1.4846463,1.1414075,0.17122403,0.5993644,1.1731198,1.0013709,0.44927832,0.2742129,1.0555067,-0.06449273,-0.29215494,-0.24037574,0.16538775,732.9304,785.7143,793.7729,740.58606,675.31134,-0.12103271484375,0.0682373046875,0.9949951171875,2.73651123046875,-1.143951416015625,1.39068603515625,1,1.0,1.0,1.0,1.0,95.00
2021-04-28 11:19:32.827,1.262088,0.29654887,1.0007007,1.4468658,1.4529356,-0.022053398,0.8425989,1.4846463,1.1414075,0.17122403,0.5995891,1.1731198,1.0013709,0.44927832,0.26513585,1.0555067,-0.06449273,-0.29215494,-0.21449175,0.16538775,879.59705,782.8938,808.68134,865.89746,1085.4945,-0.16387939453125,0.0621337890625,0.9974365234375,4.246826171875,-5.4730224609375,1.68975830078125,1,1.0,1.0,1.0,1.0,95.00
2021-04-28 11:19:33.352,1.262088,0.62340593,0.86114824,1.4468658,1.4529356,0.46247867,0.5560015,1.4846463,1.1414075,0.043216404,0.4734982,1.1731198,1.0013709,0.317482,0.16839166,1.0555067,-0.06449273,-0.00984196,-0.2150494,0.16538775,882.01465,808.2784,821.1722,856.63007,888.46155,-0.11566162109375,0.02496337890625,0.9942626953125,3.7982177734375,-5.136566162109375,-2.9608154296875,1,2.0,1.0,1.0,2.0,95.00
2021-04-28 11:19:33.853,1.4907161,0.51211023,0.53053325,1.4468658,1.0062709,0.42839295,0.21057123,1.4846463,0.96675235,0.26218382,0.36823657,1.1731198,0.57480687,0.3914982,0.1412292,1.0555067,-0.039260946,-0.10631582,-0.27601457,0.16538775,734.5421,782.8938,802.23444,750.65936,579.011,-0.1162109375,0.0577392578125,0.9991455078125,5.630035400390625,-1.996307373046875,5.944061279296875,1,2.0,1.0,1.0,2.0,95.00
2021-04-28 11:19:34.364,1.5703777,0.6229294,0.33182418,1.0470428,1.3384603,0.34952435,0.21112195,1.0236219,1.2392718,0.33825353,0.578811,1.0736384,0.539952,0.38505816,0.30455446,0.5742611,0.02121347,-0.16433273,-0.279787,0.22868061,707.5458,771.6117,788.93774,730.10986,807.47253,-0.2003173828125,0.04052734375,0.97235107421875,5.301055908203125,2.40753173828125,1.428070068359375,1,1.0,1.0,1.0,1.0,95.00
2021-04-28 11:19:34.871,1.503342,0.62326944,0.38914353,0.7943835,1.2489111,0.24411106,0.15276247,0.8817355,1.2636545,0.37440076,0.5625104,1.0604898,0.5020246,0.40630135,0.3159263,0.6475086,0.08556024,-0.22034717,-0.24769825,0.17146216,810.293,797.3993,810.696,790.9524,786.52014,-0.2052001953125,0.03424072265625,0.97772216796875,4.74029541015625,-4.897308349609375,0.0897216796875,1,1.0,1.0,1.0,1.0,95.00
2021-04-28 11:19:35.378,1.3762673,0.6546205,0.3604947,0.96353537,1.1708572,0.1174655,0.12382494,0.79576486,1.2878448,0.3309006,0.5638342,1.0643207,0.5074146,0.38856685,0.3169209,0.68892986,0.15508778,-0.17894302,-0.23519114,0.21293233,957.76556,798.60803,825.6044,943.2601,952.52747,-0.18487548828125,0.051513671875,0.9794921875,4.568328857421875,-6.841278076171875,2.400054931640625,1,1.0,1.0,1.0,1.0,95.00
2021-04-28 11:19:35.892,1.0895635,0.6691297,0.29288945,1.0218852,0.66562784,0.3332299,-0.12414108,0.44332424,0.89321816,0.33518597,0.44123113,0.59007275,0.50585234,0.3310361,0.18475404,0.7184904,0.20354643,-0.19069883,-0.2805901,0.20809667,795.78754,778.86444,817.1429,801.4286,765.16486,-0.15087890625,0.0504150390625,0.99249267578125,4.35150146484375,-7.6263427734375,0.0299072265625,1,1.0,1.0,1.0,1.0,95.00
2021-04-28 11:19:36.405,1.0676123,0.6826978,0.11572215,1.198823,0.65027595,0.43372294,-0.13731968,0.4435295,0.8077255,0.31352776,0.42022163,0.59007275,0.54302317,0.279854,0.18891707,0.78570133,0.3019905,-0.20696673,-0.317432,0.29013497,699.0842,792.5641,799.81683,716.8132,568.1319,-0.1319580078125,0.0516357421875,0.991943359375,4.822540283203125,-2.70660400390625,0.52337646484375,1,1.0,1.0,1.0,1.0,95.00
2021-04-28 11:19:36.925,1.0676123,0.6502692,-0.05027629,1.198823,0.65027595,0.47378975,-0.14668286,0.4435295,0.8077255,0.30238277,0.42184243,0.59007275,0.54302317,0.19400509,0.21420746,0.78570133,0.3019905,-0.31982097,-0.3041681,0.29013497,749.85345,787.326,797.8022,745.0183,739.7802,-0.158935546875,0.05145263671875,0.99078369140625,4.972076416015625,-1.936492919921875,0.037384033203125,1,1.0,1.0,1.0,1.0,95.00
2021-04-28 11:19:37.431,0.36109972,0.20860472,-0.1416853,0.01926865,0.041453306,0.17034513,-0.21374911,0.050641004,-0.055440515,0.06047445,0.23003572,0.084580556,0.279171,0.2722702,0.24010162,0.56703854,-0.18221033,-0.32436347,-0.20121211,-0.08025089,789.34064,792.96704,804.65204,801.8315,695.4579,-0.19757080078125,0.06671142578125,0.9754638671875,5.72723388671875,-1.09161376953125,1.831817626953125,1,1.0,1.0,1.0,1.0,95.00
2021-04-28 11:19:37.942,0.3468921,0.062069155,-0.12863484,0.21890321,0.1167475,0.028266916,-0.090120226,0.3426152,0.075451724,0.1420447,0.14389575,0.3626276,0.43746924,0.3007026,0.26088148,0.63629955,-0.026740586,-0.29433244,-0.1733601,0.04698957,877.98535,797.3993,818.7546,863.8828,838.9011,-0.2159423828125,0.06134033203125,0.9730224609375,4.583282470703125,-5.802001953125,-0.49346923828125,1,1.0,1.0,1.0,1.0,95.00
2021-04-28 11:19:38.444,0.2487634,-0.0020029182,-0.07385513,0.17705642,0.12638801,0.049431168,-0.025705034,0.3615217,0.25252244,0.18569514,0.054999996,0.40990674,0.49285874,0.28033176,0.19701658,0.6678875,0.08738961,-0.27045745,-0.16335204,0.094699994,777.25275,779.2674,769.19415,785.31134,677.326,-0.20550537109375,0.05206298828125,0.97760009765625,1.697235107421875,-5.166473388671875,-1.495361328125,1,1.0,1.0,1.0,1.0,95.00
2021-04-28 11:19:38.956,0.29970124,0.07827739,0.13556708,0.28363714,0.19290541,0.09437296,0.0970251,0.48254654,0.24859026,0.16252033,0.05429526,0.4082415,0.5663486,0.254629,0.20151174,0.7369104,0.21388589,-0.16959421,-0.17318256,0.18277155,794.17584,791.3553,813.1135,786.9231,759.12085,-0.2293701171875,0.08087158203125,0.96746826171875,9.19647216796875,-14.774169921875,-6.4300537109375,1,1.0,1.0,1.0,1.0,95.00
2021-04-28 11:19:39.463,0.22758628,0.28605318,0.26359203,-0.08236477,0.15287174,0.09930586,0.10988263,0.31751475,0.12306247,0.33698758,0.099915005,0.23972869,0.5198912,0.21426298,0.12185052,0.78740275,0.3434723,-0.06458173,-0.18042968,0.18341534,940.0366,818.7546,811.0989,916.6667,842.9304,-0.0660400390625,0.10107421875,0.99810791015625,6.41510009765625,-25.61553955078125,-5.884246826171875,1,1.0,1.0,1.0,1.0,95.00
2021-04-28 11:19:39.969,0.22758628,0.41687506,0.267443,-0.08236477,0.15287174,0.123627126,0.3001861,0.31751475,0.12306247,0.3149541,0.10064451,0.23972869,0.5198912,0.2192391,0.2529611,0.78740275,0.3434723,-0.019514717,-0.31979436,0.18341534,812.71063,801.02563,819.5604,819.9634,796.99634,0.1134033203125,0.0626220703125,0.9833984375,1.981353759765625,-19.9481201171875,6.7889404296875,1,1.0,1.0,1.0,1.0,95.00
2021-04-28 11:19:40.475,0.22758628,0.58965707,0.18657875,-0.08236477,0.15287174,0.20526719,0.09932918,0.31751475,0.12306247,0.41299686,0.123082235,0.23972869,0.5198912,0.19835714,0.3236709,0.78740275,0.3434723,-0.008613644,-0.4242572,0.18341534,728.49817,796.5934,809.4872,727.28937,668.86444,0.11029052734375,-0.00689697265625,0.980712890625,4.74029541015625,4.83001708984375,5.06927490234375,1,1.0,1.0,1.0,1.0,95.00
2021-04-28 11:19:40.987,0.22758628,0.5166237,0.17571723,-0.08236477,0.15287174,0.38051412,0.054645304,0.31751475,0.12306247,0.40419346,0.30414078,0.23972869,0.5198912,0.24901226,0.32427442,0.78740275,0.3434723,-0.19073033,-0.41738942,0.18341534,767.1795,792.1612,795.38464,761.9414,844.1392,0.09759521484375,0.03094482421875,1.00555419921875,2.85614013671875,-1.36077880859375,1.2261962890625,1,2.0,1.0,1.0,2.0,95.00
2021-04-28 11:19:41.496,1.1119416,0.38299775,0.0957346,1.0950264,0.8616019,0.2370653,-0.32702276,1.1225172,0.8449274,0.39743268,0.34874657,0.81110597,0.41529605,0.2965914,0.3151251,0.48484385,-0.17320828,-0.1836488,-0.4426152,-0.06390753,840.9158,810.696,827.2161,831.2454,873.5531,0.0859375,0.02679443359375,1.00152587890625,4.62066650390625,-2.46734619140625,1.607513427734375,1,1.0,1.0,1.0,1.0,95.00
2021-04-28 11:19:42.011,0.9500285,0.23112798,-0.21078995,0.8611736,0.7042766,0.17236756,-0.33372036,0.9112671,0.84892124,0.3940976,0.32618085,0.8122955,0.5216035,0.31691712,0.24518664,0.56747717,-0.1701668,-0.17219344,-0.3897549,0.009806411,840.5128,804.2491,815.5311,833.2601,794.9817,0.09637451171875,0.03167724609375,1.00115966796875,6.332855224609375,-6.856231689453125,1.114044189453125,1,1.0,1.0,1.0,1.0,95.00
2021-04-28 11:19:42.536,0.60172945,0.18110082,-0.09715323,0.25201368,0.3637959,0.19982517,0.06085018,0.29116663,0.6482418,0.16586047,0.3616098,0.45118618,0.56166804,0.31065795,0.16310291,0.57114726,-0.17955767,-0.20860271,-0.39138713,1.5039976E-4,778.86444,794.57874,797.8022,765.56775,756.30035,0.0347900390625,0.0767822265625,0.9962158203125,10.706787109375,-2.071075439453125,-25.473480224609375,1,1.0,1.0,1.0,1.0,95.00
2021-04-28 11:19:43.048,0.49040002,0.61470413,0.59434927,-0.010426971,0.48393607,0.52943283,0.54617757,0.4306341,0.49857327,0.26788807,0.1928377,0.33796456,0.6465858,0.29443762,0.0570489,0.631891,-0.15958732,-0.18660328,-0.36590376,0.095478654,813.1135,788.5348,802.23444,838.0952,668.86444,-0.0322265625,0.1171875,0.99102783203125,2.9010009765625,-1.263580322265625,18.18359375,1,1.0,1.0,1.0,1.0,95.00
2021-04-28 11:19:43.560,0.47805285,0.8356631,0.74358684,-0.0466591,0.5644872,0.687795,0.68759084,0.4809715,0.46003804,0.26786715,0.07312439,0.2888488,0.65580356,0.24710043,-0.0087218,0.60850763,-0.15516883,-0.23786958,-0.36165732,0.09863732,936.8132,816.7399,819.15753,912.23444,662.4176,0.04150390625,0.12066650390625,0.9862060546875,2.983245849609375,-23.43231201171875,-0.381317138671875,1,1.0,1.0,1.0,1.0,95.00
2021-04-28 11:19:44.062,0.47805285,0.9124268,1.0044708,-0.0466591,0.5644872,0.72084916,0.86178684,0.4809715,0.46003804,0.26786715,-0.042967204,0.2888488,0.65580356,0.24501513,-0.042414002,0.60850763,-0.15516883,-0.24466723,-0.37703523,0.09863732,763.1502,802.6374,804.65204,770.0,711.1722,0.111083984375,0.05963134765625,0.9937744140625,2.6318359375,-0.76263427734375,4.605712890625,1,1.0,1.0,1.0,1.0,95.00
2021-04-28 11:19:44.564,0.47805285,0.9124268,0.4221892,-0.0466591,0.5644872,0.72084916,-0.13136783,0.4809715,0.46003804,0.26786715,0.07061679,0.2888488,0.65580356,0.24501513,0.013780322,0.60850763,-0.15516883,-0.24466723,-0.23585021,0.09863732,719.2308,796.5934,805.8608,728.9011,660.80585,0.11187744140625,0.04931640625,0.9864501953125,5.6524658203125,-2.743988037109375,5.465545654296875,1,1.0,1.0,1.0,1.0,95.00
2021-04-28 11:19:45.075,0.47805285,0.9124268,0.24910805,-0.0466591,0.5644872,0.72084916,-0.048336335,0.4809715,0.46003804,0.26786715,0.14485611,0.2888488,0.65580356,0.24501513,0.039378837,0.60850763,-0.15516883,-0.24466723,-0.11493353,0.09863732,813.5165,784.10254,796.5934,802.6374,971.8681,0.0953369140625,0.06878662109375,1.0018310546875,5.405731201171875,-4.8748779296875,1.981353759765625,1,2.0,1.0,1.0,2.0,95.00
2021-04-28 11:19:45.578,0.008292896,0.1843613,0.098767936,-0.14173542,-0.12266821,-0.32904726,-0.15398648,0.10963978,0.39821443,0.024089681,0.20582253,0.36099166,0.58027154,0.23521852,0.07678596,0.7086614,-0.16512397,-0.17618746,-0.1814498,0.06277501,859.0476,803.44324,814.7253,852.6007,855.0183,0.09393310546875,0.04193115234375,0.9971923828125,2.85614013671875,-5.196380615234375,0.650482177734375,1,1.0,1.0,1.0,1.0,95.00
2021-04-28 11:19:46.093,0.18517467,0.25967774,-0.09034224,0.06817106,0.031597096,-0.3245646,-0.1089797,0.30237365,0.4687175,0.08453552,0.1633939,0.42103654,0.507581,0.2531052,0.13703588,0.646856,-0.08095141,-0.09896729,-0.1548957,0.14391181,805.8608,805.8608,819.9634,801.02563,659.19415,0.12591552734375,0.0426025390625,0.9830322265625,1.21124267578125,-3.99261474609375,-1.89910888671875,1,1.0,1.0,1.0,1.0,95.00
2021-04-28 11:19:46.597,0.2626649,0.24887632,-0.11493712,0.014192807,0.05513023,-0.33061603,-0.18574883,0.24090292,0.44808772,0.09689611,0.060644608,0.47284353,0.44436696,0.2735589,0.12523308,0.59196186,-0.06773817,-0.15001604,-0.24726753,0.1021473,804.2491,794.17584,807.0696,799.81683,817.1429,0.11029052734375,0.03912353515625,0.995849609375,5.5328369140625,-5.809478759765625,0.94207763671875,1,1.0,1.0,1.0,1.0,95.00
2021-04-28 11:19:47.098,0.38738108,0.03741083,-0.10617595,-0.017276766,-0.0023234347,-0.45878232,-0.23282304,0.19740352,0.45470664,0.04255139,0.12970728,0.4948,0.3716231,0.27465558,0.11476554,0.50147927,-0.043402325,-0.16426918,-0.32132018,0.093678206,871.9414,811.0989,823.1868,857.8388,856.2271,0.11962890625,0.048095703125,0.99578857421875,5.031890869140625,-4.605712890625,1.06170654296875,1,1.0,1.0,1.0,1.0,95.00
2021-04-28 11:19:47.611,0.3625486,-0.32915503,-0.27661762,-0.29196343,-0.10258318,-0.5748259,-0.56931746,-0.07267249,0.1690816,0.02610447,0.10819187,0.35227785,0.28966102,0.2570593,0.07484043,0.4347784,-0.085081495,-0.23472603,-0.35708657,0.07329344,810.293,807.47253,810.293,814.7253,765.16486,0.11456298828125,0.05224609375,0.9942626953125,5.48797607421875,-2.803802490234375,2.370147705078125,1,1.0,1.0,1.0,1.0,95.00
2021-04-28 11:19:48.134,0.2634455,-0.328586,-0.46637037,-0.22855596,-0.24946967,-0.5040071,-0.37556976,0.070310675,0.03526624,0.12883838,0.11854383,0.33139732,0.29520905,0.2268167,0.002062015,0.44864306,-0.15866575,-0.27811977,-0.32267606,0.022578295,738.97437,784.90845,799.41394,761.53845,717.619,0.10821533203125,0.05657958984375,0.99530029296875,4.38140869140625,-5.12908935546875,1.5850830078125,1,1.0,1.0,1.0,1.0,95.00
2021-04-28 11:19:48.637,0.07264201,0.03006138,-0.36910868,-0.09734006,-0.083961606,-0.21789582,-0.24891226,0.091198705,0.23304528,0.1330527,0.122549,0.48707676,0.23288041,0.2704185,-0.021964988,0.41903555,-0.16024147,-0.33589065,-0.24883589,0.03177772,736.55676,795.38464,798.20514,751.4652,660.40295,0.09649658203125,0.05609130859375,0.9979248046875,3.3197021484375,-5.2935791015625,1.846771240234375,1,1.0,1.0,1.0,1.0,95.00
2021-04-28 11:19:49.143,-0.08064031,0.241918,-0.012038047,0.033230253,-0.05161497,0.06857228,-0.082821734,0.13163984,0.22257055,0.0585797,-0.0021344165,0.41782734,0.27342382,0.28001332,0.012080366,0.4185659,-0.19526076,-0.48559773,-0.33845848,-0.0890268,888.0586,815.9341,806.6667,880.40295,761.53845,0.06610107421875,0.04840087890625,1.01361083984375,6.160888671875,2.04864501953125,5.84686279296875,1,1.0,1.0,1.0,1.0,95.00
2021-04-28 11:19:49.658,-0.039661832,0.32052615,0.7065159,0.059991315,0.050048005,0.15379895,0.24752015,0.016334353,0.22257055,0.023332892,0.28796124,0.40432027,0.2474279,0.2994788,0.09437234,0.41242155,-0.15598379,-0.5418269,-0.37534437,-0.04745874,751.4652,784.90845,792.5641,766.77655,786.9231,0.04827880859375,0.028564453125,0.98858642578125,1.09161376953125,-4.14215087890625,3.06549072265625,1,1.0,1.0,1.0,1.0,95.00
2021-04-28 11:19:50.172,-0.1233795,0.38260156,0.8017876,0.084989004,0.04885693,0.20827399,0.29291785,-0.004005518,0.09683898,-0.15355797,0.5343152,0.34290025,0.27608603,0.17396797,0.19709294,0.39324802,-0.16086857,-0.42963505,-0.3341426,-0.12560862,761.13556,796.1905,811.50183,771.2088,667.25275,0.06475830078125,0.03717041015625,1.00445556640625,4.66552734375,-8.755340576171875,5.06927490234375,1,1.0,1.0,1.0,1.0,95.00
2021-04-28 11:19:50.689,1.0732502,0.38260156,0.7794236,0.886168,0.6966804,0.20827399,0.32963896,0.024728667,0.84990335,-0.15355797,0.5756448,0.368461,0.5372713,0.17396797,0.22748552,0.5055665,-0.07716352,-0.42963505,-0.33327085,0.011569797,823.5897,800.6227,814.7253,825.6044,792.96704,0.09075927734375,0.033203125,0.982177734375,8.433837890625,-8.770294189453125,-11.297454833984375,1,1.0,1.0,1.0,1.0,95.00
2021-04-28 11:19:51.200,1.0151182,0.5092,0.5715426,0.86290246,0.69465715,0.33330074,0.16159323,-0.022633383,0.8752464,0.03790605,0.5756448,0.40539142,0.5351872,0.33985886,0.2445454,0.5039643,-0.07002336,-0.25482664,-0.34968203,0.0050598183,867.1062,796.1905,810.696,850.58606,906.1905,0.07611083984375,0.09625244140625,0.98968505859375,4.194488525390625,-3.117828369140625,1.9439697265625,1,1.0,1.0,1.0,1.0,95.00
2021-04-28 11:19:51.735,1.0151182,0.5092,0.93844754,0.86290246,0.69465715,0.33330074,0.4175771,-0.022633383,0.8752464,0.03790605,0.23838042,0.40539142,0.5351872,0.33985886,0.21607614,0.5039643,-0.07002336,-0.25482664,-0.42318246,0.0050598183,861.4652,805.4579,828.022,852.6007,764.35895,0.11859130859375,0.07745361328125,0.99310302734375,4.11224365234375,-1.30096435546875,7.31231689453125,1,1.0,1.0,1.0,1.0,95.00
2021-04-28 11:19:52.238,0.7791543,0.4956555,1.1938438,0.6603628,0.7084163,0.31598672,0.55286664,-0.19977172,0.84774166,-0.06658767,0.16827822,0.31533644,0.5011986,0.33758572,0.21099606,0.49576277,-0.09399639,-0.24404402,-0.44096524,-0.022109654,838.9011,787.326,807.0696,832.4542,890.87915,0.0672607421875,0.087890625,0.9947509765625,5.435638427734375,-6.10107421875,6.228179931640625,1,1.0,1.0,1.0,1.0,95.00
2021-04-28 11:19:52.753,0.7791543,0.07939388,0.8986199,0.6603628,0.7084163,-0.304385,0.28075337,-0.19977172,0.84774166,0.20357028,0.18102433,0.31533644,0.5011986,0.33207077,0.17940679,0.49576277,-0.09399639,-0.40137842,-0.4920876,-0.022109654,788.1319,797.3993,803.0403,761.53845,733.73627,0.0889892578125,0.08184814453125,1.00494384765625,6.220703125,-4.673004150390625,2.459869384765625,1,1.0,1.0,1.0,1.0,95.00
2021-04-28 11:19:53.261,0.41694734,0.19382843,-0.001972003,0.34183738,0.44320837,-0.23463465,-0.12051829,0.47664273,0.84287375,0.37323081,0.16207081,0.47192204,0.51711065,0.29806188,0.21920219,0.6772568,0.0733278,-0.32046598,-0.38652185,0.085142076,848.97437,802.6374,824.7985,838.9011,772.8205,0.08258056640625,0.07904052734375,1.00390625,7.61138916015625,-8.912353515625,4.104766845703125,1,1.0,1.0,1.0,1.0,95.00
2021-04-28 11:19:53.770,0.5196326,0.15641265,-0.06818127,0.38123727,0.55529356,-0.1831995,0.09172224,0.5269988,0.87435323,0.387704,0.24538447,0.5038356,0.4293523,0.26285717,0.17260113,0.6596294,-0.061582047,-0.26985952,-0.43357998,0.0893274,831.6484,799.41394,807.0696,822.381,733.73627,0.0928955078125,0.08447265625,1.00006103515625,4.91973876953125,-4.523468017578125,2.893524169921875,1,1.0,1.0,1.0,1.0,95.00
2021-04-28 11:19:54.271,0.52936655,0.10754671,-0.35795686,0.3603342,0.47641718,0.019424139,0.120770305,0.43861517,0.84589714,0.3823155,0.22243994,0.45760393,0.39033788,0.22943668,0.1447761,0.6637844,-0.10618682,-0.217903,-0.33672255,0.051649347,736.9597,792.5641,799.011,757.1062,666.4469,0.09906005859375,0.06878662109375,0.98895263671875,4.942169189453125,-4.08233642578125,0.740203857421875,1,1.0,1.0,1.0,1.0,95.00
2021-04-28 11:19:54.792,0.47076303,0.05495856,-0.49571434,0.35238585,0.35393366,-0.014866189,0.10590968,0.32446674,0.79425263,0.12753534,0.20779696,0.4174697,0.25101334,0.31634036,0.065061234,0.59046763,-0.14374594,-0.20382944,-0.2927874,-0.007869984,745.82416,785.31134,796.99634,752.674,703.5165,0.1136474609375,0.07928466796875,0.9954833984375,6.557159423828125,-4.725341796875,0.500946044921875,1,1.0,1.0,1.0,1.0,95.00
2021-04-28 11:19:55.303,0.33166435,-0.047910508,-0.59508204,0.3870723,0.041455045,-0.0856115,-0.18103641,0.10118327,0.5273742,0.087395735,0.17775743,0.5238593,0.25075608,0.30147955,0.058481824,0.503807,-0.0076971804,-0.11390628,-0.21464063,-0.034368876,826.4103,796.1905,813.1135,810.696,871.53845,0.1253662109375,0.0797119140625,0.99310302734375,4.837493896484375,-4.523468017578125,1.457977294921875,1,1.0,1.0,1.0,1.0,95.00
2021-04-28 11:19:55.804,0.39771572,-0.12076588,-0.15606435,0.32805616,-0.09480874,-0.34918833,-0.4195099,0.036199432,0.5461328,-0.0105917165,0.044588216,0.49409902,0.21063012,0.33606985,0.06715421,0.37787426,0.108019136,-0.06942168,-0.1902141,0.05625547,864.2857,805.4579,817.5458,848.5714,799.41394,0.0819091796875,0.09197998046875,1.0008544921875,4.246826171875,-5.203857421875,2.684173583984375,1,1.0,1.0,1.0,1.0,95.00
2021-04-28 11:19:56.322,0.45155123,-0.26376417,0.028406302,0.2608752,-0.07416427,-0.29167902,-0.35131907,-0.078858584,0.5682906,0.14646411,-0.014839445,0.47839123,0.24042931,0.2654987,0.085348785,0.35624388,0.13400808,-0.0094611375,-0.1815499,0.17923431,790.9524,859.45056,816.337,799.41394,646.30035,0.08184814453125,0.0799560546875,0.993408203125,-0.2392578125,0.306549072265625,-0.665435791015625,1,1.0,1.0,1.0,1.0,95.00
2021-04-28 11:19:56.851,0.55926484,-0.23735833,0.36590102,-0.08220993,-0.17858227,-0.22242661,0.05953472,-0.27695835,0.3404621,0.14207104,0.18979876,0.37196362,0.19879173,0.3263187,0.17949408,0.3623126,0.15194786,-0.03399872,-0.18359734,0.26177803,724.87177,796.5934,794.17584,748.6447,757.50916,0.06573486328125,0.07818603515625,1.01153564453125,5.0244140625,5.96649169921875,-2.9608154296875,1,1.0,1.0,1.0,1.0,95.00
2021-04-28 11:19:57.360,0.5167906,-0.078621924,0.5442852,-0.13005853,-0.06930166,-0.2028349,0.14155605,-0.17890526,0.29924557,0.11137091,0.2465158,0.22992818,0.22003338,0.311761,0.21914367,0.3963868,0.06788769,-0.00777512,-0.18944614,0.34476027,751.4652,803.0403,806.6667,736.1539,743.00366,1.8310546875E-4,0.1064453125,1.00018310546875,1.71966552734375,-12.72552490234375,3.117828369140625,1,1.0,1.0,1.0,1.0,95.00
2021-04-28 11:19:57.887,0.5167906,0.32741782,0.5269237,-0.13005853,-0.06930166,-0.19312786,0.14366585,-0.17890526,0.29924557,-0.07319591,0.2465158,0.22992818,0.22003338,0.23881112,0.30211708,0.3963868,0.06788769,-0.14730036,-0.19507833,0.34476027,857.03296,792.96704,813.1135,848.97437,842.52747,0.034912109375,0.10211181640625,0.996337890625,3.60382080078125,-10.826416015625,0.1495361328125,1,1.0,1.0,1.0,1.0,95.00
2021-04-28 11:19:58.388,0.5167906,0.15855226,0.34020266,1.048189,-0.06930166,-0.2608049,-0.07498667,0.09848706,0.29924557,0.13615938,0.23678802,0.5620583,0.22003338,0.22069955,0.24263978,0.33611518,0.06788769,-0.27954048,-0.2752947,0.017945487,986.3736,801.4286,792.1612,983.1502,989.19415,0.04876708984375,0.08221435546875,0.98736572265625,4.47113037109375,-8.830108642578125,-0.67291259765625,1,1.0,1.0,1.0,1.0,95.00
2021-04-28 11:19:58.907,0.5167906,0.50879896,0.20245093,1.048189,-0.06930166,0.3452037,0.1037755,0.09848706,0.29924557,0.42347914,0.111818515,0.5620583,0.22003338,0.25015166,0.2560741,0.33611518,0.06788769,-0.32616228,-0.3042196,0.017945487,756.30035,785.7143,795.78754,764.7619,721.6484,0.1610107421875,0.09014892578125,0.982666015625,3.90289306640625,-15.71624755859375,-1.0467529296875,1,1.0,1.0,1.0,1.0,95.00
2021-04-28 11:19:59.418,0.5167906,0.7359512,0.38110614,1.048189,-0.06930166,0.46987665,0.23707461,0.09848706,0.29924557,0.43065193,0.07747375,0.5620583,0.22003338,0.2559813,0.15684165,0.33611518,0.06788769,-0.33297294,-0.40205878,0.017945487,766.3736,771.2088,787.326,777.6557,818.7546,0.27166748046875,0.07501220703125,0.9822998046875,2.654266357421875,-15.125579833984375,-2.340240478515625,1,1.0,1.0,1.0,1.0,95.00
2021-04-28 11:19:59.928,0.5167906,0.97013116,0.5424279,1.048189,-0.06930166,0.57657367,0.18425488,0.09848706,0.29924557,0.39512873,0.09361793,0.5620583,0.22003338,0.24550843,0.22613867,0.33611518,0.06788769,-0.25208345,-0.1279907,0.017945487,798.20514,785.7143,813.1135,792.96704,736.1539,0.26507568359375,0.06158447265625,0.95782470703125,2.175750732421875,-14.452667236328125,2.52716064453125,1,1.0,1.0,1.0,1.0,95.00
2021-04-28 11:20:00.453,0.5167906,0.9523559,0.68925595,1.048189,-0.06930166,0.60470426,0.40139833,0.09848706,0.29924557,0.79000527,0.271142,0.5620583,0.22003338,0.25842592,0.15467227,0.33611518,0.06788769,-0.16541792,-0.1433591,0.017945487,861.06226,802.23444,815.12823,874.7619,817.5458,0.2061767578125,0.02166748046875,0.98260498046875,2.52716064453125,5.301055908203125,5.87677001953125,1,1.0,1.0,1.0,1.0,95.00
2021-04-28 11:20:00.960,0.5167906,1.053455,0.71008086,1.048189,-0.06930166,0.79473114,0.41289496,0.09848706,0.29924557,0.79000527,0.32677725,0.5620583,0.22003338,0.2830567,0.18939362,0.33611518,0.06788769,-0.14548977,-0.16670832,0.017945487,817.5458,811.50183,798.20514,817.5458,746.63007,0.13311767578125,0.02130126953125,0.98480224609375,5.7720947265625,2.519683837890625,1.77947998046875,1,2.0,1.0,1.0,2.0,95.00
2021-04-28 11:20:01.469,0.5167906,1.0156782,0.9946208,1.048189,-0.06930166,0.950065,0.56042045,0.09848706,0.29924557,0.79000527,0.3352393,0.5620583,0.22003338,0.35932517,0.17695922,0.33611518,0.06788769,-0.12758806,-0.1609453,0.017945487,727.6923,801.02563,801.4286,743.4066,643.0769,0.1376953125,0.04351806640625,0.988037109375,6.20574951171875,-9.114227294921875,1.92901611328125,1,2.0,1.0,1.0,2.0,95.00
2021-04-28 11:20:01.989,0.5167906,1.1048121,0.9247745,1.048189,-0.06930166,1.0558702,0.37094074,0.09848706,0.29924557,0.79000527,0.30258626,0.5620583,0.22003338,0.41914368,0.16844007,0.33611518,0.06788769,-0.12677704,-0.10839454,0.017945487,765.56775,785.7143,794.17584,762.74725,788.93774,0.2239990234375,0.06219482421875,0.9849853515625,5.360870361328125,-10.72174072265625,1.413116455078125,1,2.0,1.0,1.0,2.0,95.00
2021-04-28 11:20:02.511,0.79455835,0.5469394,0.77764565,1.048189,0.3660053,-0.090228066,0.07564178,0.09848706,0.37735438,0.39683604,0.17773393,0.5620583,0.44139177,0.3787458,0.15964061,0.33611518,-0.14961205,0.07393502,-0.10745882,0.017945487,788.93774,786.52014,801.8315,788.5348,819.9634,0.249267578125,0.028564453125,0.97802734375,3.75335693359375,-2.34771728515625,-0.979461669921875,1,2.0,1.0,1.0,2.0,95.00
2021-04-28 11:20:03.033,0.79031414,0.4469633,0.010821916,1.048189,0.27537456,-0.064463265,-0.53898925,0.09848706,0.38259587,0.39721674,0.064711794,0.5620583,0.41728124,0.31394985,0.2602314,0.33611518,-0.12924853,-0.012410371,-0.2266533,0.017945487,947.28937,815.12823,813.91943,920.293,746.63007,0.241943359375,0.0606689453125,0.9609375,-0.321502685546875,-13.8470458984375,-2.1533203125,1,1.0,1.0,1.0,1.0,95.00
2021-04-28 11:20:03.543,0.79031414,0.6571389,0.7143525,1.048189,0.27537456,0.040200397,0.03468908,0.09848706,0.38259587,0.29703218,0.19732729,0.5620583,0.41728124,0.3199037,0.3157905,0.33611518,-0.12924853,-0.0874364,-0.3520896,0.017945487,769.19415,793.7729,796.99634,770.0,830.84247,0.14581298828125,0.025390625,0.98846435546875,4.38140869140625,-0.650482177734375,1.099090576171875,1,1.0,1.0,1.0,1.0,95.00
2021-04-28 11:20:04.054,0.75915384,0.7827637,0.79638726,1.048189,0.17619297,0.108404204,0.2595983,0.09848706,0.3357169,0.11505318,0.20285892,0.5620583,0.34673297,0.26210454,0.31974766,0.33611518,-0.10978092,-0.13707007,-0.3948764,0.017945487,919.89014,799.41394,823.9927,912.6374,876.3736,0.15869140625,0.0205078125,0.97882080078125,3.170166015625,-7.28240966796875,2.609405517578125,1,1.0,1.0,1.0,1.0,95.00
2021-04-28 11:20:04.568,0.75915384,0.9333739,0.9039583,1.048189,0.17619297,0.21378306,0.7885734,0.09848706,0.3357169,0.11311835,0.34580308,0.5620583,0.34673297,0.2834868,0.24921015,0.33611518,-0.10978092,-0.12963013,-0.31005087,0.017945487,786.52014,790.54944,806.6667,790.9524,772.8205,0.15618896484375,0.04571533203125,1.0029296875,5.00946044921875,-4.50103759765625,2.609405517578125,1,1.0,1.0,1.0,1.0,95.00
2021-04-28 11:20:05.093,0.75915384,0.7757281,0.6110459,1.048189,0.17619297,0.21103996,0.75820017,0.09848706,0.3357169,0.26670945,0.25376222,0.5620583,0.34673297,0.26801017,0.20822136,0.33611518,-0.10978092,-0.17771192,-0.29670855,0.017945487,865.89746,805.8608,813.1135,861.8681,885.64105,0.1370849609375,0.043212890625,1.00244140625,6.332855224609375,-4.486083984375,3.24493408203125,1,1.0,1.0,1.0,1.0,95.00
2021-04-28 11:20:05.612,0.6347705,0.511891,0.43391964,0.3090229,0.427886,0.21374345,0.6464681,0.29120418,0.68748325,0.27404904,0.33800387,0.58364093,0.54677933,0.24228904,0.19433725,0.53378063,0.09175595,-0.24094468,-0.3241306,0.05052339,788.93774,805.8608,814.7253,798.60803,806.6667,0.12939453125,0.049560546875,0.987548828125,5.1141357421875,-2.452392578125,-0.800018310546875,1,2.0,1.0,1.0,2.0,95.00
2021-04-28 11:20:06.148,0.4309578,0.26641223,-0.030906174,0.36826977,0.43621966,0.14276317,-0.07070926,0.22219291,0.7959751,0.27404904,0.10945288,0.58530486,0.49402612,0.23810565,0.15094201,0.5460651,0.19364779,-0.2203692,-0.3819993,0.057888623,735.34796,790.9524,799.41394,755.09155,703.5165,0.1270751953125,0.041259765625,0.9962158203125,3.828125,-4.20196533203125,0.79254150390625,1,1.0,1.0,1.0,1.0,95.00
2021-04-28 11:20:06.671,0.30534643,0.060565356,0.0640075,0.3483088,0.30960503,0.08897438,-0.18829885,0.14747696,0.8002003,0.20091593,0.045828022,0.58530486,0.47646847,0.2680849,0.08976212,0.52351034,0.18957958,-0.24166542,-0.39616635,0.032788835,755.09155,788.93774,792.5641,757.9121,743.4066,0.12518310546875,0.0487060546875,1.0025634765625,5.36834716796875,-5.405731201171875,2.773895263671875,1,1.0,1.0,1.0,1.0,95.00
2021-04-28 11:20:07.200,0.21049906,0.0057009324,0.2770241,0.3189491,0.1575909,-0.052413713,-0.11168022,0.0201178,0.7721836,0.020722682,-0.030675536,0.5741564,0.42628124,0.2682035,0.0020534059,0.5513271,0.1361014,-0.23588434,-0.41124088,0.042746626,851.39197,800.6227,821.978,838.49817,799.81683,0.15191650390625,0.04840087890625,0.988525390625,3.416900634765625,-8.97216796875,-1.27105712890625,1,1.0,1.0,1.0,1.0,95.00
2021-04-28 11:20:07.721,0.31229126,0.026660804,0.25768614,0.27910417,0.22520398,-0.048727,-0.18127778,0.05907159,0.63528305,-0.12697606,-0.050001502,0.5397573,0.38761643,0.26483813,0.045092657,0.57766664,0.053373933,-0.22716506,-0.47263023,0.061299585,805.05493,783.2967,804.2491,799.41394,904.9817,0.18548583984375,0.01666259765625,0.982421875,3.3795166015625,-5.7122802734375,0.560760498046875,1,1.0,1.0,1.0,1.0,95.00
2021-04-28 11:20:08.236,0.44887912,0.10851731,0.1359742,0.26264092,0.4864543,0.060405325,-0.15963168,0.13166262,0.536595,-0.023312487,0.07860884,0.5397573,0.32330677,0.22658081,0.09208888,0.6269399,-0.016360072,-0.115938246,-0.4282352,0.09238977,811.9048,811.50183,800.2198,817.5458,708.7546,0.08380126953125,0.01739501953125,0.99896240234375,4.059906005859375,-2.25799560546875,0.95703125,1,1.0,1.0,1.0,1.0,95.00
2021-04-28 11:20:08.739,0.4646669,0.52597266,0.5384784,0.29407507,0.6742684,0.29877877,0.22619416,0.24756624,0.536595,0.067064255,0.10678005,0.47498414,0.2716302,0.24792667,0.13843918,0.63930917,0.04460022,-0.058315814,-0.4099657,0.10417442,811.9048,795.78754,809.4872,807.47253,706.337,0.235107421875,0.0377197265625,0.98651123046875,4.9346923828125,-10.0189208984375,1.293487548828125,1,1.0,1.0,1.0,1.0,95.00
2021-04-28 11:20:09.245,0.5139698,0.6333838,0.5882801,0.34658054,0.82972056,0.31837842,0.27318567,0.27322978,0.53325677,0.25644904,0.13341852,0.08866829,0.21344559,0.28697023,0.09281168,0.6671568,0.09228022,-0.028001234,-0.32480952,0.104152,810.696,790.9524,797.8022,820.7692,653.1502,0.24102783203125,1.8310546875E-4,0.9744873046875,3.581390380859375,-4.725341796875,1.727142333984375,1,1.0,1.0,1.0,1.0,95.00
2021-04-28 11:20:09.750,0.5139698,0.89782566,0.6488756,0.34658054,0.82972056,0.46506605,0.3401858,0.27322978,0.53325677,0.26753762,0.2903939,0.08866829,0.21344559,0.2952583,0.06672388,0.6671568,0.09228022,-0.19227576,-0.31202298,0.104152,855.0183,813.1135,819.9634,848.97437,790.9524,0.20953369140625,0.017578125,0.97369384765625,7.917938232421875,-2.1234130859375,7.873077392578125,1,1.0,1.0,1.0,1.0,95.00
2021-04-28 11:20:10.263,0.5139698,0.6812828,0.3334771,0.34658054,0.82972056,0.36784995,0.040573273,0.27322978,0.53325677,0.24613746,0.27157843,0.08866829,0.21344559,0.26457983,0.0789182,0.6671568,0.09228022,-0.23595686,-0.28112826,0.104152,819.15753,798.20514,813.91943,821.978,828.8278,0.14520263671875,0.04632568359375,0.99713134765625,2.489776611328125,-1.8243408203125,0.471038818359375,1,1.0,1.0,1.0,1.0,95.00
2021-04-28 11:20:10.770,0.5139698,0.58743566,0.23153313,0.34658054,0.82972056,0.31019184,-0.044145864,0.27322978,0.53325677,0.09478412,0.26156634,0.08866829,0.21344559,0.20570177,0.093760595,0.6671568,0.09228022,-0.22281107,-0.27034432,0.104152,724.87177,795.78754,809.0842,751.4652,744.61536,0.12451171875,0.06268310546875,0.99310302734375,4.194488525390625,-2.22808837890625,2.093505859375,1,2.0,1.0,1.0,2.0,95.00
2021-04-28 11:20:11.272,0.45961067,0.20199881,0.0767908,0.028466603,-0.148393,0.058086026,0.0040966976,0.09843974,0.058601275,0.08304322,0.3247123,0.5276544,0.3269156,0.114014626,0.04451594,0.3690659,0.03519928,-0.21484604,-0.31326216,-0.007339726,851.79486,808.68134,819.9634,840.5128,865.09155,0.1160888671875,0.0474853515625,0.9920654296875,5.465545654296875,-5.7122802734375,2.564544677734375,1,1.0,1.0,1.0,1.0,95.00
2021-04-28 11:20:11.784,0.35720196,-0.095628865,-0.065465376,0.09854685,-0.13203011,-0.11830368,0.14879277,0.065296374,0.20164952,0.045988183,0.40150788,0.53546214,0.35224685,0.04498673,0.053673077,0.35074466,0.062954135,-0.25747895,-0.31297356,0.005262104,836.8865,797.3993,804.65204,828.022,794.17584,0.09771728515625,0.07763671875,0.995361328125,5.256195068359375,-4.254302978515625,1.4056396484375,1,1.0,1.0,1.0,1.0,95.00
2021-04-28 11:20:12.292,0.28917152,-0.15487635,-0.053687267,0.21751067,-0.07587781,-0.008046187,0.123488754,0.084962524,0.18657792,-0.0014603559,0.35329148,0.53189313,0.40248498,0.038932268,-0.015257118,0.3548749,0.08958188,-0.3056894,-0.29631338,-6.0781365E-4,838.49817,795.38464,816.7399,828.022,844.94507,0.10302734375,0.0657958984375,0.99603271484375,4.486083984375,-4.523468017578125,-0.43365478515625,1,1.0,1.0,1.0,1.0,95.00
2021-04-28 11:20:12.803,0.21141472,-0.20176585,-0.075925164,0.2606217,0.0034344255,-0.0020524808,-0.068403795,-0.077371605,0.21435145,0.04333723,0.25557578,0.41843638,0.43360505,0.03422772,0.056961145,0.3865074,0.077794485,-0.26876628,-0.19098058,-0.0054830746,767.1795,804.2491,811.9048,777.25275,693.8461,0.10601806640625,0.074951171875,0.99468994140625,5.450592041015625,-5.8319091796875,2.4822998046875,1,1.0,1.0,1.0,1.0,95.00
2021-04-28 11:20:13.322,0.11039825,-0.11591457,-0.2727396,0.1799005,0.07862205,0.037342656,-0.5051814,-0.17676717,0.21199912,0.07209334,-0.1516739,0.24162191,0.46308345,0.14768124,0.11202133,0.46674097,0.009757086,-0.2381334,-0.18450208,-0.03012326,850.18317,793.7729,804.65204,834.4689,849.7802,0.0875244140625,0.07720947265625,0.99700927734375,5.09918212890625,-3.386993408203125,1.323394775390625,1,1.0,1.0,1.0,1.0,95.00
2021-04-28 11:20:13.824,-0.027501531,-0.06131722,-0.2551249,0.08661639,0.15463385,0.1035167,-0.1991847,-0.096357636,0.21409525,0.17962375,-0.08831195,0.25765073,0.43523276,0.23650706,0.22996826,0.5343136,-0.07488397,-0.24462354,-0.13561468,-0.06786254,844.94507,800.2198,817.1429,828.8278,790.54944,0.097900390625,0.1224365234375,1.00262451171875,7.947845458984375,-4.418792724609375,4.358978271484375,1,1.0,1.0,1.0,1.0,95.00
2021-04-28 11:20:14.342,0.0047316514,-0.0852864,-0.36337695,0.057147123,0.13125294,0.11587446,-0.17132191,0.07865572,0.42969885,0.22285391,0.0448843,0.14799166,0.3648658,0.30893987,0.20981444,0.53685987,-0.095361054,-0.3259674,-0.22234036,-0.09573172,770.40295,799.011,798.60803,781.28204,710.7692,0.12615966796875,0.0936279296875,1.00408935546875,5.2337646484375,-4.83001708984375,-2.6318359375,1,1.0,1.0,1.0,1.0,95.00
2021-04-28 11:20:14.868,0.13806929,-0.17846534,-0.283216,0.17513525,0.04919197,0.12232996,-0.11240101,0.1234863,0.39722967,0.23248062,0.05860281,0.093255036,0.24269225,0.2715564,0.11324307,0.52934515,-0.058691233,-0.37563944,-0.26621166,-0.12944493,729.707,784.90845,794.57874,754.68866,698.68134,0.113037109375,0.12115478515625,0.9986572265625,4.725341796875,-7.888031005859375,-0.73272705078125,1,1.0,1.0,1.0,1.0,95.00
2021-04-28 11:20:15.375,0.26387018,0.15721232,-0.28314003,0.32081547,0.05605637,0.05536474,-0.36301228,0.23995033,0.35367355,0.12028749,0.053291924,0.4241061,0.20535345,0.2144847,-0.05474503,0.5898991,-0.060661044,-0.47570038,-0.42442697,-0.07346756,797.3993,791.75824,805.4579,782.8938,716.4103,0.11102294921875,0.09375,0.99224853515625,4.687957763671875,-3.60382080078125,1.48040771484375,1,1.0,1.0,1.0,1.0,95.00
2021-04-28 11:20:15.879,0.36995095,0.2639173,-0.31424338,0.40866998,0.038282372,-0.02453139,-0.29425526,0.23060124,0.429536,0.06662047,-0.101305,0.42977828,0.20169294,0.21123298,-0.042671185,0.59695977,-0.18393,-0.44827503,-0.45770362,-0.09457196,873.1502,796.5934,814.3223,859.0476,949.304,0.1014404296875,0.10540771484375,0.99700927734375,4.844970703125,-4.822540283203125,2.758941650390625,1,1.0,1.0,1.0,1.0,95.00
2021-04-28 11:20:16.388,0.42255118,0.34245673,-0.29782525,0.3850285,0.082442954,-0.091226116,-0.26534286,0.2827659,0.5461736,-0.16889657,0.08439193,0.49187154,0.2675578,0.1897367,0.017048962,0.54073435,-0.17980175,-0.40565288,-0.4337283,-0.036432344,813.5165,791.75824,802.6374,801.4286,842.52747,0.089599609375,0.09515380859375,0.99249267578125,4.508514404296875,-3.282318115234375,0.10467529296875,1,1.0,1.0,1.0,1.0,95.00
2021-04-28 11:20:16.907,0.38802576,0.1974774,-0.131839,0.28629458,-0.048684683,-0.28990516,-0.17790431,0.30660707,0.62524074,-0.30851075,0.1799745,0.52411467,0.2850318,0.19674456,0.02549841,0.47182435,-0.15792169,-0.3659858,-0.36602777,-0.066448815,807.8755,809.4872,807.47253,793.36993,814.3223,0.0946044921875,0.09381103515625,0.99072265625,3.66363525390625,-4.957122802734375,0.22430419921875,1,1.0,1.0,1.0,1.0,95.00
2021-04-28 11:20:17.433,0.34863585,0.013511538,0.041124176,0.21233317,0.20719936,-0.33089402,-0.18870948,0.30505165,0.64292365,-0.11063569,0.17291965,0.507665,0.3327547,0.1939573,0.09449075,0.43994144,-0.10243804,-0.26536572,-0.2593473,0.034701157,759.12085,791.3553,810.696,765.16486,689.011,0.0823974609375,0.0921630859375,0.9998779296875,5.973968505859375,-2.5421142578125,1.951446533203125,1,1.0,1.0,1.0,1.0,95.00
2021-04-28 11:20:17.960,0.24464074,-0.2117549,0.03633841,0.20199037,0.2494207,-0.1491036,-0.2890559,0.24171536,0.6022062,-0.06387627,0.15982662,0.49705315,0.32925287,0.26299456,0.11329541,0.4844028,-0.16684063,-0.20375435,-0.20408578,0.006570081,841.7216,800.2198,814.3223,830.0366,836.4835,0.08636474609375,0.0963134765625,0.99896240234375,4.867401123046875,-4.957122802734375,0.680389404296875,1,1.0,1.0,1.0,1.0,95.00
2021-04-28 11:20:18.484,0.20953225,-0.1331443,-0.24023964,0.116599806,0.21308841,-0.08246112,-0.42368895,-0.0826536,0.15644333,0.042144567,0.06474434,0.31223443,0.29621813,0.246253,0.14755079,0.45972952,-0.21412787,-0.15612338,-0.20247827,0.033716567,845.7509,803.8461,819.9634,824.7985,752.27106,0.080810546875,0.10467529296875,0.9967041015625,4.844970703125,-4.59075927734375,2.13836669921875,1,1.0,1.0,1.0,1.0,95.00
2021-04-28 11:20:18.989,-0.11346216,-0.132994,-0.327562,-0.08749912,-0.0077429395,-0.105743684,-0.28052145,-0.22059368,0.027442329,0.115859486,-0.2826521,0.31491783,0.27588344,0.20640224,0.06796758,0.4575607,-0.30255353,-0.19151387,-0.29248387,-0.04574242,763.5531,799.011,802.6374,774.83514,697.47253,0.0855712890625,0.09130859375,0.99407958984375,4.56085205078125,-3.790740966796875,0.590667724609375,1,1.0,1.0,1.0,1.0,95.00
2021-04-28 11:20:19.507,-0.24482238,0.0058416906,-0.13986853,-0.28075564,-0.22951195,-0.20324981,-0.22067012,-0.23016635,0.009231918,0.08003923,-0.3352142,0.3062379,0.3085201,0.12990384,0.05085035,0.49113408,-0.25281513,-0.23117445,-0.41367838,0.028560689,743.4066,798.20514,808.2784,759.5238,715.2015,0.10174560546875,0.09930419921875,0.98809814453125,4.91973876953125,-5.749664306640625,0.979461669921875,1,1.0,1.0,1.0,1.0,95.00
2021-04-28 11:20:20.011,-0.21142615,-0.060921088,-0.028900769,-0.14819844,-0.034623116,-0.2554953,-0.27721182,-0.13016535,0.25173223,0.2024451,-0.38691986,0.26829097,0.37758294,0.11742964,-0.026097493,0.5451905,-0.25712582,-0.28325698,-0.43384436,0.06726993,840.10986,802.23444,813.1135,821.1722,721.6484,0.07611083984375,0.0936279296875,0.99481201171875,4.777679443359375,-3.81317138671875,1.816864013671875,1,1.0,1.0,1.0,1.0,95.00
2021-04-28 11:20:20.529,-0.13550611,-0.06156518,-0.028390996,-0.15299566,0.13624133,-0.30243722,-0.28426194,0.021735178,0.30376744,0.09010934,-0.15088502,0.30086228,0.3959581,0.05836546,-0.02070677,0.5143073,-0.21992859,-0.28783822,-0.38234028,0.15883455,862.27106,803.0403,815.5311,844.94507,894.5055,0.081298828125,0.078369140625,0.98486328125,5.375823974609375,-4.717864990234375,1.375732421875,1,1.0,1.0,1.0,1.0,95.00
2021-04-28 11:20:21.032,0.018431045,-0.16624486,-0.15679464,0.016092435,0.24091719,-0.41255438,-0.31070623,0.21590382,0.41837534,0.096277565,-0.14052665,0.3157932,0.3904966,0.13276635,-0.093115516,0.42470562,-0.26186925,-0.24499895,-0.3048886,0.09967781,805.05493,802.23444,810.696,800.6227,710.7692,0.09661865234375,0.08526611328125,0.99322509765625,3.7384033203125,-5.15899658203125,0.052337646484375,1,1.0,1.0,1.0,1.0,95.00
2021-04-28 11:20:21.536,0.23452589,-0.19452684,-0.14145191,-5.586975E-4,0.19078359,-0.43569833,-0.29401648,0.21621293,0.34334695,-0.117629796,-0.099226534,0.27426425,0.2738815,0.19176075,0.03965939,0.28717148,-0.19823924,-0.27446553,-0.34886461,0.036062475,736.9597,790.14655,803.44324,761.9414,657.5824,0.10107421875,0.091796875,0.9976806640625,4.119720458984375,-4.59075927734375,1.233673095703125,1,1.0,1.0,1.0,1.0,95.00
2021-04-28 11:20:22.044,0.2954548,-0.06457205,-0.29171622,-0.013856698,0.059460107,-0.46148792,-0.37675458,0.17796145,0.40855515,-0.04660197,-0.2094904,0.59740967,0.16460867,0.25880384,0.13075753,0.32799265,-0.18615493,-0.3938738,-0.44975263,-0.027740713,586.6667,846.1539,751.06226,542.3443,684.17584,0.09283447265625,0.08154296875,0.99505615234375,3.7384033203125,-5.001983642578125,-6.646881103515625,1,1.0,1.0,1.0,1.0,95.00
2021-04-28 11:20:22.554,0.28407922,-0.029128943,0.24947686,-0.21378191,0.021523751,-0.554364,-0.118006326,0.08663448,0.2582503,-0.05383324,-0.14512485,0.55954003,0.053869575,0.22423273,0.17966828,0.3936025,-0.13280115,-0.5667614,-0.5799783,0.015756836,839.707,806.6667,810.293,816.337,853.00366,0.09112548828125,0.08349609375,0.99261474609375,3.671112060546875,-3.760833740234375,-0.28411865234375,1,1.0,1.0,1.0,1.0,95.00
2021-04-28 11:20:23.070,0.13000838,0.1106048,0.35007602,-0.23511596,0.038952895,-0.56602705,-0.003683268,0.16630079,0.25728193,-0.06973459,-0.25197673,0.55954003,0.06260764,0.1729122,0.13058262,0.46394426,-0.16429335,-0.62170154,-0.6593823,0.084218316,747.8388,795.78754,792.1612,767.1795,701.0989,0.08441162109375,0.0789794921875,0.993408203125,5.96649169921875,-1.6448974609375,2.833709716796875,1,1.0,1.0,1.0,1.0,95.00
2021-04-28 11:20:23.590,0.1401864,0.25428414,0.63245,-0.20041683,0.02386853,-0.52102166,0.10470851,0.123694815,0.25728193,-0.09188,-0.2850395,0.5582416,0.07428424,0.14060226,0.036402836,0.46208462,-0.17978394,-0.5997459,-0.7432961,0.12210086,778.46155,801.02563,806.6667,762.74725,802.6374,0.09002685546875,0.07452392578125,0.99462890625,3.60382080078125,-4.94964599609375,2.811279296875,1,1.0,1.0,1.0,1.0,95.00
2021-04-28 11:20:24.116,0.1401864,0.25428414,0.323571,-0.20041683,0.02386853,-0.52102166,-0.026027046,0.123694815,0.25728193,-0.09188,-0.10475853,0.5582416,0.07428424,0.14060226,0.13041504,0.46208462,-0.17978394,-0.5997459,-0.3265217,0.12210086,733.73627,794.57874,796.5934,745.0183,660.40295,0.082763671875,0.07122802734375,0.99462890625,5.301055908203125,-3.8580322265625,1.79443359375,1,1.0,1.0,1.0,1.0,95.00
2021-04-28 11:20:24.637,-0.30940798,-0.11123168,0.1533961,-0.5198352,-0.17732365,0.025359128,-0.16829574,-0.046645157,0.14628993,0.23254862,-0.10081379,0.2754507,0.39029202,0.06542999,0.12652275,0.48864695,-0.3707106,-0.36466584,-0.38556293,-0.0742458,804.65204,794.9817,804.2491,796.5934,796.99634,0.1015625,0.09246826171875,0.99267578125,10.609588623046875,-9.996490478515625,8.770294189453125,1,1.0,1.0,1.0,1.0,95.00
2021-04-28 11:20:25.169,-0.03712877,-0.166254,-0.08326184,-0.07153626,-0.0541387,-0.043601792,-0.2061407,0.0834484,0.5554212,0.24216092,-0.041430783,0.33710638,0.3519953,0.23657613,0.09868169,0.4326642,-0.28151724,-0.38972262,-0.41247573,-0.012091701,852.6007,811.9048,817.9487,826.8132,828.4249,0.10498046875,0.08575439453125,0.99481201171875,3.99261474609375,-4.1571044921875,0.83740234375,1,1.0,1.0,1.0,1.0,95.00
2021-04-28 11:20:25.684,0.10885234,-0.21093193,-0.14153907,0.12719251,-0.063400775,-0.03309965,-0.22619241,0.19580208,0.6822008,0.33315086,0.017216094,0.35990322,0.32981947,0.2559249,0.051890668,0.5092328,-0.2817895,-0.22457221,-0.380367,0.07789356,818.3516,795.38464,805.4579,809.0842,711.5751,0.09906005859375,0.100830078125,0.9931640625,4.942169189453125,-3.45428466796875,0.545806884765625,1,1.0,1.0,1.0,1.0,95.00
2021-04-28 11:20:26.191,0.14629063,-0.2114932,-0.10813996,0.17174028,0.17044254,-0.08637236,-0.24973617,0.18435754,0.7345778,0.3160457,0.10412889,0.32810387,0.35626298,0.23734853,0.09135471,0.5497813,-0.2971314,-0.18182856,-0.34951004,0.07329697,731.31866,798.20514,799.41394,755.4945,691.8315,0.10137939453125,0.10223388671875,0.99359130859375,3.8580322265625,-3.4991455078125,2.205657958984375,1,1.0,1.0,1.0,1.0,95.00
2021-04-28 11:20:26.713,0.08696186,-0.14311938,-0.030221822,0.12205585,0.17767985,-0.16687754,-0.29890624,0.20693198,0.75229484,0.3310092,0.09826754,0.40004584,0.37744698,0.05802332,0.120994,0.5942348,-0.3166803,-0.103431135,-0.3172967,0.05277626,765.16486,799.41394,801.02563,759.92676,708.3516,0.09625244140625,0.12164306640625,0.99755859375,6.093597412109375,-5.27862548828125,3.058013916015625,1,1.0,1.0,1.0,1.0,95.00
2021-04-28 11:20:27.240,-0.12352072,-0.08434504,0.076106876,-0.05135351,0.22537945,-0.29448074,-0.3923834,0.14882877,0.635538,0.2222602,0.08921662,0.46918067,0.41679215,0.020569947,0.18054962,0.520365,-0.31605896,-0.24859358,-0.41846395,-0.09374827,798.20514,793.36993,809.89014,805.8608,672.0879,0.0865478515625,0.11614990234375,0.99713134765625,4.4561767578125,-4.867401123046875,1.65985107421875,1,1.0,1.0,1.0,1.0,95.00
2021-04-28 11:20:27.741,0.038583018,-0.033215243,0.08928515,0.25651523,0.11073686,-0.3652375,-0.28340435,0.21909486,0.5140897,0.2604443,0.07632629,0.45328373,0.36806536,0.021829538,0.10097398,0.46317145,-0.31822383,-0.23268926,-0.40222064,-0.08988011,844.1392,809.89014,818.7546,836.4835,718.022,0.080322265625,0.10137939453125,0.994384765625,3.30474853515625,-4.20196533203125,-1.143951416015625,1,1.0,1.0,1.0,1.0,95.00
2021-04-28 11:20:28.259,0.009128924,-0.102937095,0.03285494,0.29098335,0.09226941,-0.123365924,-0.20774317,0.15498154,0.5321119,0.33871633,0.065566994,0.48013607,0.30473626,0.09096786,0.04075305,0.40259585,-0.3592611,-0.32385203,-0.38392532,-0.11005654,761.53845,790.9524,793.7729,774.43225,655.56775,0.0806884765625,0.09429931640625,0.99420166015625,4.35150146484375,-2.46734619140625,1.375732421875,1,1.0,1.0,1.0,1.0,95.00
2021-04-28 11:20:28.780,0.015381631,-0.110988066,-0.19573845,0.2564471,-0.061335586,0.06520526,-0.11094583,0.05973491,0.73865074,0.40382832,0.16693054,0.641792,0.29263094,0.18446386,0.024379607,0.50375676,-0.29267448,-0.27116925,-0.2784327,-0.048879728,749.0476,790.54944,792.1612,757.1062,689.011,0.076171875,0.10260009765625,0.99957275390625,5.12908935546875,-3.78326416015625,0.85235595703125,1,1.0,1.0,1.0,1.0,95.00
2021-04-28 11:20:29.288,0.1007096,-0.11496963,-0.1548514,-0.046484206,0.104843386,0.052103832,-0.17306398,-0.051734813,0.76587653,0.39642847,0.35567954,0.8186875,0.28880402,0.26451457,0.0424657,0.4848672,-0.22701038,-0.33152732,-0.23776422,0.035096176,803.8461,796.1905,810.696,797.3993,774.43225,0.076904296875,0.11749267578125,0.98468017578125,6.4300537109375,-2.983245849609375,2.91595458984375,1,1.0,1.0,1.0,1.0,95.00
2021-04-28 11:20:29.793,0.29052356,0.077242725,-0.016331287,-0.23341228,0.28516105,0.022383895,-0.21988982,0.017579274,0.76120013,0.3811773,0.35523158,0.82434076,0.31104547,0.28658828,0.118098274,0.58992046,-0.1391858,-0.30945814,-0.1673088,0.0934585,856.63007,797.3993,808.2784,848.97437,952.52747,0.06488037109375,0.112060546875,0.99212646484375,4.927215576171875,-4.83001708984375,2.773895263671875,1,1.0,1.0,1.0,1.0,95.00
2021-04-28 11:20:30.314,0.33251524,0.022436261,0.043449525,-0.36232314,0.3859642,-0.115901,-0.19948274,0.06545413,0.77569586,0.21909146,0.3104804,0.7508392,0.23007765,0.24273692,0.076000914,0.52866846,-0.18729395,-0.3694218,-0.1607058,0.07996937,739.7802,790.14655,792.1612,751.8681,740.58606,0.0550537109375,0.11383056640625,1.00567626953125,4.852447509765625,-3.9776611328125,1.652374267578125,1,1.0,1.0,1.0,1.0,95.00
2021-04-28 11:20:30.821,0.21791272,-0.07697467,0.022658702,-0.24227177,0.3605103,-0.20238556,-0.0738452,0.091762505,0.62861896,-0.024066743,0.20725712,0.34594926,0.2424503,0.17273277,0.022945879,0.55619115,-0.2007914,-0.35482478,-0.24936976,-0.018498993,725.6777,799.81683,805.05493,748.6447,582.23444,0.08447265625,0.1094970703125,0.9910888671875,4.702911376953125,-5.15899658203125,0.127105712890625,1,1.0,1.0,1.0,1.0,95.00
2021-04-28 11:20:31.335,-0.0028746042,-0.33823752,0.005056686,-0.108757034,0.30110207,-0.42130566,-0.09969726,0.073251255,0.70358497,-0.044167303,0.1533306,0.4174604,0.19271348,0.18010522,0.008175425,0.47484812,-0.28108877,-0.3399156,-0.34321114,-0.056735177,874.35895,803.8461,817.5458,856.63007,873.5531,0.0556640625,0.10772705078125,0.99420166015625,3.551483154296875,-3.820648193359375,1.009368896484375,1,1.0,1.0,1.0,1.0,95.00
2021-04-28 11:20:31.862,-0.29085425,-0.19069277,-0.079352885,-0.0152607225,0.14611879,-0.39089674,-0.06747336,-0.027299289,0.72727877,0.12404903,0.21772563,0.45392454,0.3186592,0.19710423,0.031715743,0.41458648,-0.16707143,-0.20344967,-0.3367826,-0.021156674,852.6007,801.02563,817.1429,833.2601,865.09155,0.04547119140625,0.09136962890625,0.9951171875,3.90289306640625,-5.390777587890625,1.06170654296875,1,1.0,1.0,1.0,1.0,95.00
2021-04-28 11:20:32.385,-0.5386586,-0.03537547,-0.04027334,0.087925255,0.06815115,-0.25707528,-0.05120685,0.012413279,0.8545847,0.16624299,0.35315365,0.53252506,0.3576136,0.19394697,0.064716004,0.40421084,-0.13431582,-0.2171541,-0.37988913,0.11251429,836.4835,806.6667,812.3077,829.6337,676.52014,0.080810546875,0.10015869140625,0.99786376953125,4.807586669921875,-6.6693115234375,3.33465576171875,1,1.0,1.0,1.0,1.0,95.00
2021-04-28 11:20:32.893,-0.17764041,0.069146745,0.10763366,0.071807995,0.11375983,-0.029731372,0.052265037,0.04952057,0.77716863,0.16821004,0.2653217,0.42895722,0.41346997,0.106603205,0.04979817,0.3843918,-0.13817984,-0.2658619,-0.46879396,0.06268513,761.9414,802.6374,804.65204,785.7143,733.73627,0.071533203125,0.09002685546875,0.9984130859375,3.506622314453125,-2.70660400390625,0.28411865234375,1,1.0,1.0,1.0,1.0,95.00
2021-04-28 11:20:33.424,0.058316726,0.11243584,0.09982828,0.026746258,0.37174326,-0.050377723,0.012170775,0.102189094,0.83058345,0.2795801,0.259532,0.43883878,0.33274943,0.15110363,0.118773125,0.4438025,-0.0958394,-0.42802024,-0.4916522,0.05613634,736.1539,799.81683,801.8315,744.21246,701.0989,0.06634521484375,0.09002685546875,0.99493408203125,5.2337646484375,-5.330963134765625,0.919647216796875,1,1.0,1.0,1.0,1.0,95.00
2021-04-28 11:20:33.927,0.1688709,0.0468582,0.03490248,-0.11119132,0.3807376,-0.108387396,-0.034655634,-0.01755282,0.78954136,0.27222127,0.097973235,0.48056844,0.24900508,0.19801249,0.16408265,0.39935026,-0.087169394,-0.41771904,-0.42933714,-0.14686175,823.5897,796.99634,803.44324,812.71063,745.82416,0.06689453125,0.0946044921875,0.992919921875,5.3533935546875,-4.29168701171875,3.24493408203125,1,1.0,1.0,1.0,1.0,95.00
2021-04-28 11:20:34.462,0.30182257,0.01669284,-0.268294,0.04599695,0.39824238,-0.30218324,-0.18382569,-0.11398098,0.61706036,0.2755497,0.13910696,0.4525256,0.18599863,0.24515723,0.13865863,0.3968271,-0.069357015,-0.321376,-0.31549412,-0.2159671,854.21246,805.05493,816.7399,837.28937,875.56775,0.06982421875,0.08380126953125,0.9918212890625,5.00946044921875,-3.9776611328125,-0.13458251953125,1,1.0,1.0,1.0,1.0,95.00
2021-04-28 11:20:34.985,0.31200778,0.038941737,-0.24780527,0.16510807,0.18602294,-0.22851172,-0.3719835,-0.15217157,0.6426716,0.21736734,0.13821146,0.46552324,0.19381449,0.16504194,0.008813174,0.33863547,-0.15560706,-0.25399855,-0.35083026,-0.23574544,797.3993,799.011,808.68134,799.81683,707.1429,0.07568359375,0.086181640625,0.9949951171875,3.9178466796875,-6.377716064453125,2.19818115234375,1,1.0,1.0,1.0,1.0,95.00
2021-04-28 11:20:35.493,0.19515216,0.08441777,-0.24894731,0.13143037,0.08360093,-0.25589955,-0.4395225,-0.16391619,0.63935864,0.10984123,0.09630307,0.34486628,0.1445314,0.06218198,-0.016758857,0.35088977,-0.24860264,-0.27077094,-0.3654603,-0.17555183,741.39197,796.99634,794.17584,763.1502,714.7985,0.07281494140625,0.10400390625,0.990966796875,4.538421630859375,-3.835601806640625,-1.51031494140625,1,1.0,1.0,1.0,1.0,95.00
2021-04-28 11:20:36.000,-0.07205222,0.042862773,-0.28647316,-0.036824986,0.086154066,-0.15576513,-0.24313068,-0.09034259,0.5984612,0.042132054,0.04351955,0.31780782,0.13046995,0.048612013,0.0070671462,0.3955861,-0.20293388,-0.299327,-0.45399386,-0.13178116,777.25275,793.7729,802.6374,767.5824,679.34064,0.06414794921875,0.10174560546875,0.99615478515625,5.14404296875,-4.673004150390625,2.5421142578125,1,1.0,1.0,1.0,1.0,95.00
2021-04-28 11:20:36.532,-0.08308377,0.035246313,-0.2656173,-0.25099343,0.13550961,-0.084124975,-0.1917883,-0.082099,0.40892923,0.056109395,0.07599242,0.21585174,0.13358863,0.07232877,0.018137164,0.47959575,-0.19342323,-0.2507098,-0.44217062,-0.16948248,853.8095,799.81683,814.3223,842.9304,830.4396,0.05706787109375,0.093994140625,0.9886474609375,3.252410888671875,-3.760833740234375,-0.0299072265625,1,1.0,1.0,1.0,1.0,95.00
2021-04-28 11:20:37.033,0.038503245,0.10757013,-0.10475996,-0.4056082,0.2519395,0.02439931,-0.06843352,-0.10147997,0.43766665,0.17057578,0.15952238,0.4695793,0.21787965,0.111397766,0.05839922,0.5008639,-0.07031054,-0.25151223,-0.40895376,-0.13275714,812.71063,800.2198,801.4286,796.99634,803.8461,0.0721435546875,0.08203125,0.98944091796875,4.015045166015625,-5.5926513671875,1.622467041015625,1,1.0,1.0,1.0,1.0,95.00
2021-04-28 11:20:37.553,-0.019575316,0.07820917,-0.07065212,-0.2841522,0.2445613,-0.003000277,-0.15404665,-0.19477339,0.43422928,0.14416382,0.15316889,0.48329234,0.19377849,0.121966906,0.08796248,0.4328825,-0.101423874,-0.321597,-0.41349456,-0.09017667,750.2564,799.011,809.89014,768.7912,690.6227,0.05718994140625,0.08819580078125,1.0003662109375,4.418792724609375,-5.57769775390625,0.919647216796875,1,1.0,1.0,1.0,1.0,95.00
2021-04-28 11:20:38.082,0.011319788,0.06787736,-0.07026074,-0.007338554,0.34844837,0.0537634,-0.11237265,-0.060217325,0.4490761,0.3007493,0.15873682,0.47238576,0.2512208,0.099899985,0.193241,0.40492773,-0.12586382,-0.45195058,-0.40436453,-0.018795218,749.85345,791.3553,804.2491,757.50916,739.3773,0.06201171875,0.08642578125,0.99554443359375,4.18701171875,-4.66552734375,0.186920166015625,1,1.0,1.0,1.0,1.0,95.00
2021-04-28 11:20:38.589,-0.025978873,-0.02675512,-0.19293585,0.14020538,0.27376637,-0.043603163,-0.2327454,2.102153E-4,0.40930533,0.2586032,0.078738235,0.3998962,0.23995283,0.02936704,0.14980033,0.43444338,-0.21874075,-0.36128095,-0.4629418,0.07617302,821.1722,800.2198,808.2784,809.4872,814.3223,0.06396484375,0.0777587890625,0.99493408203125,3.94775390625,-3.820648193359375,1.15142822265625,1,1.0,1.0,1.0,1.0,95.00
2021-04-28 11:20:39.103,-0.10695751,0.034476675,-0.20588122,0.09662304,0.06927744,-0.18138489,-0.22019367,0.053862933,0.43207255,0.30194703,0.054989006,0.43762314,0.27453148,-0.07513131,0.1281948,0.50120586,-0.23232642,-0.28616604,-0.29708388,0.11245232,790.54944,797.8022,799.011,782.0879,697.8755,0.05645751953125,0.072509765625,0.99676513671875,4.284210205078125,-4.2767333984375,1.33087158203125,1,1.0,1.0,1.0,1.0,95.00
2021-04-28 11:20:39.611,-0.06488285,-0.117236964,-0.043408968,-0.039885655,0.1394644,-0.2726019,-0.35823587,0.11977717,0.5030042,0.30781004,0.042812392,0.53730476,0.223469,-0.04533974,0.06412056,0.47996965,-0.1890074,-0.24779741,-0.21760395,0.11259412,870.7326,789.34064,801.8315,853.8095,1044.7986,0.0614013671875,0.0755615234375,0.999755859375,3.70849609375,-4.433746337890625,-0.620574951171875,1,1.0,1.0,1.0,1.0,95.00
2021-04-28 11:20:40.113,-0.0375387,-0.1629695,0.015395828,-0.08370802,0.17412572,-0.27220276,-0.35628724,0.19371828,0.5504604,0.30781004,0.075611755,0.4959759,0.23065759,-0.026644219,0.042926643,0.3970906,-0.18567906,-0.22871359,-0.20945387,0.050601862,733.73627,800.2198,800.2198,744.21246,710.3663,0.056640625,0.082275390625,0.99371337890625,6.003875732421875,-4.777679443359375,1.495361328125,1,1.0,1.0,1.0,1.0,95.00
2021-04-28 11:20:40.622,0.11845197,-0.2614727,-0.015845064,0.11433425,0.1691663,-0.26262906,-0.34651902,0.14850971,0.5559765,0.30938983,-0.005477575,0.5272331,0.24350111,0.06138287,-0.008522601,0.29040748,-0.121123314,-0.17349257,-0.27647147,0.055350363,800.6227,799.81683,801.8315,786.9231,699.0842,0.0614013671875,0.08428955078125,1.00030517578125,4.702911376953125,-3.910369873046875,0.82244873046875,1,1.0,1.0,1.0,1.0,95.00
2021-04-28 11:20:41.125,0.1099759,-0.17630517,-0.14159027,0.16277607,-0.13516419,-0.440975,-0.3731415,-0.029550271,0.31550923,-0.059727263,-0.06852227,0.2046972,0.22866164,0.07273524,-0.07694001,0.31622207,-0.045152422,-0.2008031,-0.36016965,0.10638604,858.6447,799.81683,809.4872,849.3773,834.4689,0.0574951171875,0.08380126953125,1.004150390625,6.0113525390625,-4.493560791015625,3.072967529296875,1,1.0,1.0,1.0,1.0,95.00
2021-04-28 11:20:41.626,0.18561822,-0.18010902,-0.214457,0.31215182,-0.39904058,-0.13956903,-0.3589863,9.028431E-4,0.28955346,0.016009867,0.07355522,0.18640563,0.2515469,0.113828436,-0.12442274,0.35520086,-0.10152969,-0.24016789,-0.36905032,0.105897814,806.26373,794.17584,799.81683,799.011,684.9817,0.0430908203125,0.07049560546875,0.99615478515625,5.076751708984375,-3.072967529296875,1.734619140625,1,1.0,1.0,1.0,1.0,95.00
2021-04-28 11:20:42.131,0.2908732,-0.093187675,0.008596375,0.35886103,-0.23667541,-0.04963286,-0.27091676,0.14350733,0.15429108,0.10892733,0.3046221,0.21145338,0.26953948,0.10474821,-0.06539489,0.39406344,-0.13629568,-0.32617608,-0.40204582,0.10323637,801.4286,809.4872,806.26373,794.57874,783.69965,0.0596923828125,0.0667724609375,1.0020751953125,4.089813232421875,-5.196380615234375,0.04486083984375,1,1.0,1.0,1.0,1.0,95.00
2021-04-28 11:20:42.636,0.26927415,0.011715481,0.054793645,0.37888473,-0.09419561,0.008750969,-0.20720156,0.24619037,0.14505178,0.12072989,0.31099954,0.28761497,0.24410574,0.12042165,0.015528104,0.32792032,-0.22507294,-0.3612853,-0.3767999,0.016454894,861.06226,806.26373,810.696,850.18317,929.9634,0.05133056640625,0.08837890625,1.00311279296875,4.927215576171875,-2.52716064453125,1.39068603515625,1,1.0,1.0,1.0,1.0,95.00
2021-04-28 11:20:43.149,0.3151092,0.11354189,0.059201173,0.3200536,-0.016417714,-0.12353608,-0.27770796,0.24665615,0.12051083,0.1244823,0.30746678,0.33967033,0.2653197,0.1531738,0.0959242,0.37894875,-0.17662036,-0.41398495,-0.4018958,-0.029088745,799.011,801.4286,816.7399,796.5934,719.6337,0.0576171875,0.08856201171875,1.00067138671875,5.046844482421875,-4.05242919921875,0.575714111328125,1,1.0,1.0,1.0,1.0,95.00
2021-04-28 11:20:43.669,0.3111829,0.13452215,-0.10612842,0.22187826,0.067508884,-0.08607174,-0.3579451,0.1862685,0.18090674,0.11040805,-0.023524227,0.3034928,0.28142723,0.17179613,0.13455948,0.39681813,-0.21002877,-0.45779973,-0.43279484,-0.10438874,758.71796,799.81683,804.65204,771.6117,668.86444,0.06414794921875,0.0784912109375,1.00079345703125,3.9776611328125,-5.21881103515625,1.757049560546875,1,1.0,1.0,1.0,1.0,95.00
2021-04-28 11:20:44.198,0.3794695,0.16414885,-0.19110687,0.20950088,0.115190096,-0.02116185,-0.15680407,0.06901781,0.1889246,0.10283151,-0.011979717,0.27630138,0.2843799,0.14288257,0.1588259,0.36022884,-0.20071846,-0.4714835,-0.49693385,-0.0107172225,864.68866,808.68134,816.337,849.3773,897.72894,0.064208984375,0.07513427734375,1.00042724609375,5.046844482421875,-3.835601806640625,0.3289794921875,1,1.0,1.0,1.0,1.0,90.00
2021-04-28 11:20:44.703,0.31214237,0.18855838,-0.04922622,0.12670049,0.12439166,-0.04163195,-0.11197368,-0.049776394,0.22115193,0.06458158,-0.0065713553,0.21964465,0.22635913,0.16671535,0.13933542,0.36202854,-0.21063797,-0.38870236,-0.42664444,0.17198783,834.87177,805.4579,816.7399,825.6044,828.4249,0.0562744140625,0.069091796875,1.00115966796875,4.42626953125,-3.910369873046875,-0.276641845703125,1,1.0,1.0,1.0,1.0,90.00
2021-04-28 11:20:45.213,0.030089824,0.09617204,0.04899668,0.015321923,-0.06877851,-0.12745692,-0.124994576,-0.008437943,0.2702003,0.0062521156,-0.038804278,0.5442323,0.22509201,0.16391037,0.041396968,0.44056705,-0.25924143,-0.4086593,-0.39153716,0.13407262,838.0952,799.011,810.293,832.0513,833.663,0.05078125,0.07586669921875,0.99285888671875,5.66741943359375,-3.70849609375,0.46356201171875,1,1.0,1.0,1.0,1.0,90.00
2021-04-28 11:20:45.719,-0.20121787,-0.06695577,0.013009897,-0.14395615,-0.07130021,-0.29562244,-0.22716513,0.06476959,0.312353,0.11835142,0.0753113,0.5442323,0.22254969,0.16331638,-0.038867045,0.4775379,-0.3058124,-0.40156206,-0.45217183,0.03775358,753.47986,797.3993,805.8608,764.7619,646.7033,0.0533447265625,0.07965087890625,0.99761962890625,4.329071044921875,-6.018829345703125,1.435546875,1,1.0,1.0,1.0,1.0,90.00
2021-04-28 11:20:46.227,-0.07206524,-0.39681938,-0.19583671,-0.0063326056,0.028943444,-0.25117913,0.011287764,0.19356036,0.3664632,0.21249792,0.16173534,0.5780443,0.18493286,0.15873994,-0.011491391,0.38863155,-0.30908144,-0.47016156,-0.5216158,-0.07870322,749.85345,801.02563,800.2198,759.5238,698.2784,0.04534912109375,0.08453369140625,0.99725341796875,4.613189697265625,-4.366455078125,2.07855224609375,1,1.0,1.0,1.0,1.0,90.00
2021-04-28 11:20:46.756,0.114615224,-0.47625005,-0.34326163,0.18328424,0.080831826,-0.32213214,-0.029610723,0.16761008,0.32326022,0.15167212,0.21041827,0.3812533,0.086622946,0.19970539,0.14638351,0.26904595,-0.26235893,-0.42384574,-0.5449261,0.018913405,816.337,799.81683,810.293,812.71063,815.12823,0.06048583984375,0.09552001953125,1.00091552734375,5.734710693359375,-6.153411865234375,1.39068603515625,1,1.0,1.0,1.0,1.0,90.00
2021-04-28 11:20:47.269,0.12473841,-0.3576215,-0.14440656,0.23021172,0.0934921,-0.39691737,0.10681371,0.23526153,0.53307456,0.14465165,0.21327898,0.36227408,0.088703565,0.22901763,0.19415267,0.2310196,-0.2048081,-0.40957695,-0.42285708,0.065509066,764.35895,799.81683,795.38464,777.6557,723.2601,0.08367919921875,0.095458984375,0.997314453125,5.211334228515625,-4.015045166015625,-0.485992431640625,1,1.0,1.0,1.0,1.0,90.00
2021-04-28 11:20:47.773,0.043536857,-0.31715068,-0.07601099,0.12308115,0.09202548,-0.5382988,-0.1132902,0.16289595,0.49259913,-0.05004278,-0.016296552,0.33663604,0.21610682,0.17944402,0.21378335,0.42846644,-0.14950956,-0.33673254,-0.32051733,0.08952238,805.8608,791.3553,808.2784,812.71063,666.4469,0.0692138671875,0.06494140625,0.98809814453125,2.953338623046875,-5.779571533203125,-1.966400146484375,1,1.0,1.0,1.0,1.0,90.00
2021-04-28 11:20:48.293,0.09853842,-0.3250483,-0.050645877,0.09341843,0.19560114,-0.6053608,-0.061922587,0.12857419,0.45755288,-0.17096564,-0.15974233,0.18498214,0.33291885,0.13849814,0.11996204,0.4866653,-0.10218993,-0.29188627,-0.22786203,0.035790853,826.4103,802.6374,805.8608,812.3077,850.18317,0.106689453125,0.08465576171875,0.99273681640625,5.181427001953125,-4.209442138671875,2.3028564453125,1,1.0,1.0,1.0,1.0,90.00
2021-04-28 11:20:48.823,0.24334107,0.17225057,-0.24528542,0.19693524,0.08978997,0.5029004,-0.41048467,-0.101972446,0.31340522,1.0797886,-0.21435025,0.2261045,0.32514673,0.27170667,0.06254486,0.50600374,-0.106659055,-0.31089336,-0.26748353,-0.05101448,847.76556,807.0696,816.7399,836.8865,847.3626,0.08526611328125,0.0828857421875,0.994384765625,4.83001708984375,-3.192596435546875,2.086029052734375,1,1.0,1.0,1.0,1.0,90.00
2021-04-28 11:20:49.348,0.26412308,0.32321444,-0.4674135,0.22214697,0.02720629,0.56029105,-0.34997058,-0.16900788,0.21540812,1.0797886,-0.124305144,0.14693365,0.31694403,0.23916651,-0.056576204,0.47864205,-0.19535765,-0.5230639,-0.3304627,-0.12949304,858.6447,798.20514,809.0842,843.73627,921.9048,0.0797119140625,0.0806884765625,0.9959716796875,5.38330078125,-4.1571044921875,-0.261688232421875,1,1.0,1.0,1.0,1.0,90.00
2021-04-28 11:20:49.854,0.26144284,0.18963303,-0.5278333,0.16632849,-0.16721205,0.31374368,-0.4149911,-0.051555138,0.03687046,1.0797886,-0.18234038,0.24376847,0.28355876,0.1537508,-0.08646973,0.47492468,-0.30290774,-0.50189286,-0.43888655,-0.12527223,823.1868,804.65204,814.3223,821.1722,801.02563,0.08319091796875,0.085693359375,0.99615478515625,5.03936767578125,-5.271148681640625,0.695343017578125,1,1.0,1.0,1.0,1.0,90.00
2021-04-28 11:20:50.387,0.13223374,-0.083525434,-0.51667315,-0.014566097,-0.161412,-0.25750875,-0.29649118,-0.0051288283,0.042556807,-0.17181404,-0.13174851,0.22932063,0.28370428,-0.017226817,-0.12599762,0.43765682,-0.35593134,-0.44416836,-0.49684486,-0.15232171,754.2857,805.4579,811.50183,767.5824,668.0586,0.078857421875,0.092041015625,0.99749755859375,4.493560791015625,-3.790740966796875,0.620574951171875,1,1.0,1.0,1.0,1.0,90.00
2021-04-28 11:20:50.908,0.0067903055,-0.15283729,-0.20138165,-0.09595089,-0.18401523,-0.2437782,-0.1984449,-0.0028196601,0.02120802,-0.19226663,-0.046629105,0.17375107,0.25983277,0.04111127,-0.057325963,0.34556738,-0.30669022,-0.27213913,-0.43216112,-0.06273909,756.30035,794.57874,801.8315,759.92676,779.67035,0.0792236328125,0.084228515625,0.9954833984375,4.373931884765625,-5.51788330078125,0.4486083984375,1,1.0,1.0,1.0,1.0,90.00
2021-04-28 11:20:51.413,-0.10439542,-0.20841064,-0.041566774,-0.19328192,0.045429498,0.004431132,-0.12886661,0.08451226,0.15641154,-0.054928012,0.12338619,0.5397388,0.20766619,0.12533626,-0.0048187557,0.30668575,-0.3301085,-0.2184096,-0.450944,-0.06421078,735.7509,790.14655,801.4286,746.2271,722.0513,0.08013916015625,0.07904052734375,0.99761962890625,4.65057373046875,-4.7552490234375,0.7476806640625,1,1.0,1.0,1.0,1.0,90.00
2021-04-28 11:20:51.924,-0.002414125,-0.2236231,0.008241097,-0.06489712,0.113076985,-0.0027370353,-0.08565951,0.36084014,0.16105978,0.12491756,0.1310329,0.5713865,0.15372954,0.17261828,0.00855164,0.32532158,-0.33214507,-0.17004654,-0.41057643,0.003844458,754.2857,799.011,809.0842,766.3736,615.6777,0.0775146484375,0.09014892578125,0.9952392578125,5.0244140625,-5.4730224609375,2.175750732421875,1,1.0,1.0,1.0,1.0,90.00
2021-04-28 11:20:52.433,0.15132679,-0.17078418,0.03571462,0.041248225,0.065799676,0.039544757,-0.062284395,0.40833402,0.20083974,0.28780875,0.14303972,0.5865871,0.10433516,0.1478078,0.026130868,0.40127495,-0.27145633,-0.20634973,-0.41597107,-0.09589554,787.326,798.20514,800.6227,794.57874,832.8571,0.0926513671875,0.08642578125,1.0003662109375,5.18890380859375,-5.66741943359375,-0.46356201171875,1,1.0,1.0,1.0,1.0,90.00
2021-04-28 11:20:52.957,0.122451186,-0.22938742,0.087019496,0.15172973,-0.09217477,-0.1528881,-0.15015012,0.33523718,0.084788755,0.30462545,0.077421896,0.5227641,0.04849559,0.15401204,-0.022285316,0.48835453,-0.094606765,-0.09466357,-0.304035,-0.09190268,732.9304,801.8315,803.0403,741.39197,679.7436,0.08935546875,0.09423828125,0.99945068359375,4.762725830078125,-4.306640625,1.24114990234375,1,1.0,1.0,1.0,1.0,90.00
2021-04-28 11:20:53.471,0.07114862,-0.14387013,0.09302488,0.28416735,-0.2145939,-0.1475285,-0.104269005,-0.021897795,0.111235686,0.3815284,0.12999848,0.24554035,0.11145144,0.12680987,-0.04388636,0.52781016,-0.03435428,-0.15714248,-0.3137343,-0.14603816,799.41394,797.8022,799.81683,779.67035,824.3956,0.08587646484375,0.0919189453125,0.9921875,5.5029296875,-3.267364501953125,0.755157470703125,1,1.0,1.0,1.0,1.0,90.00
2021-04-28 11:20:54.001,0.1334202,-0.08711544,0.08691388,0.4386453,-0.15299357,-0.18927614,-0.19477221,0.19207644,0.022685358,0.35981467,0.12399749,0.26882926,0.1392818,0.15198469,-0.05792867,0.5673279,-0.04859524,-0.24324456,-0.34353086,-0.11979383,837.28937,799.011,806.6667,833.2601,807.8755,0.07989501953125,0.0975341796875,1.003662109375,4.493560791015625,-5.854339599609375,0.770111083984375,1,1.0,1.0,1.0,1.0,90.00
2021-04-28 11:20:54.529,0.24890499,0.20493008,0.20508835,0.46198025,-0.1828386,-0.14055568,-0.17351115,0.21781361,0.117992796,0.3398241,0.15767178,0.32827446,0.16780603,0.22576465,0.064097844,0.49516252,-0.20888619,-0.3697689,-0.40376106,-0.18812509,816.337,810.696,813.91943,813.91943,662.8205,0.0797119140625,0.10150146484375,1.0010986328125,4.254302978515625,-5.87677001953125,0.381317138671875,1,1.0,1.0,1.0,1.0,95.00
2021-04-28 11:20:55.038,0.2609809,0.34308997,0.29772335,0.32117152,-0.041192364,0.053802297,-0.34923375,0.22382039,0.17742862,0.13759756,0.14677443,0.3178639,0.19494675,0.27151605,0.105475664,0.47056854,-0.37132028,-0.3216189,-0.39338717,-0.15440877,753.47986,797.3993,795.78754,765.16486,626.1539,0.08355712890625,0.09295654296875,0.99810791015625,4.643096923828125,-3.828125,2.0635986328125,1,1.0,1.0,1.0,1.0,95.00
2021-04-28 11:20:55.555,0.16010755,0.31203535,0.1913868,-0.062490635,0.10291629,-0.032728203,-0.31268913,-0.014796055,0.39449465,-0.025772147,0.18053097,0.33561638,0.2333434,0.2106497,0.16051118,0.4010604,-0.4107771,-0.247552,-0.46394286,-0.078530125,779.2674,800.2198,805.8608,780.07324,698.68134,0.081787109375,0.10491943359375,0.9993896484375,4.403839111328125,-5.1739501953125,0.949554443359375,1,1.0,1.0,1.0,1.0,95.00
2021-04-28 11:20:56.066,0.11053928,0.05202626,-0.07633125,-0.29661217,0.14056116,-0.103540964,-0.24121946,6.9555314E-4,0.38299572,-0.10455583,0.22797622,0.37260935,0.24052873,-0.007048356,0.017472412,0.42798287,-0.40630522,-0.3146893,-0.51541996,1.2370307E-4,750.65936,795.78754,792.96704,763.5531,702.71063,0.0872802734375,0.1168212890625,0.99163818359375,4.493560791015625,-5.54779052734375,1.71966552734375,1,1.0,1.0,1.0,1.0,95.00
2021-04-28 11:20:56.575,0.1299112,-0.07567735,-0.3829445,-0.2663687,0.28547823,-0.4181811,-0.20976526,0.06817751,0.36047864,-0.06206589,0.11480227,0.34669304,0.2940555,-0.09175824,-0.07097304,0.45409036,-0.408278,-0.33723137,-0.52452695,-0.02006322,799.011,801.02563,803.44324,798.20514,777.25275,0.0872802734375,0.10235595703125,0.99761962890625,4.822540283203125,-4.14215087890625,-0.0897216796875,1,1.0,1.0,1.0,1.0,95.00
2021-04-28 11:20:57.096,0.117682986,-0.1388874,-0.50277567,-0.25036845,0.24712007,-0.24294007,-0.23653589,0.12433524,0.27435586,-0.020526964,0.20092933,0.34713838,0.2779107,-0.12874652,-0.1906506,0.44621694,-0.46382546,-0.43799043,-0.46119502,-0.08115451,766.77655,802.23444,809.0842,775.64105,726.8865,0.0794677734375,0.1026611328125,1.002685546875,3.57391357421875,-4.373931884765625,-0.411224365234375,1,1.0,1.0,1.0,1.0,95.00
2021-04-28 11:20:57.600,0.08643009,-0.17482005,-0.47887784,-0.24095382,0.18128842,-0.12539233,-0.30923477,0.059104074,0.1959566,-0.018532053,0.22071946,0.37437984,0.3233254,-0.07532868,-0.13358682,0.45812446,-0.41720375,-0.4135946,-0.38667014,-0.10029303,742.6007,786.9231,800.2198,757.9121,659.19415,0.07177734375,0.1055908203125,0.98779296875,5.226287841796875,-4.224395751953125,1.786956787109375,1,1.0,1.0,1.0,1.0,95.00
2021-04-28 11:20:58.118,-0.012517938,-0.15759264,-0.53988856,-0.17556831,-0.14181346,-0.021185834,-0.2839659,-0.07291005,0.3771234,0.044642285,0.19426198,0.39863783,0.28922477,0.060207672,-0.015548503,0.42265755,-0.38449997,-0.45288664,-0.39174622,-0.17915887,800.2198,802.6374,802.6374,786.52014,821.5751,0.05584716796875,0.10028076171875,0.9989013671875,3.177642822265625,-3.641204833984375,-0.22430419921875,1,1.0,1.0,1.0,1.0,95.00
2021-04-28 11:20:58.628,0.05476843,-0.054602165,-0.5143604,-0.09158854,-0.111802444,-0.027914643,-0.3190672,-0.12917244,0.52513117,0.10729404,0.14829396,0.5270801,0.37543955,0.16356206,0.05122001,0.46095854,-0.33381066,-0.35008216,-0.41383734,-0.19387183,855.42126,807.8755,816.7399,832.8571,767.98535,0.05712890625,0.08319091796875,0.9986572265625,4.127197265625,-4.5458984375,0.43365478515625,1,1.0,1.0,1.0,1.0,95.00
2021-04-28 11:20:59.135,0.05207443,-0.014293611,-0.31850752,-0.045688547,0.11367475,-0.027171733,-0.33825043,0.080148175,0.5084109,0.10729404,-0.067473084,0.5325826,0.3730665,0.27300027,0.017513057,0.49437302,-0.34020418,-0.36617655,-0.4783405,-0.13474293,808.68134,802.23444,805.05493,807.8755,707.9487,0.05316162109375,0.07012939453125,0.99798583984375,3.0206298828125,-5.5926513671875,-0.067291259765625,1,1.0,1.0,1.0,1.0,95.00
2021-04-28 11:20:59.639,0.0995518,0.09191426,-0.22963007,-0.05759735,0.30581215,-0.063718274,-0.37811974,0.35156852,0.53872615,0.20183803,0.009757376,0.6232319,0.28552744,0.20139483,-0.09689805,0.4689727,-0.35395706,-0.3570644,-0.54429,-0.05816446,740.989,794.17584,801.8315,762.3443,663.6264,0.06488037109375,0.07183837890625,0.990966796875,4.015045166015625,-5.435638427734375,1.33087158203125,1,1.0,1.0,1.0,1.0,95.00
2021-04-28 11:21:00.158,0.07993352,0.15651667,-0.08666503,0.046886224,0.31781393,-0.15967031,-0.4197017,0.40645674,0.499243,0.16469012,0.08974213,0.5079511,0.2082925,0.1295868,-0.1043486,0.4357573,-0.35205567,-0.35921037,-0.5218304,-0.0060387044,859.85345,810.696,815.5311,837.28937,813.5165,0.0775146484375,0.08502197265625,0.99798583984375,4.628143310546875,-4.523468017578125,1.592559814453125,1,1.0,1.0,1.0,1.0,95.00
2021-04-28 11:21:00.668,0.11308762,0.19622678,0.015869906,-0.021102125,0.21605206,-0.28550887,-0.25006473,0.34428596,0.43110603,0.15043548,0.20703827,0.49651733,0.28769007,0.07022533,0.0075904694,0.442376,-0.4037039,-0.3716256,-0.54592395,-0.057543613,816.7399,803.8461,812.3077,813.5165,742.1978,0.0499267578125,0.08233642578125,1.00006103515625,4.50103759765625,-3.910369873046875,1.256103515625,1,1.0,1.0,1.0,1.0,95.00
2021-04-28 11:21:01.175,0.053383674,0.057900436,0.17413685,-0.06273801,0.025701914,-0.30452487,-0.14327843,0.18488106,0.46295083,-0.055594258,0.32085273,0.487452,0.35506788,0.09521614,0.01055818,0.45668888,-0.3684211,-0.34814662,-0.4495569,-0.079695925,846.9597,805.05493,808.68134,832.8571,634.21246,0.051513671875,0.08441162109375,0.99761962890625,5.18890380859375,-3.3795166015625,1.383209228515625,1,1.0,1.0,1.0,1.0,95.00
2021-04-28 11:21:01.679,-0.03808601,-0.020163504,0.13208795,-0.32193133,-0.06273,-0.27280852,-0.086784564,0.09541381,0.44141972,-0.02854999,0.32194096,0.5135532,0.32787633,0.17191052,-0.025329085,0.41332954,-0.27412477,-0.39018324,-0.44114277,-0.15271395,758.315,801.02563,803.44324,759.92676,724.0659,0.069091796875,0.07904052734375,0.9998779296875,5.525360107421875,-5.84686279296875,0.478515625,1,1.0,1.0,1.0,1.0,95.00
2021-04-28 11:21:02.189,-0.051382296,0.07781412,0.12724605,-0.24250507,-0.13666855,-0.2074552,-0.10059006,0.091672756,0.4543874,0.21177284,0.31817007,0.5287393,0.20634604,0.10872789,-0.047477573,0.2727213,-0.23583348,-0.2426923,-0.415868,-0.13660963,832.0513,797.3993,804.65204,826.8132,852.6007,0.07550048828125,0.0928955078125,1.00030517578125,5.794525146484375,-4.964599609375,2.026214599609375,1,1.0,1.0,1.0,1.0,95.00
2021-04-28 11:21:02.701,0.017820977,0.12963584,-0.024992248,-0.23278588,-0.1490207,-0.16416752,-0.18073265,-0.05122449,0.458548,0.2281415,0.16368799,0.5186009,0.15352938,0.06272032,-0.016739616,0.22335476,-0.25628486,-0.18859985,-0.45488212,-0.2241005,842.52747,810.293,815.5311,834.4689,757.9121,0.07049560546875,0.0830078125,0.997802734375,3.686065673828125,-4.3963623046875,-0.201873779296875,1,1.0,1.0,1.0,1.0,95.00
2021-04-28 11:21:03.208,0.063062206,0.09947743,-0.026384281,0.06695791,-0.09531005,-0.20300569,-0.19129063,0.09282803,0.32258686,0.2551241,0.1647485,0.3346426,0.21041094,0.07327747,-0.003934658,0.2510902,-0.2614175,-0.20402567,-0.5170166,-0.11268694,784.90845,796.1905,811.0989,791.3553,644.68866,0.05987548828125,0.1025390625,0.99652099609375,5.42816162109375,-4.77020263671875,2.325286865234375,1,1.0,1.0,1.0,1.0,95.00
2021-04-28 11:21:03.717,0.05081648,0.21014522,-0.025947958,0.21669057,0.04501522,-0.19618548,-0.21080568,0.16107301,0.36755937,0.21121961,0.25821385,0.30286816,0.30628622,0.120904066,0.02043063,0.33781117,-0.24015763,-0.25997016,-0.52723384,-0.115884274,740.989,796.5934,794.9817,760.32965,695.8608,0.06146240234375,0.09136962890625,1.0020751953125,4.59075927734375,-4.77020263671875,1.383209228515625,1,1.0,1.0,1.0,1.0,95.00
2021-04-28 11:21:04.224,0.10002035,0.32752663,-0.039334964,0.32751286,0.09292655,-0.25856695,-0.25761977,0.25999346,0.3819435,0.18599954,0.24821506,0.32628742,0.3254637,0.2302863,0.05294185,0.3953343,-0.22603717,-0.316317,-0.5458656,-0.029835898,849.7802,810.293,812.71063,841.7216,761.9414,0.060546875,0.083740234375,0.99468994140625,4.179534912109375,-3.66363525390625,0.478515625,1,1.0,1.0,1.0,1.0,95.00
2021-04-28 11:21:04.749,0.065342285,0.2738755,-0.15234907,0.22564366,0.066662125,-0.2184313,-0.31209725,0.25156358,0.32650322,0.1623981,0.16347338,0.4682519,0.27146503,0.19539607,0.0044285473,0.4722256,-0.22821146,-0.21996504,-0.47534877,0.0291502,780.07324,800.2198,804.2491,792.5641,639.0476,0.06884765625,0.08685302734375,0.9964599609375,4.77020263671875,-5.84686279296875,0.97198486328125,1,1.0,1.0,1.0,1.0,95.00
2021-04-28 11:21:05.259,0.038709566,0.0952209,-0.3942576,0.15842836,-0.07870124,-0.3279461,-0.47130734,0.23959906,0.2745632,0.026189817,-0.16838996,0.4721978,0.13579628,0.12980053,-0.08558967,0.40633053,-0.21906184,-0.28496578,-0.4754517,0.026692325,819.15753,806.6667,809.0842,824.3956,734.1392,0.0626220703125,0.0859375,1.00006103515625,2.811279296875,-3.06549072265625,-0.3289794921875,1,1.0,1.0,1.0,1.0,95.00
2021-04-28 11:21:05.767,-0.08745364,-0.23518942,-0.3360211,-0.07072499,-0.13395743,-0.41267538,-0.3399311,0.11081557,-0.026242798,7.7926926E-4,0.15232123,0.42354485,0.18242154,-0.046912953,-0.16137335,0.38716933,-0.212896,-0.29734078,-0.50293905,0.024630055,785.7143,794.57874,805.4579,775.2381,726.8865,0.0689697265625,0.0753173828125,0.99786376953125,4.194488525390625,-5.809478759765625,0.979461669921875,1,1.0,1.0,1.0,1.0,95.00
2021-04-28 11:21:06.291,-0.16161954,0.10255704,-0.28019297,-0.023344163,-0.24320215,-0.46026322,-0.3575237,-0.08254827,-0.07816893,0.0128942225,0.16995956,0.35825327,0.15157744,-0.041072242,-0.06670971,0.28794968,-0.26380104,-0.43229508,-0.5331213,-0.028451938,855.42126,809.4872,813.1135,845.34796,743.8095,0.06878662109375,0.07293701171875,0.98883056640625,4.3963623046875,-4.9346923828125,0.897216796875,1,1.0,1.0,1.0,1.0,95.00
2021-04-28 11:21:06.805,-0.1491777,0.09510622,-0.2103676,0.056278247,-0.354851,-0.27736244,-0.26099095,-0.31392208,-0.012311279,0.13326256,0.29064202,0.37883916,0.20405404,0.027759966,0.008021943,0.39342558,-0.24573562,-0.37684616,-0.48388648,0.0020608397,823.1868,807.0696,810.293,817.1429,762.74725,0.07232666015625,0.0640869140625,1.00128173828125,4.964599609375,-5.136566162109375,0.650482177734375,1,1.0,1.0,1.0,1.0,95.00
2021-04-28 11:21:07.310,0.05127538,0.03903003,-0.1718158,0.20573494,-0.39667237,-0.18811283,-0.24607146,-0.27269736,0.15068097,0.17067578,0.31445763,0.43218017,0.15749952,0.11808852,0.03961736,0.36296433,-0.2866986,-0.3138201,-0.3666445,-0.04318918,750.2564,791.75824,803.44324,752.674,705.9341,0.06756591796875,0.0823974609375,0.9967041015625,5.12908935546875,-4.508514404296875,2.041168212890625,1,1.0,1.0,1.0,1.0,95.00
2021-04-28 11:21:07.825,0.22050114,-0.23795572,-0.18930483,0.24053703,-0.24307114,-0.08025841,-0.2538646,-0.1869083,0.39703548,0.16381559,0.28190175,0.4374756,0.14542867,0.13328582,-0.082625344,0.36761582,-0.33732018,-0.2489447,-0.32396257,-0.10334403,756.7033,795.78754,805.4579,765.16486,752.27106,0.052490234375,0.067138671875,0.9913330078125,4.015045166015625,-4.628143310546875,-0.31402587890625,1,1.0,1.0,1.0,1.0,95.00
2021-04-28 11:21:08.333,0.26723298,-0.19320163,-0.18533091,0.15641844,-0.20874916,-0.17498215,-0.18299876,-0.07392319,0.45718578,0.12276013,0.27907786,0.37283018,0.17578979,0.11117177,-0.11519216,0.34733307,-0.38937122,-0.16961499,-0.3559353,-0.094146,819.9634,807.0696,815.12823,810.293,778.0586,0.0579833984375,0.06707763671875,0.99578857421875,4.9945068359375,-5.09918212890625,3.237457275390625,1,1.0,1.0,1.0,1.0,95.00
2021-04-28 11:21:08.844,0.18476373,-0.021448495,-0.071722254,0.080957666,-0.0515906,-0.3110792,-0.122673,0.1321839,0.45588523,0.1059186,-0.09500712,0.15011491,0.20911531,0.12567872,-0.10802314,0.41557363,-0.28332853,-0.14514524,-0.42211205,-0.07185759,850.989,800.6227,807.0696,832.4542,742.6007,0.0887451171875,0.0762939453125,0.99298095703125,5.66741943359375,-6.497344970703125,1.099090576171875,1,1.0,1.0,1.0,1.0,95.00
2021-04-28 11:21:09.349,0.08675263,-0.06486355,-0.0068570436,0.14112435,0.07825693,-0.62476563,-0.1572026,0.23907861,0.4087363,0.033922117,-0.12119147,0.18563874,0.260849,0.17582476,-0.04550509,0.5139219,-0.22217834,-0.20590943,-0.41316548,-0.06106497,796.99634,798.60803,803.0403,797.8022,744.61536,0.0579833984375,0.08197021484375,0.994873046875,1.054229736328125,-2.848663330078125,-3.289794921875,1,1.0,1.0,1.0,1.0,95.00
2021-04-28 11:21:09.856,-0.031763542,-0.17982396,-0.049152162,0.18775512,0.0705074,-0.6213719,-0.18614823,0.1931688,0.290282,0.09403152,0.06548102,0.22084309,0.2854608,0.17111635,-0.019244911,0.58181286,-0.22224437,-0.37230438,-0.43210986,-0.10415226,742.6007,798.60803,798.20514,749.0476,711.978,0.0867919921875,0.0986328125,0.99993896484375,5.525360107421875,-2.310333251953125,1.09161376953125,1,1.0,1.0,1.0,1.0,95.00
2021-04-28 11:21:10.372,0.19914016,-0.37852412,-0.18212457,0.40254003,-0.11589681,-0.37126324,-0.3510455,0.06387366,0.25458673,0.37833473,0.19397415,0.20388561,0.27721,0.09651321,-0.049626496,0.65289885,-0.3376262,-0.50273174,-0.47704548,-0.15368578,784.90845,792.1612,796.5934,786.9231,683.36993,0.03765869140625,0.080810546875,0.9979248046875,4.53094482421875,-4.344024658203125,1.71966552734375,1,1.0,1.0,1.0,1.0,95.00
2021-04-28 11:21:10.900,0.24957183,-0.46985644,-0.022820735,0.40578577,-0.3432342,-0.32035407,-0.24401449,0.12478862,0.053905237,0.3781761,0.20679606,0.16478445,0.2566466,0.037799396,-0.058653094,0.5947996,-0.3937927,-0.395318,-0.5040269,-0.15371463,796.1905,803.44324,798.20514,793.7729,751.4652,0.04620361328125,0.07672119140625,0.9964599609375,3.828125,-6.4898681640625,0.10467529296875,1,1.0,1.0,1.0,1.0,95.00
2021-04-28 11:21:11.412,0.29131958,-0.39324805,0.080982864,0.4481698,-0.2188381,-0.2828733,-0.19229183,0.26946852,0.020458788,0.42517972,0.14867695,0.36178088,0.24304897,0.08007258,-0.0531126,0.49693564,-0.31035253,-0.2953279,-0.4173973,-0.12422328,829.2308,791.75824,807.8755,817.5458,750.65936,0.0391845703125,0.0750732421875,0.9993896484375,5.555267333984375,-4.20196533203125,2.03369140625,1,1.0,1.0,1.0,1.0,95.00
2021-04-28 11:21:11.932,0.021174407,-0.27832398,0.11687268,0.23513891,-0.0019199823,-0.21220095,-0.13112345,0.3276898,0.16621898,0.36283305,-0.018083114,0.38587758,0.22347279,0.15798879,0.059108216,0.29825634,-0.25392178,-0.28556362,-0.45531544,-0.13637753,772.8205,802.6374,799.41394,781.685,672.8938,0.0494384765625,0.0755615234375,0.99505615234375,3.626251220703125,-5.2935791015625,-0.201873779296875,1,1.0,1.0,1.0,1.0,95.00
2021-04-28 11:21:12.459,0.123544425,-0.20194049,0.06457356,0.25953674,0.25038972,-0.026908964,-0.094561115,0.25206026,0.43672824,0.3754923,-0.03534129,0.5084997,0.27744508,0.12665516,0.085009485,0.35611314,-0.25124148,-0.33177638,-0.551347,-0.11290834,750.65936,805.05493,804.2491,760.7326,677.72894,0.04925537109375,0.07696533203125,0.99481201171875,5.24871826171875,-4.478607177734375,0.366363525390625,1,1.0,1.0,1.0,1.0,95.00
2021-04-28 11:21:12.981,0.072602525,0.014196457,0.04778364,0.1929182,0.30955347,-0.01569699,-0.17487699,0.30814442,0.44226652,0.20437342,0.2083977,0.5625228,0.29475805,0.17603278,0.15673387,0.31245404,-0.36869997,-0.39777878,-0.54176724,-0.11702923,803.44324,801.4286,799.81683,792.96704,730.5128,0.0447998046875,0.117431640625,0.99835205078125,5.2337646484375,-8.2244873046875,5.0244140625,1,1.0,1.0,1.0,1.0,95.00
2021-04-28 11:21:13.513,0.18356952,0.10250023,-0.046173688,0.1839644,0.28025427,-0.05542028,-0.20817432,0.20556301,0.44412324,0.24910788,0.3287265,0.55597305,0.284743,0.11003598,0.10579225,0.33525935,-0.4096895,-0.32448643,-0.36720532,-0.0933978,860.65936,799.011,807.0696,851.79486,848.97437,0.05377197265625,0.10809326171875,1.00933837890625,5.51788330078125,-2.70660400390625,6.38519287109375,1,1.0,1.0,1.0,1.0,95.00
2021-04-28 11:21:14.018,0.10384014,0.26711172,-0.02790842,0.18129322,0.11788489,-0.12685914,-0.20262471,0.15758348,0.33104324,0.10072396,0.3287265,0.4813436,0.24025153,0.12961647,0.09631812,0.2580711,-0.4074341,-0.348447,-0.2837447,-0.12147026,844.1392,788.1319,834.0659,862.674,779.67035,-0.032958984375,-0.08001708984375,0.9466552734375,-13.68255615234375,11.147918701171875,6.20574951171875,1,1.0,1.0,1.0,1.0,95.00
2021-04-28 11:21:14.549,0.21253753,0.9048721,0.84565115,0.14651008,0.10444073,0.44628406,0.43853185,-0.116679005,0.21822491,0.38196543,0.48088953,0.13534553,0.06452487,0.014413384,0.041735806,0.21184115,-0.3327425,-0.31436893,-0.2587576,-0.13683999,797.3993,795.78754,791.75824,774.83514,807.8755,-0.1612548828125,-0.02471923828125,0.98577880859375,4.127197265625,0.91217041015625,21.062164306640625,1,1.0,1.0,1.0,1.0,95.00
2021-04-28 11:21:15.061,0.31569868,1.1125534,1.310442,0.26170734,0.17488028,0.6353188,0.9765753,-0.19092798,0.11773062,0.38196543,0.74231726,-0.18201387,0.051569283,0.013855732,0.13252896,0.20999883,-0.2410253,-0.39566308,-0.27621624,-0.17490442,754.68866,790.9524,800.2198,763.1502,755.89746,-0.12017822265625,-0.02239990234375,1.0111083984375,6.796417236328125,-10.88623046875,10.467529296875,1,1.0,1.0,1.0,1.0,90.00
2021-04-28 11:21:15.574,0.31569868,1.3689793,1.4890296,0.26170734,0.17488028,0.8908219,1.1443931,-0.19092798,0.11773062,0.38196543,0.74231726,-0.18201387,0.051569283,-0.034903064,0.19946803,0.20999883,-0.2410253,-0.38333416,-0.2947884,-0.17490442,761.9414,782.8938,798.60803,780.4762,671.28204,0.00103759765625,0.0269775390625,0.96844482421875,5.899200439453125,-10.1983642578125,-15.08819580078125,1,1.0,1.0,1.0,1.0,90.00
2021-04-28 11:21:16.083,0.31569868,1.3689793,1.5518079,0.26170734,0.17488028,0.8908219,1.2538863,-0.19092798,0.11773062,0.38196543,0.74231726,-0.18201387,0.051569283,-0.034903064,0.24112621,0.20999883,-0.2410253,-0.38333416,-0.28227752,-0.17490442,785.7143,810.293,782.0879,765.56775,992.8205,0.07049560546875,0.0853271484375,1.0045166015625,4.358978271484375,-6.736602783203125,-9.517974853515625,1,1.0,1.0,1.0,1.0,90.00
2021-04-28 11:21:16.601,0.31569868,1.3689793,1.5518079,0.26170734,0.17488028,0.8908219,1.2538863,-0.19092798,0.11773062,0.38196543,0.74231726,-0.18201387,0.051569283,-0.034903064,0.24112621,0.20999883,-0.2410253,-0.38333416,-0.28227752,-0.17490442,781.685,786.1172,809.89014,799.81683,746.2271,0.05364990234375,0.07867431640625,0.9954833984375,4.50103759765625,-5.779571533203125,-11.0955810546875,1,2.0,1.0,1.0,2.0,90.00
2021-04-28 11:21:17.117,0.31569868,1.3689793,1.5518079,0.26170734,0.17488028,0.8908219,1.2538863,-0.19092798,0.11773062,0.38196543,0.74231726,-0.18201387,0.051569283,-0.034903064,0.24112621,0.20999883,-0.2410253,-0.38333416,-0.28227752,-0.17490442,763.95605,806.26373,793.36993,788.93774,496.8132,0.043701171875,0.0587158203125,1.00921630859375,6.930999755859375,1.562652587890625,0.889739990234375,1,2.0,1.0,1.0,2.0,90.00
2021-04-28 11:21:17.621,0.31569868,0.55658245,0.763773,0.26170734,0.17488028,-0.14635962,-0.06844311,-0.19092798,0.11773062,0.018904291,-0.08413727,-0.18201387,0.051569283,-0.047982343,0.10936982,0.20999883,-0.2410253,-0.32156748,-0.30304348,-0.17490442,794.17584,788.93774,810.696,790.14655,791.75824,0.036376953125,0.04888916015625,1.00054931640625,2.6617431640625,-5.644989013671875,9.562835693359375,1,2.0,1.0,1.0,2.0,90.00
2021-04-28 11:21:18.130,0.31569868,0.55658245,0.975604,0.26170734,0.17488028,-0.14635962,-0.06875064,-0.19092798,0.11773062,0.018904291,-0.07767553,-0.18201387,0.051569283,-0.047982343,0.086255416,0.20999883,-0.2410253,-0.32156748,-0.31122443,-0.17490442,893.69965,819.5604,813.5165,877.98535,784.90845,-0.04913330078125,0.032958984375,0.99835205078125,3.45428466796875,1.009368896484375,8.1646728515625,1,2.0,1.0,1.0,2.0,90.00
2021-04-28 11:21:18.639,0.31569868,0.55658245,1.0667125,0.26170734,0.17488028,-0.14635962,-0.022673702,-0.19092798,0.11773062,0.018904291,-0.13136214,-0.18201387,0.051569283,-0.047982343,0.083397664,0.20999883,-0.2410253,-0.32156748,-0.30320147,-0.17490442,817.1429,800.6227,801.4286,813.5165,720.4396,-0.02191162109375,0.05084228515625,0.99371337890625,3.99261474609375,-3.39447021484375,3.48419189453125,1,2.0,1.0,1.0,2.0,90.00
2021-04-28 11:21:19.150,0.31569868,0.55658245,0.94397396,0.26170734,0.17488028,-0.14635962,0.17310916,-0.19092798,0.11773062,0.018904291,0.2242391,-0.18201387,0.051569283,-0.047982343,0.19930767,0.20999883,-0.2410253,-0.32156748,-0.40964505,-0.17490442,775.2381,794.57874,789.34064,764.7619,820.3663,-0.016845703125,0.05621337890625,0.99835205078125,5.69732666015625,-7.94036865234375,-4.000091552734375,1,2.0,1.0,1.0,2.0,90.00
2021-04-28 11:21:19.664,0.31569868,1.0465384,0.60663396,0.26170734,0.17488028,0.78487414,0.22987881,-0.19092798,0.11773062,0.29107124,0.25124556,-0.18201387,0.051569283,0.16199815,0.10829595,0.20999883,-0.2410253,-0.35466447,-0.4409605,-0.17490442,840.9158,805.8608,811.50183,827.619,900.54944,0.08905029296875,0.115478515625,0.996337890625,9.368438720703125,-11.52923583984375,-12.75543212890625,1,2.0,1.0,1.0,2.0,90.00
2021-04-28 11:21:20.192,0.31569868,0.9441389,0.43668067,0.26170734,0.17488028,0.64554965,0.13623354,-0.19092798,0.11773062,0.3301802,0.27682367,-0.18201387,0.051569283,0.12993883,-0.017801367,0.20999883,-0.2410253,-0.38290668,-0.49199712,-0.17490442,830.4396,794.17584,802.6374,819.9634,874.35895,0.08331298828125,0.10546875,1.00311279296875,2.1832275390625,-0.13458251953125,-9.188995361328125,1,2.0,1.0,1.0,2.0,90.00
2021-04-28 11:21:20.720,0.31569868,0.9250903,0.5254747,0.26170734,0.17488028,0.6393237,0.2168162,-0.19092798,0.11773062,0.36609843,0.29209328,-0.18201387,0.051569283,0.12201543,-0.10284543,0.20999883,-0.2410253,-0.4169186,-0.54792583,-0.17490442,841.31866,809.4872,812.71063,836.8865,776.4469,0.04217529296875,0.146484375,0.97979736328125,4.83001708984375,-3.835601806640625,-11.304931640625,1,2.0,1.0,1.0,2.0,90.00
2021-04-28 11:21:21.223,0.31569868,0.6788975,0.6518456,0.26170734,0.17488028,0.5307228,0.3747026,-0.19092798,0.11773062,0.62856954,0.36256513,-0.18201387,0.051569283,0.19733402,-0.0578491,0.20999883,-0.2410253,-0.4381215,-0.6432708,-0.17490442,832.4542,803.8461,811.9048,829.2308,803.44324,0.0447998046875,0.16864013671875,0.98602294921875,6.519775390625,-5.2337646484375,0.171966552734375,1,2.0,1.0,1.0,2.0,90.00
2021-04-28 11:21:21.740,0.31569868,0.6039657,0.73337513,0.26170734,0.17488028,0.48817635,0.39299425,-0.19092798,0.11773062,0.6241559,0.37373957,-0.18201387,0.051569283,0.18779384,-0.002254278,0.20999883,-0.2410253,-0.484038,-0.55182135,-0.17490442,661.2088,781.28204,817.1429,691.8315,682.96704,0.04498291015625,0.17742919921875,0.989501953125,5.09918212890625,-2.534637451171875,4.269256591796875,1,2.0,1.0,1.0,2.0,90.00
2021-04-28 11:21:22.267,0.31569868,0.8019837,0.8008235,0.26170734,0.17488028,0.48016044,0.3986491,-0.19092798,0.11773062,0.58834344,0.3727972,-0.18201387,0.051569283,0.19157095,0.026644219,0.20999883,-0.2410253,-0.47338137,-0.48138487,-0.17490442,795.78754,806.6667,795.38464,786.52014,751.06226,0.031005859375,0.1551513671875,0.99371337890625,3.551483154296875,-5.5328369140625,1.5850830078125,1,2.0,1.0,1.0,2.0,90.00
2021-04-28 11:21:22.769,0.31569868,0.76724803,0.73876435,0.26170734,0.17488028,0.2626882,0.19694468,-0.19092798,0.11773062,0.3583372,0.16649637,-0.18201387,0.051569283,0.10496909,0.18340667,0.20999883,-0.2410253,-0.4544552,-0.35301736,-0.17490442,630.18317,803.0403,817.9487,647.1062,682.1612,0.04742431640625,0.17694091796875,0.99005126953125,4.246826171875,-5.764617919921875,-0.94207763671875,1,2.0,1.0,1.0,2.0,90.00
2021-04-28 11:21:23.279,0.31569868,0.8016864,0.8990861,0.26170734,0.17488028,0.30233678,0.09717579,-0.19092798,0.11773062,0.31675237,0.24304798,-0.18201387,0.051569283,0.10555507,0.22697435,0.20999883,-0.2410253,-0.304768,-0.35495853,-0.17490442,805.4579,810.293,814.3223,806.6667,803.0403,0.01629638671875,0.1600341796875,0.9913330078125,4.194488525390625,-4.388885498046875,-0.157012939453125,1,2.0,1.0,1.0,2.0,90.00
2021-04-28 11:21:23.783,0.31569868,0.486965,0.693142,0.26170734,0.17488028,0.28591007,-0.08916872,-0.19092798,0.11773062,0.37090972,0.27697432,-0.18201387,0.051569283,0.17535019,0.1832304,0.20999883,-0.2410253,-0.25375006,-0.27140382,-0.17490442,912.6374,808.2784,801.4286,891.28204,886.04395,0.029052734375,0.15594482421875,0.9876708984375,4.65057373046875,-4.17205810546875,-1.92901611328125,1,2.0,1.0,1.0,2.0,90.00
2021-04-28 11:21:24.290,0.31569868,0.44367212,0.67716223,0.26170734,0.17488028,0.26821384,-0.027710335,-0.19092798,0.11773062,0.5457773,0.30926505,-0.18201387,0.051569283,0.22910023,0.2571827,0.20999883,-0.2410253,-0.2914421,-0.22679661,-0.17490442,751.8681,795.38464,796.99634,775.64105,677.72894,0.028076171875,0.165771484375,0.98150634765625,7.409515380859375,-6.691741943359375,2.452392578125,1,2.0,1.0,1.0,2.0,90.00
2021-04-28 11:21:24.817,0.31569868,0.7756973,0.7624538,0.26170734,0.17488028,0.50507987,0.37065405,-0.19092798,0.11773062,0.77813023,0.42560384,-0.18201387,0.051569283,0.29585305,0.33579966,0.20999883,-0.2410253,-0.3337479,-0.20797326,-0.17490442,784.5055,800.6227,806.6667,790.9524,757.50916,0.0716552734375,0.19171142578125,0.98284912109375,5.644989013671875,-6.347808837890625,1.128997802734375,1,2.0,1.0,1.0,2.0,90.00
2021-04-28 11:21:25.325,0.31569868,0.7322616,0.72095746,0.26170734,0.17488028,0.4428615,0.3948021,-0.19092798,0.11773062,0.77813023,0.42560384,-0.18201387,0.051569283,0.24029374,0.3283166,0.20999883,-0.2410253,-0.31894654,-0.25767493,-0.17490442,850.58606,805.4579,808.2784,842.9304,900.14655,0.061767578125,0.18719482421875,0.9842529296875,3.78326416015625,-4.284210205078125,-0.16448974609375,1,2.0,1.0,1.0,2.0,90.00
2021-04-28 11:21:25.830,0.10241364,0.66047686,0.63634235,0.23575096,-0.024691619,0.3843149,0.36723775,0.43910486,0.557439,0.77813023,0.42401367,0.5090494,0.30983013,0.20936888,0.18663543,0.43954188,-0.091696054,-0.31785303,-0.37317654,-0.30234605,834.0659,811.50183,816.337,826.8132,763.5531,0.08441162109375,0.2039794921875,0.98468017578125,5.15899658203125,-4.50103759765625,-0.575714111328125,1,1.0,1.0,1.0,1.0,90.00
2021-04-28 11:21:26.335,0.4868572,-0.08695048,0.033827957,0.6065206,0.47485423,-0.11469121,-0.0973759,0.63955736,0.6952461,0.10163833,0.22401097,0.7472397,0.34767526,0.23475939,0.08422779,0.5402423,-0.16366656,-0.36200538,-0.46107218,-0.340576,765.56775,796.1905,797.8022,782.0879,670.87915,0.0970458984375,0.20159912109375,0.97802734375,2.669219970703125,-2.205657958984375,1.7047119140625,1,1.0,1.0,1.0,1.0,90.00
2021-04-28 11:21:26.850,0.5551043,0.11074159,0.019846808,0.66420877,0.61596954,0.19455466,-0.08543404,0.6770518,0.7131589,0.1483844,0.21829127,0.75961214,0.3786342,0.26655602,0.17753683,0.51060635,-0.074322954,-0.3606496,-0.50545365,-0.17776541,765.16486,799.41394,792.96704,768.7912,794.17584,0.0645751953125,0.17626953125,0.978759765625,4.987030029296875,-6.80389404296875,1.248626708984375,1,1.0,1.0,1.0,1.0,90.00
2021-04-28 11:21:27.359,0.8663824,0.53727716,0.3598016,1.0862963,0.82567924,0.31374428,0.21216518,0.86053896,0.60532147,0.31838077,0.32459864,0.8621114,0.3588001,0.2923153,0.19747908,0.48574927,-0.0018716137,-0.33652386,-0.4391944,-0.14345078,819.9634,804.65204,811.9048,805.8608,805.4579,0.08245849609375,0.1749267578125,0.98199462890625,4.32159423828125,-3.768310546875,2.07855224609375,1,1.0,1.0,1.0,1.0,90.00
2021-04-28 11:21:27.878,0.9887459,0.5487532,0.47380608,1.2193645,0.8806425,0.40552303,0.28560024,0.93749905,0.66974175,0.32438564,0.2955867,1.006258,0.36225304,0.2632901,0.14530338,0.4877105,0.08213311,-0.2915665,-0.4206514,-0.08166269,831.2454,805.4579,806.6667,819.15753,811.9048,0.07672119140625,0.169189453125,0.97808837890625,3.33465576171875,-4.94964599609375,-1.54022216796875,1,1.0,1.0,1.0,1.0,90.00
2021-04-28 11:21:28.386,1.0058428,0.44500887,0.44681665,1.2092059,0.80823463,0.22788295,0.28217444,0.968079,0.6852626,0.32359883,0.30114496,1.0040073,0.38359576,0.26373336,-0.00256982,0.56804866,-0.040063687,-0.41181573,-0.5365853,-0.25249758,805.05493,804.2491,805.05493,795.78754,670.07324,0.07171630859375,0.1798095703125,0.97857666015625,5.196380615234375,-4.486083984375,0.770111083984375,1,1.0,1.0,1.0,1.0,90.00
2021-04-28 11:21:28.892,0.93970954,0.062704995,0.21537316,0.98599863,0.7405473,0.06361354,0.11670021,0.9006071,0.6888556,0.19630077,0.19550581,0.9883406,0.4307509,0.20940027,-0.11457412,0.58284086,-0.09711633,-0.47500888,-0.66416657,-0.18138193,719.6337,794.17584,822.381,714.7985,838.9011,0.07037353515625,0.18939208984375,0.9853515625,4.418792724609375,-4.942169189453125,1.128997802734375,1,1.0,1.0,1.0,1.0,90.00
2021-04-28 11:21:29.411,0.90113837,0.58040774,0.36408412,0.8917417,0.65345865,-0.10027963,0.12497565,0.87168884,0.65061885,0.21070208,0.1059121,0.8696086,0.44422868,0.13364948,-0.113405846,0.5519723,-0.17178193,-0.41535112,-0.64477533,-0.19235145,839.707,802.23444,816.337,835.2747,834.87177,0.06317138671875,0.18310546875,0.979736328125,4.179534912109375,-3.75335693359375,2.13836669921875,1,1.0,1.0,1.0,1.0,90.00
2021-04-28 11:21:29.917,0.87923443,0.861422,0.51250935,0.717748,0.726239,-0.08849766,0.015420319,0.80541164,0.61438924,0.18643396,0.0830439,0.52702284,0.43247586,0.010722155,-0.08878412,0.46371725,-0.18822727,-0.35520443,-0.40550858,-0.059627037,831.6484,814.7253,799.81683,824.7985,776.8498,0.0625,0.17059326171875,0.986083984375,4.2767333984375,-4.314117431640625,-0.022430419921875,1,1.0,1.0,1.0,1.0,90.00
2021-04-28 11:21:30.429,0.87923443,0.9611047,0.71649814,0.717748,0.726239,0.0675666,0.097891584,0.80541164,0.61438924,0.18522176,0.07659564,0.52702284,0.43247586,-0.015667059,0.05360479,0.46371725,-0.18822727,-0.30301923,-0.27699852,-0.059627037,759.92676,799.41394,798.20514,771.6117,556.8498,0.05877685546875,0.1712646484375,0.98150634765625,5.211334228515625,-5.1739501953125,0.710296630859375,1,1.0,1.0,1.0,1.0,90.00
2021-04-28 11:21:30.951,0.87923443,1.0358721,0.70538545,0.717748,0.726239,0.3131784,0.07464965,0.80541164,0.61438924,0.12218992,0.03163764,0.52702284,0.43247586,-0.0535069,0.13092081,0.46371725,-0.18822727,-0.36068854,-0.1760749,-0.059627037,769.59705,799.41394,803.0403,786.9231,828.8278,0.0863037109375,0.19952392578125,0.9852294921875,3.12530517578125,-5.7122802734375,0.022430419921875,1,1.0,1.0,1.0,1.0,90.00
2021-04-28 11:21:31.459,0.87923443,0.8070729,0.4429997,0.717748,0.726239,0.28721753,-0.022982193,0.80541164,0.61438924,0.39479846,-0.037659742,0.52702284,0.43247586,0.03638289,0.036769558,0.46371725,-0.18822727,-0.41584772,-0.3540422,-0.059627037,842.9304,803.44324,813.91943,836.4835,817.1429,0.07763671875,0.1934814453125,0.97955322265625,2.639312744140625,-3.828125,-0.426177978515625,1,1.0,1.0,1.0,1.0,90.00
2021-04-28 11:21:31.986,0.87923443,0.48648554,0.34019178,0.717748,0.726239,0.34914914,-0.12890153,0.80541164,0.61438924,0.39977872,-0.1467227,0.52702284,0.43247586,0.04653421,0.061874386,0.46371725,-0.18822727,-0.37316337,-0.33737043,-0.059627037,830.0366,803.44324,809.0842,821.5751,716.0073,0.08892822265625,0.2044677734375,0.98223876953125,5.8917236328125,-5.136566162109375,1.203765869140625,1,2.0,1.0,1.0,2.0,90.00
2021-04-28 11:21:32.491,0.87923443,0.5704655,0.4628809,0.717748,0.726239,0.43081877,-0.08954051,0.80541164,0.61438924,0.40640578,-0.020907193,0.52702284,0.43247586,0.08861641,0.012197174,0.46371725,-0.18822727,-0.39608222,-0.33222526,-0.059627037,851.79486,810.696,805.4579,829.6337,869.12085,0.09234619140625,0.22491455078125,0.9775390625,4.418792724609375,-3.880462646484375,1.652374267578125,1,2.0,1.0,1.0,2.0,90.00
2021-04-28 11:21:32.992,0.87923443,0.65983087,0.4654463,0.717748,0.726239,0.48206237,-0.016750574,0.80541164,0.61438924,0.30277905,0.27299675,0.52702284,0.43247586,0.18245597,0.029745933,0.46371725,-0.18822727,-0.39449462,-0.37961072,-0.059627037,807.0696,773.6264,821.5751,831.6484,672.8938,0.077880859375,0.2017822265625,0.9791259765625,4.94964599609375,-9.876861572265625,5.585174560546875,1,2.0,1.0,1.0,2.0,90.00
2021-04-28 11:21:33.493,0.87923443,0.7449845,0.5817653,0.717748,0.726239,0.5703304,0.24697518,0.80541164,0.61438924,0.7336039,0.41401213,0.52702284,0.43247586,0.22959358,-0.027910044,0.46371725,-0.18822727,-0.3595773,-0.41263956,-0.059627037,805.4579,792.5641,801.02563,794.9817,865.4945,0.06689453125,0.1873779296875,0.98101806640625,5.38330078125,-4.717864990234375,4.508514404296875,1,2.0,1.0,1.0,2.0,90.00
2021-04-28 11:21:34.012,0.87923443,0.68298984,0.6233767,0.717748,0.726239,0.58319527,0.31726274,0.80541164,0.61438924,0.7336039,0.41883302,0.52702284,0.43247586,0.23602356,0.026866278,0.46371725,-0.18822727,-0.3297108,-0.44132122,-0.059627037,624.94507,785.7143,819.5604,641.4652,603.5897,0.0921630859375,0.1922607421875,0.98736572265625,3.6785888671875,-6.960906982421875,1.383209228515625,1,2.0,1.0,1.0,2.0,90.00
2021-04-28 11:21:34.514,0.87923443,0.8607829,0.8070515,0.717748,0.726239,0.6406852,0.28747725,0.80541164,0.61438924,0.7336039,0.40263548,0.52702284,0.43247586,0.20850825,0.07429706,0.46371725,-0.18822727,-0.33524424,-0.4256498,-0.059627037,800.6227,814.7253,811.50183,797.3993,676.9231,0.11297607421875,0.1697998046875,0.97003173828125,2.071075439453125,-2.549591064453125,0.40374755859375,1,2.0,1.0,1.0,2.0,90.00
2021-04-28 11:21:35.032,0.87923443,0.95187426,0.8950251,0.717748,0.726239,0.52194333,-0.01722769,0.80541164,0.61438924,0.6307185,0.3898117,0.52702284,0.43247586,0.18331113,0.13716404,0.46371725,-0.18822727,-0.34810936,-0.48153967,-0.059627037,814.7253,803.0403,797.3993,808.68134,755.4945,0.07421875,0.127197265625,0.98187255859375,-1.368255615234375,-2.953338623046875,-3.8580322265625,1,2.0,1.0,1.0,2.0,90.00
2021-04-28 11:21:35.543,0.87923443,0.89988685,0.81347746,0.717748,0.726239,0.37778533,-0.25177306,0.80541164,0.61438924,-0.08529033,0.3611302,0.52702284,0.43247586,0.22033904,0.1819472,0.46371725,-0.18822727,-0.24051253,-0.41559663,-0.059627037,752.674,802.6374,793.7729,751.8681,682.96704,0.06378173828125,0.1324462890625,0.99322509765625,4.717864990234375,-6.9085693359375,-1.173858642578125,1,2.0,1.0,1.0,2.0,95.00
2021-04-28 11:21:36.068,1.1396848,0.6835594,0.6189793,0.95283,0.7266272,0.10131284,-0.08375515,0.64077634,1.0371156,-0.058590036,0.3579076,0.8374925,0.384126,0.20080465,0.12097748,0.2995279,-0.01930138,-0.2578943,-0.41875628,0.025459703,853.00366,799.011,809.4872,844.94507,832.8571,0.075439453125,0.12969970703125,0.99462890625,4.314117431640625,-2.355194091796875,-1.51031494140625,1,1.0,1.0,1.0,1.0,95.00
2021-04-28 11:21:36.572,1.1103948,0.23129769,0.4934482,0.93177384,0.67584354,-0.15562795,0.2249239,0.5998639,1.0371156,-0.11732883,0.23038904,0.86642617,0.36356118,0.2712025,0.059409544,0.30928457,-0.029930932,-0.24660842,-0.4270763,0.0020950208,798.60803,794.57874,809.4872,810.696,776.04395,0.01837158203125,0.19854736328125,0.99267578125,7.170257568359375,-5.091705322265625,-9.861907958984375,1,1.0,1.0,1.0,1.0,95.00
2021-04-28 11:21:37.082,1.1498784,0.30548653,0.87640154,0.9479987,0.65774906,-0.3215324,0.4614819,0.5225653,1.0365344,-0.13544518,0.21448532,0.8536847,0.36366186,0.2637823,-0.048612785,0.32622653,-0.03533978,-0.38621444,-0.54424804,0.01286202,811.0989,794.17584,813.5165,799.011,691.8315,0.0623779296875,0.1708984375,0.9927978515625,1.069183349609375,-10.086212158203125,17.4359130859375,1,1.0,1.0,1.0,1.0,95.00
2021-04-28 11:21:37.601,1.2008978,0.81208414,1.1108111,1.0084708,0.52776927,0.09864376,0.6151149,0.34463775,0.98917687,0.20517704,0.21448532,0.66525733,0.3390745,0.3164956,-0.04057724,0.3813299,-0.0311595,-0.2703517,-0.5696972,-0.010876869,799.81683,799.41394,803.44324,800.6227,746.2271,0.098876953125,0.0782470703125,0.98382568359375,-1.15142822265625,-1.637420654296875,31.694183349609375,1,1.0,1.0,1.0,1.0,95.00
2021-04-28 11:21:38.109,1.2008978,0.7947243,1.2800323,1.0084708,0.52776927,0.15198076,0.7097123,0.34463775,0.98917687,0.19081236,0.13610528,0.66525733,0.3390745,0.12499148,-0.071594715,0.3813299,-0.0311595,-0.2749651,-0.50050366,-0.010876869,856.63007,798.20514,817.9487,852.6007,850.18317,0.05755615234375,0.0665283203125,1.00152587890625,4.47113037109375,-0.79254150390625,3.297271728515625,1,1.0,1.0,1.0,1.0,95.00
2021-04-28 11:21:38.613,1.2008978,0.7234862,0.50802064,1.0084708,0.52776927,0.19244085,0.14739667,0.34463775,0.98917687,0.36263186,0.23689568,0.66525733,0.3390745,0.16663642,0.17607199,0.3813299,-0.0311595,-0.19561186,-0.18179892,-0.010876869,840.10986,805.8608,809.0842,840.5128,670.4762,0.03936767578125,0.04107666015625,0.9981689453125,5.7421875,-9.607696533203125,-9.368438720703125,1,1.0,1.0,1.0,1.0,95.00
2021-04-28 11:21:39.134,1.070096,0.42795312,0.4725596,0.809237,0.79122263,0.1046305,0.21152271,0.5489378,0.35458747,0.31039122,0.3197145,0.5735884,0.60902905,0.15788677,0.098040886,0.3213756,-0.3351629,-0.21926089,-0.30238593,0.124286234,761.13556,799.011,800.6227,760.32965,729.304,0.09112548828125,0.0926513671875,0.996337890625,8.3441162109375,-6.29547119140625,-12.08251953125,1,1.0,1.0,1.0,1.0,95.00
2021-04-28 11:21:39.638,0.9761646,0.40886426,0.55806047,0.801608,0.92747706,0.068016335,0.23969316,0.8181515,0.72574294,0.36019912,0.45210698,0.7416962,0.60931176,0.18020722,0.05681419,0.35824394,-0.29707295,-0.24501996,-0.35865027,0.005067269,784.10254,801.4286,807.0696,771.2088,667.25275,0.11737060546875,0.11688232421875,0.9908447265625,3.78326416015625,-9.906768798828125,0.0897216796875,1,1.0,1.0,1.0,1.0,95.00
2021-04-28 11:21:40.154,0.99869645,0.38254535,0.58351415,0.80649984,0.9229726,0.06699967,0.24116936,0.909328,0.9450007,0.35627976,0.43035525,0.7448899,0.56693363,0.10274779,0.012703252,0.4110954,-0.19691195,-0.33900857,-0.48318702,-0.16084655,914.2491,800.2198,792.96704,904.17584,757.9121,0.13623046875,0.1158447265625,0.98785400390625,6.886138916015625,-7.259979248046875,1.532745361328125,1,1.0,1.0,1.0,1.0,95.00
2021-04-28 11:21:40.675,0.94476205,0.5455464,0.77436084,0.7345334,0.9765502,0.07379647,0.20239606,0.9807508,0.944778,0.3449039,0.36906928,0.69252115,0.5218808,0.06268854,0.026289461,0.423546,-0.12917845,-0.38498217,-0.5331948,-0.29156688,855.42126,806.6667,811.0989,847.3626,883.22345,0.1845703125,0.11883544921875,0.97479248046875,4.94964599609375,-6.80389404296875,-2.190704345703125,1,1.0,1.0,1.0,1.0,95.00
2021-04-28 11:21:41.177,1.0498378,0.5143992,0.7536769,0.7651914,0.81971973,0.12958084,0.40439123,0.83654594,0.9072321,0.5243443,0.46010852,0.33657166,0.4862084,0.07138667,0.022772558,0.41379112,-0.020554887,-0.46263397,-0.50047475,-0.24281578,786.9231,803.44324,815.12823,799.41394,713.9927,0.1644287109375,0.14801025390625,0.9814453125,5.091705322265625,-4.127197265625,0.097198486328125,1,1.0,1.0,1.0,1.0,95.00
2021-04-28 11:21:41.690,1.0498378,0.57891315,0.7608808,0.7651914,0.81971973,0.103607796,0.5079855,0.83654594,0.9072321,0.47752053,0.5224343,0.33657166,0.4862084,0.14500822,0.03991691,0.41379112,-0.020554887,-0.54119545,-0.5173169,-0.24281578,790.54944,782.8938,827.2161,795.78754,757.50916,0.17181396484375,0.1414794921875,1.00054931640625,-5.06927490234375,-2.669219970703125,23.215484619140625,1,1.0,1.0,1.0,1.0,95.00
2021-04-28 11:21:42.198,1.0498378,0.9167559,0.67790115,0.7651914,0.81971973,0.35108048,0.6094849,0.83654594,0.9072321,0.5671024,0.5224343,0.33657166,0.4862084,0.19028589,0.046488766,0.41379112,-0.020554887,-0.5538858,-0.44628218,-0.24281578,841.31866,814.7253,799.41394,836.4835,947.6923,0.12884521484375,-0.01312255859375,0.98504638671875,2.3028564453125,-3.252410888671875,2.0635986328125,1,1.0,1.0,1.0,1.0,95.00
2021-04-28 11:21:42.714,1.0498378,1.0340104,0.58261967,0.7651914,0.81971973,0.4485143,0.47109935,0.83654594,0.9072321,0.5600683,0.48161638,0.33657166,0.4862084,0.27452034,0.12630454,0.41379112,-0.020554887,-0.531041,-0.51658106,-0.24281578,832.8571,807.8755,815.12823,825.6044,817.1429,0.13616943359375,0.0289306640625,0.99334716796875,7.723541259765625,-0.994415283203125,-12.5909423828125,1,1.0,1.0,1.0,1.0,95.00
2021-04-28 11:21:43.242,1.0498378,0.9557366,0.23156518,0.7651914,0.81971973,0.3787952,-0.186759,0.83654594,0.9072321,0.4271958,-0.07867691,0.33657166,0.4862084,0.26654175,0.07799433,0.41379112,-0.020554887,-0.47944888,-0.5211529,-0.24281578,789.34064,807.0696,803.0403,787.72894,653.95605,0.10113525390625,0.04193115234375,0.9937744140625,6.168365478515625,-5.90667724609375,4.344024658203125,1,2.0,1.0,1.0,2.0,95.00
2021-04-28 11:21:43.766,1.0498378,0.18366726,0.10609189,0.7651914,0.81971973,-0.13421188,-0.020698575,0.83654594,0.9072321,0.12954527,0.101709954,0.33657166,0.4862084,0.16304944,0.060914323,0.41379112,-0.020554887,-0.44682932,-0.47276703,-0.24281578,793.36993,799.81683,801.4286,780.87915,693.44324,0.103759765625,0.0401611328125,0.99176025390625,3.820648193359375,-3.529052734375,-9.64508056640625,1,2.0,1.0,1.0,2.0,95.00
2021-04-28 11:21:44.297,1.4501092,0.41685244,0.3481183,1.4652429,0.9494955,-0.15103109,0.09010902,0.6278046,0.82767,0.11533781,0.17496715,0.52945215,0.44706598,0.0666634,0.15460251,0.33652544,-0.16717258,-0.43976873,-0.41293198,-0.09481311,801.02563,799.81683,804.65204,796.5934,691.02563,0.0989990234375,0.1334228515625,0.988037109375,10.21331787109375,-4.867401123046875,-11.177825927734375,1,1.0,1.0,1.0,1.0,95.00
2021-04-28 11:21:44.806,1.4607288,0.7275861,1.0198497,1.546178,1.2792987,-0.05027421,0.4720706,0.9853733,0.9207805,0.031259377,0.37531117,0.57417715,0.4046908,-0.039949875,0.13632314,0.34379786,-0.08972171,-0.41689393,-0.34275606,-0.048149567,833.2601,800.6227,816.337,833.2601,840.10986,0.10809326171875,0.1815185546875,0.98095703125,5.9515380859375,-6.47491455078125,1.966400146484375,1,1.0,1.0,1.0,1.0,95.00
2021-04-28 11:21:45.309,1.4550878,1.045113,1.1173056,1.624149,1.2274989,0.39294043,0.60863197,1.05834,0.9406054,0.5831781,0.55373716,0.5310076,0.4489482,-0.016091162,0.122115,0.3925677,-0.053014748,-0.34513855,-0.35774454,-0.027905704,840.9158,800.6227,811.50183,838.49817,844.94507,0.1025390625,0.17120361328125,0.98504638671875,4.777679443359375,-3.805694580078125,1.398162841796875,1,1.0,1.0,1.0,1.0,95.00
2021-04-28 11:21:45.830,1.4091715,0.90527827,1.083184,1.357519,1.2701211,0.30922458,0.5704007,1.0741314,0.9406054,0.58451873,0.559945,0.46486703,0.45781755,0.01523591,-0.020998543,0.38209698,0.0059791156,-0.30422023,-0.36856925,-0.04218432,763.95605,805.8608,805.8608,762.3443,591.9048,0.0965576171875,0.17462158203125,0.9808349609375,5.375823974609375,-5.839385986328125,1.2860107421875,1,1.0,1.0,1.0,1.0,95.00
2021-04-28 11:21:46.334,1.0915077,0.5017794,0.5644743,0.25605512,0.70971584,0.20747864,0.277956,0.5207356,0.88316673,0.5871931,0.55607915,0.39992478,0.46076342,0.07452362,0.0049645533,0.38449293,-0.09671379,-0.23556453,-0.3542282,-0.112656295,757.50916,793.7729,801.4286,772.8205,655.16486,0.13665771484375,0.19610595703125,0.973876953125,5.4132080078125,-8.052520751953125,-1.00189208984375,1,1.0,1.0,1.0,1.0,95.00
2021-04-28 11:21:46.861,0.23979442,-0.101759374,0.029722987,0.17320251,0.28469494,-0.16923936,-0.25733688,0.61856323,0.37604687,0.28631994,0.11815848,0.46328762,0.38044402,0.017457632,-0.024536002,0.2970024,-0.009376021,-0.2539292,-0.38328204,0.04709079,863.47986,800.6227,819.9634,869.92676,817.5458,0.12225341796875,0.1800537109375,0.97991943359375,4.732818603515625,-5.091705322265625,2.8411865234375,1,1.0,1.0,1.0,1.0,95.00
2021-04-28 11:21:47.388,0.85670584,0.27969208,0.08254394,0.6699273,0.7538515,0.15239291,-0.20745447,0.8212384,0.58702236,0.35922295,0.18293902,0.69855493,0.3785272,0.15403497,-0.09839088,0.21437423,-0.0039280923,-0.23464903,-0.407643,0.0649774,840.9158,803.44324,803.8461,835.6777,844.94507,0.11590576171875,0.19134521484375,0.9852294921875,4.47113037109375,-2.729034423828125,2.79632568359375,1,1.0,1.0,1.0,1.0,95.00
2021-04-28 11:21:47.916,0.91137695,0.32737705,0.08051578,0.88878876,0.841495,0.17357568,-0.05808814,0.85756475,0.7130192,0.3912159,0.1773989,0.82974833,0.41304532,0.14925791,-0.13670506,0.3972496,0.035984542,-0.30156666,-0.46003088,-0.0035324325,838.9011,801.4286,809.89014,827.619,786.52014,0.107177734375,0.18359375,0.981201171875,4.792633056640625,-3.715972900390625,1.786956787109375,1,1.0,1.0,1.0,1.0,95.00
2021-04-28 11:21:48.432,1.0561619,0.40236694,0.16002567,1.1964525,0.9366337,0.24737392,-0.024477156,1.0348284,0.87005275,0.3701643,0.16509415,1.0764896,0.4937777,0.24243347,-0.047637075,0.56812733,-0.051863864,-0.37833157,-0.47760162,-0.32149833,855.0183,805.05493,814.3223,846.9597,779.67035,0.10516357421875,0.2001953125,0.982177734375,3.252410888671875,-4.3963623046875,1.607513427734375,1,1.0,1.0,1.0,1.0,95.00
2021-04-28 11:21:48.935,0.8275868,0.15020852,-0.028853334,1.0681529,0.764204,0.17149238,-0.02480908,0.95812184,0.8805841,0.32042605,0.07527052,1.0764896,0.546264,0.19930826,0.005551515,0.58842826,-0.109884545,-0.39690948,-0.57498944,-0.3043766,758.71796,799.81683,799.011,770.80585,699.0842,0.112548828125,0.1783447265625,0.97589111328125,3.7982177734375,-6.05621337890625,0.25421142578125,1,1.0,1.0,1.0,1.0,95.00
