TimeStamp,Delta_TP9,Delta_AF7,Delta_AF8,Delta_TP10,Theta_TP9,Theta_AF7,Theta_AF8,Theta_TP10,Alpha_TP9,Alpha_AF7,Alpha_AF8,Alpha_TP10,Beta_TP9,Beta_AF7,Beta_AF8,Beta_TP10,Gamma_TP9,Gamma_AF7,Gamma_AF8,Gamma_TP10,RAW_TP9,RAW_AF7,RAW_AF8,RAW_TP10,AUX_RIGHT,Accelerometer_X,Accelerometer_Y,Accelerometer_Z,Gyro_X,Gyro_Y,Gyro_Z,HeadBandOn,HSI_TP9,HSI_AF7,HSI_AF8,HSI_TP10,Battery,Elements
2021-04-07 12:02:13.896,0.85073644,0.47187757,0.856916,0.38717908,0.61196554,0.2240462,0.24470548,0.08750827,0.6703824,0.25262442,0.23340675,0.2919508,0.41674638,0.0645259,0.053744934,0.42835003,-0.05444873,-0.04952507,-0.40440798,-0.20552523,834.0659,819.9634,792.1612,811.9048,824.3956,-0.00909423828125,0.09027099609375,0.999267578125,5.405731201171875,-8.3441162109375,-0.142059326171875,1,1.0,1.0,1.0,1.0,70.00
2021-04-07 12:02:14.421,0.5158354,0.47187757,0.6998571,0.072539784,0.40583074,0.2240462,0.23175356,0.31958154,0.6101616,0.25262442,0.24612994,0.55868655,0.42744145,0.0645259,-0.21129388,0.5503356,-0.08714835,-0.04952507,-0.4164194,0.559105,821.978,812.71063,786.52014,815.5311,664.43225,0.01568603515625,0.09185791015625,1.000732421875,4.478607177734375,-2.22808837890625,1.457977294921875,1,1.0,1.0,1.0,1.0,70.00
2021-04-07 12:02:14.943,0.4602124,0.47187757,-0.49454263,0.012471675,0.4051569,0.2240462,-0.120333135,0.07730982,0.61601734,0.25262442,0.16828111,0.55868655,0.5188492,0.0645259,-0.18162918,0.5632486,-0.08999675,-0.04952507,-0.39474773,0.43900394,775.2381,783.2967,794.17584,796.5934,777.6557,0.0067138671875,0.09320068359375,1.01580810546875,-0.186920166015625,0.777587890625,-5.96649169921875,1,1.0,1.0,1.0,1.0,70.00
2021-04-07 12:02:15.447,0.40090305,0.47187757,0.04648045,0.2695806,0.37963057,0.2240462,-0.13749817,0.22306433,0.49412626,0.25262442,0.16828111,0.55868655,0.4647098,0.0645259,-0.1493862,0.52435386,-0.17548153,-0.04952507,-0.42004398,0.37090546,817.5458,835.6777,798.20514,841.7216,695.4579,-0.1361083984375,-0.02301025390625,0.9923095703125,-0.710296630859375,2.594451904296875,-31.4923095703125,1,1.0,1.0,1.0,1.0,70.00
2021-04-07 12:02:15.952,0.5655975,0.47187757,0.5725986,0.3990626,0.4598262,0.2240462,-0.0010453319,0.19110255,0.38316202,0.25262442,0.15108147,0.29464933,0.49257615,0.0645259,-0.06981249,0.4915437,-0.18475862,-0.04952507,-0.40788433,0.1473273,760.7326,795.38464,803.0403,793.36993,719.2308,-0.1507568359375,-0.06597900390625,0.989990234375,5.121612548828125,-6.317901611328125,2.67669677734375,1,1.0,1.0,1.0,1.0,70.00
2021-04-07 12:02:16.463,0.66505796,0.47187757,0.66282314,0.5738166,0.45814198,0.2240462,0.044355072,0.4061151,0.23517653,0.25262442,0.12273236,0.27534488,0.21103162,0.0645259,-0.03384031,0.401145,-0.2764987,-0.04952507,-0.46182132,0.05313917,831.6484,790.54944,792.5641,818.7546,705.12823,-0.21295166015625,-0.0023193359375,0.986328125,7.798309326171875,7.828216552734375,2.669219970703125,1,1.0,1.0,1.0,1.0,70.00
2021-04-07 12:02:16.966,0.41611013,0.47187757,0.48704264,0.5738166,-0.008730337,0.2240462,-0.07267313,0.4061151,0.32192397,0.25262442,0.0958669,0.27534488,-0.11965155,0.0645259,0.0902769,0.401145,-0.4105274,-0.04952507,-0.33648112,0.05313917,793.36993,815.12823,805.4579,805.8608,652.3443,-0.3985595703125,0.0279541015625,0.89306640625,13.002166748046875,11.701202392578125,-6.9384765625,1,1.0,1.0,1.0,1.0,70.00
2021-04-07 12:02:17.491,0.45343813,0.47187757,0.049158093,0.30371234,-0.07188278,0.2240462,-0.20981269,0.23220061,0.4000471,0.25262442,0.02674111,0.29097244,0.06029612,0.0645259,0.1261899,0.16548105,-0.40721864,-0.04952507,-0.19405136,-0.14348525,770.80585,783.2967,792.1612,788.1319,755.4945,-0.36602783203125,0.08331298828125,0.934814453125,6.23565673828125,-14.362945556640625,-3.102874755859375,1,1.0,1.0,1.0,1.0,70.00
2021-04-07 12:02:17.996,0.89034784,0.47187757,0.22559838,0.8853928,0.767206,0.2240462,-0.006959189,0.88165385,1.1210035,0.25262442,0.12569448,1.1516932,0.49752435,0.0645259,0.23077603,0.5151394,-0.4016996,-0.04952507,-0.14382373,-0.10818012,815.12823,787.326,797.8022,815.9341,872.74725,-0.35546875,0.090087890625,0.9339599609375,7.37213134765625,-5.4730224609375,-1.891632080078125,1,1.0,1.0,1.0,1.0,70.00
2021-04-07 12:02:18.510,0.89151084,0.47187757,0.2912721,0.86191225,0.83332264,0.2240462,0.008254921,0.8678752,1.1392952,0.25262442,0.12546125,1.1675224,0.5673811,0.0645259,0.25204045,0.51846045,-0.30875546,-0.04952507,-0.15359624,-0.0891254,820.7692,801.02563,806.26373,821.1722,811.50183,-0.32965087890625,0.09173583984375,0.93780517578125,4.792633056640625,-5.644989013671875,-0.59814453125,1,1.0,1.0,1.0,1.0,70.00
2021-04-07 12:02:19.018,0.7873819,0.47187757,0.117967755,0.7785347,0.76520175,0.2240462,0.116014145,0.79598653,1.1392952,0.25262442,0.34555727,1.1675224,0.57340664,0.0645259,0.22107267,0.5341555,-0.30326268,-0.04952507,-0.24361627,-0.09036007,791.3553,800.2198,792.5641,794.17584,751.8681,-0.3251953125,0.09161376953125,0.9412841796875,4.0673828125,-5.630035400390625,1.09161376953125,1,1.0,1.0,1.0,1.0,70.00
2021-04-07 12:02:19.522,0.34531298,0.5225875,-0.051379107,0.3808713,0.3324488,0.11410365,0.16209337,0.37220147,0.98908246,0.21068773,0.32876253,0.78912276,0.40356228,0.12778418,0.13149527,0.37700924,-0.35125875,-0.12770541,-0.29897726,-0.14906514,814.7253,786.52014,794.9817,807.8755,809.4872,-0.32305908203125,0.06683349609375,0.947998046875,1.9439697265625,-6.280517578125,3.09539794921875,1,1.0,1.0,1.0,1.0,70.00
2021-04-07 12:02:20.030,0.43887362,0.73636967,0.20004638,0.47516757,0.45283827,0.21850552,0.32864606,0.5060364,0.7095558,0.4874009,0.296321,0.67040956,0.43107143,0.08102572,0.052426502,0.3386458,-0.31413764,-0.1782872,-0.33507514,-0.17453359,807.8755,804.2491,804.2491,816.337,823.9927,-0.30206298828125,0.06744384765625,0.9539794921875,3.3197021484375,-8.545989990234375,2.9010009765625,1,1.0,1.0,1.0,1.0,70.00
2021-04-07 12:02:20.533,0.685469,0.6633893,0.28492317,0.7284492,0.62473613,0.2822027,0.35374913,0.6259476,0.7071189,0.5662735,0.40150145,0.6718848,0.35032168,0.1316035,0.03406741,0.32447276,-0.21320903,-0.19986096,-0.32882178,-0.19434059,810.696,802.23444,794.9817,800.2198,685.78754,-0.24737548828125,0.05841064453125,0.9708251953125,3.745880126953125,-9.21142578125,2.041168212890625,1,1.0,1.0,1.0,1.0,70.00
2021-04-07 12:02:21.061,0.8178881,0.7003511,0.38882512,0.7831619,0.7473974,0.29337832,0.3363793,0.703637,0.6779594,0.5662735,0.4336685,0.588652,0.30038896,0.15703896,-0.015073766,0.35161868,-0.14677185,-0.24052961,-0.44398674,-0.14313947,836.8865,813.5165,781.685,851.79486,725.2747,-0.2486572265625,0.0533447265625,0.9652099609375,4.6954345703125,-3.521575927734375,1.256103515625,1,1.0,1.0,1.0,1.0,70.00
2021-04-07 12:02:21.584,0.89003134,0.49878404,0.6101511,0.8557748,0.75771487,0.4960945,0.63504505,0.66478425,0.57734126,0.64581835,0.49622795,0.588652,0.15311506,0.12790991,-0.10150644,0.43204257,-0.13367926,-0.29927865,-0.5634873,-0.13591972,802.6374,791.3553,794.57874,812.3077,853.8095,-0.255126953125,0.0509033203125,0.97064208984375,4.44122314453125,-4.523468017578125,0.777587890625,1,1.0,1.0,1.0,1.0,70.00
2021-04-07 12:02:22.093,0.83079624,0.5067953,0.6692827,0.57915735,0.6811006,0.55675966,0.66586405,0.5982213,0.2629912,0.5477762,0.46997643,0.57923734,0.17112936,0.13217951,-0.16020976,0.4066013,-0.30413672,-0.33844954,-0.5983752,-0.10981347,836.8865,801.4286,790.54944,826.4103,823.9927,-0.25482177734375,0.0452880859375,0.9586181640625,-4.583282470703125,-1.74957275390625,28.18756103515625,1,1.0,1.0,1.0,1.0,70.00
2021-04-07 12:02:22.606,0.83079624,0.9881054,1.0425153,0.57915735,0.6811006,0.7974542,0.86016566,0.5982213,0.2629912,0.6961342,0.60044044,0.57923734,0.17112936,0.19151562,-0.036361262,0.4066013,-0.30413672,-0.37503254,-0.547691,-0.10981347,792.5641,807.0696,801.8315,800.2198,601.1722,-0.27117919921875,0.05517578125,0.96337890625,5.390777587890625,-5.988922119140625,-1.4056396484375,1,1.0,1.0,1.0,1.0,70.00
2021-04-07 12:02:23.131,0.5303584,1.063829,1.1301483,0.33443895,0.7048699,0.72283816,0.78281295,0.067351714,0.9631705,0.68805546,0.58710235,0.66791767,0.30460078,0.23674507,0.034627683,0.24841656,-0.37825406,-0.37374705,-0.51112175,-0.1730595,787.326,813.5165,795.38464,788.93774,778.0586,-0.27728271484375,0.0528564453125,0.96514892578125,5.271148681640625,-5.5029296875,-0.919647216796875,1,1.0,1.0,1.0,1.0,70.00
2021-04-07 12:02:23.633,0.5355212,1.1298059,1.24562,0.31192404,0.5843785,0.70967424,0.7945303,0.26998562,0.9631705,0.67904687,0.68017834,0.7437456,0.24973843,0.21929954,0.10179954,0.33876115,-0.3428614,-0.3603811,-0.4775169,-0.20989004,879.59705,831.6484,778.0586,891.685,998.46155,-0.1014404296875,0.09478759765625,0.9384765625,26.5277099609375,-57.623748779296875,-74.29702758789062,1,1.0,1.0,1.0,1.0,70.00
2021-04-07 12:02:24.142,1.2236857,1.1769894,1.2538998,0.19986854,0.61481607,0.5843687,0.5254753,0.26992935,0.7083242,0.4766327,0.6134351,0.5243346,0.27537173,0.21670406,0.15637624,0.32250732,-0.30799922,-0.30843198,-0.3866705,-0.20645861,848.97437,801.8315,802.6374,817.9487,791.3553,0.1058349609375,0.08056640625,0.9923095703125,-18.744354248046875,-9.667510986328125,25.981903076171875,1,1.0,1.0,1.0,1.0,70.00
2021-04-07 12:02:24.656,1.4114925,1.2986976,1.2514889,0.26305762,0.72106385,0.67119896,0.5037089,0.511959,0.66997534,0.4766327,0.59233576,0.48646042,0.30209363,0.26836276,0.19737543,0.4772623,-0.26307386,-0.2783596,-0.35722744,-0.2944958,791.75824,821.978,785.7143,796.1905,1007.326,0.1856689453125,-0.2984619140625,0.93133544921875,-12.48626708984375,-17.7947998046875,-6.9085693359375,1,1.0,1.0,1.0,1.0,70.00
2021-04-07 12:02:25.188,1.5449724,1.487661,1.2638175,0.26305762,1.0610245,0.8069058,0.38291025,0.511959,1.1620213,0.45914078,0.5456655,0.48646042,0.40366438,0.28847343,0.24327894,0.4772623,0.05846886,-0.25850573,-0.35660633,-0.2944958,759.12085,869.92676,811.0989,786.9231,741.79486,0.5120849609375,-0.41937255859375,0.8116455078125,7.7459716796875,-10.759124755859375,0.994415283203125,1,1.0,1.0,1.0,1.0,70.00
2021-04-07 12:02:25.695,0.7751377,1.487661,0.67756736,0.7094547,0.9105476,0.8069058,-0.44933054,0.7245281,1.1891327,0.45914078,-0.2915685,0.9727353,0.5681831,0.28847343,0.25419688,0.9000648,0.21879682,-0.25850573,-0.25685155,0.4425656,766.77655,797.8022,786.9231,780.87915,768.3883,0.30145263671875,-0.236083984375,0.910400390625,27.133331298828125,21.89208984375,22.84912109375,1,1.0,1.0,1.0,1.0,70.00
2021-04-07 12:02:26.197,0.7751377,1.487661,0.80377054,0.7094547,0.9105476,0.8069058,-0.3955604,0.7245281,1.1891327,0.45914078,-0.20534015,0.9727353,0.5681831,0.28847343,0.22545299,0.9000648,0.21879682,-0.25850573,-0.22849186,0.4425656,843.3333,858.6447,871.13556,811.0989,891.685,0.07574462890625,-0.1085205078125,0.99700927734375,10.160980224609375,2.654266357421875,7.237548828125,1,1.0,1.0,1.0,1.0,70.00
2021-04-07 12:02:26.702,0.7017401,1.487661,0.8445068,1.0670881,0.7123813,0.8069058,-0.43358442,1.0015615,1.0104913,0.45914078,-0.25275198,1.2038151,0.6938914,0.28847343,0.241738,1.0630286,0.2129115,-0.25850573,-0.2250819,0.5507598,757.50916,803.0403,787.72894,791.75824,656.3736,0.02197265625,-0.0504150390625,1.021484375,18.355560302734375,4.179534912109375,8.695526123046875,1,1.0,1.0,1.0,1.0,70.00
2021-04-07 12:02:27.226,0.7017401,1.487661,0.97738075,1.2772905,0.7123813,0.8069058,-0.36278728,1.1551338,1.0104913,0.45914078,-0.29744524,1.180534,0.6938914,0.28847343,0.21374209,1.1135254,0.2129115,-0.25850573,-0.15478288,0.6308779,822.7839,915.05493,789.7436,828.022,711.1722,-0.02569580078125,-0.03564453125,0.97119140625,7.215118408203125,0.261688232421875,34.789581298828125,1,1.0,1.0,1.0,1.0,70.00
2021-04-07 12:02:27.736,0.33916464,1.487661,0.97738075,1.3065281,0.013256869,0.8069058,-0.36278728,1.1073474,0.6014436,0.45914078,-0.29744524,1.1766442,0.5107185,0.28847343,0.21374209,1.1947718,0.23672475,-0.25850573,-0.15478288,0.96572846,854.21246,807.8755,782.49084,832.4542,863.8828,-0.06622314453125,0.03167724609375,0.9964599609375,7.962799072265625,-8.620758056640625,10.355377197265625,1,1.0,1.0,1.0,1.0,70.00
2021-04-07 12:02:28.238,0.36383262,1.487661,0.35223675,0.91042614,0.17668425,0.8069058,-0.28631693,0.49009112,0.64495355,0.45914078,0.16961531,0.78633016,0.4543554,0.28847343,0.024896488,1.0369334,0.20848633,-0.25850573,-0.46997935,0.90000015,826.8132,844.1392,749.45056,803.44324,634.21246,-0.0374755859375,0.0960693359375,0.99896240234375,9.16656494140625,-1.308441162109375,-53.36944580078125,1,1.0,1.0,1.0,1.0,70.00
2021-04-07 12:02:28.776,0.34899068,1.487661,0.3982263,0.76879305,0.19507398,0.8069058,-0.24193153,0.37029365,0.6319286,0.45914078,0.16961531,0.7009442,0.45510203,0.28847343,0.030150326,0.9865279,0.20405017,-0.25850573,-0.46855536,0.86469066,773.6264,776.4469,796.99634,801.8315,826.8132,-0.146728515625,-0.0142822265625,0.9849853515625,2.82623291015625,-1.3458251953125,-7.962799072265625,1,1.0,1.0,1.0,1.0,70.00
2021-04-07 12:02:29.297,0.39839122,1.487661,0.76085466,0.6240327,0.344123,0.8069058,0.09949216,0.35315877,0.46892303,0.45914078,0.26108024,0.6393175,0.35315275,0.28847343,0.0870745,0.9060247,0.16235581,-0.25850573,-0.46627438,0.7549082,773.6264,800.6227,783.69965,790.14655,687.8022,-0.17315673828125,-0.03680419921875,0.98516845703125,4.149627685546875,-5.4132080078125,-3.12530517578125,1,1.0,1.0,1.0,1.0,70.00
2021-04-07 12:02:29.819,0.39839122,1.487661,0.7383533,0.6240327,0.344123,0.8069058,0.102465704,0.35315877,0.46892303,0.45914078,0.2525884,0.6393175,0.35315275,0.28847343,0.10377884,0.9060247,0.16235581,-0.25850573,-0.47111484,0.7549082,786.52014,781.685,786.9231,805.8608,792.96704,-0.14666748046875,-0.06439208984375,0.982177734375,0.70281982421875,-1.51031494140625,5.465545654296875,1,1.0,1.0,1.0,1.0,70.00
2021-04-07 12:02:30.325,0.39839122,0.9769249,0.86139,1.0589094,0.344123,0.92565894,0.3364591,0.54989964,0.46892303,0.38448283,0.49547186,0.61483485,0.35315275,0.28362885,0.10124466,0.2675944,0.16235581,-0.13280664,-0.45469695,-0.030312462,832.0513,800.2198,792.96704,812.71063,896.9231,-0.164306640625,-0.056396484375,0.9765625,6.482391357421875,-4.478607177734375,2.093505859375,1,1.0,1.0,1.0,1.0,70.00
2021-04-07 12:02:30.841,0.39839122,0.9953321,0.6991269,0.99600863,0.344123,0.8452826,0.287439,0.4944511,0.46892303,0.38617,0.45635968,0.6320407,0.35315275,0.29276493,0.11786124,0.38456768,0.16235581,-0.096048035,-0.42604718,0.0031848913,825.6044,801.4286,789.34064,805.4579,720.84247,-0.1357421875,-0.05462646484375,0.9903564453125,6.467437744140625,-8.08990478515625,-0.530853271484375,1,1.0,1.0,1.0,1.0,70.00
2021-04-07 12:02:31.354,0.45817742,0.9220944,0.6783179,0.94098437,0.19280118,0.69474256,0.27538118,0.46453074,0.4087977,0.383301,0.44476306,0.61754936,0.22869112,0.2665406,0.07908021,0.3958385,-0.30143288,-0.034909997,-0.44146085,0.012567435,752.674,796.1905,817.1429,773.6264,788.5348,-0.0628662109375,-0.03173828125,1.02069091796875,0.067291259765625,-18.235931396484375,-11.671295166015625,1,1.0,1.0,1.0,1.0,70.00
2021-04-07 12:02:31.861,0.45817742,0.8708534,0.78717405,0.67570305,0.19280118,0.36994275,0.6164213,0.2663947,0.4087977,0.44082206,0.5473059,0.4517512,0.22869112,0.31116575,0.101221606,0.39875343,-0.30143288,0.07785709,-0.35443828,-0.014162898,856.63007,850.58606,767.1795,854.21246,772.01465,-0.07659912109375,-0.05316162109375,1.00299072265625,9.76470947265625,-20.29205322265625,-25.73516845703125,1,1.0,1.0,1.0,1.0,70.00
2021-04-07 12:02:32.391,0.45817742,0.8034312,0.9026234,0.31752542,0.19280118,0.3191486,0.7514887,0.09422111,0.4087977,0.41575354,0.5473059,0.31715795,0.22869112,0.3096355,0.040890824,0.3048659,-0.30143288,0.101310655,-0.3378487,-0.08151461,833.663,750.2564,811.50183,843.3333,777.25275,0.01483154296875,-0.02276611328125,1.01177978515625,-1.861724853515625,0.897216796875,17.1368408203125,1,1.0,1.0,1.0,1.0,70.00
2021-04-07 12:02:32.913,0.45817742,0.99069554,1.2222031,0.31752542,0.19280118,0.45778733,1.0844721,0.09422111,0.4087977,0.41574642,0.5473059,0.31715795,0.22869112,0.43901947,0.17062718,0.3048659,-0.30143288,0.18659827,-0.18139802,-0.08151461,834.0659,817.5458,789.7436,822.7839,833.2601,-0.11834716796875,-0.04150390625,0.9873046875,2.82623291015625,-0.515899658203125,9.532928466796875,1,1.0,1.0,1.0,1.0,70.00
2021-04-07 12:02:33.441,0.45817742,1.060379,1.2222031,0.31752542,0.19280118,0.50915146,1.0844721,0.09422111,0.4087977,0.41574642,0.5473059,0.31715795,0.22869112,0.4693574,0.17062718,0.3048659,-0.30143288,0.19215377,-0.18139802,-0.08151461,792.5641,802.23444,786.52014,809.4872,659.19415,-0.14776611328125,-0.02825927734375,0.99005126953125,6.08612060546875,1.24114990234375,11.446990966796875,1,1.0,1.0,1.0,1.0,70.00
2021-04-07 12:02:33.970,0.45817742,-0.2512335,-0.08875309,0.31752542,0.19280118,-0.12686124,-0.6273931,0.09422111,0.4087977,-0.023166437,-0.19958675,0.31715795,0.22869112,0.10923805,0.2468387,0.3048659,-0.30143288,-0.35339242,-0.37879914,-0.08151461,753.0769,801.4286,800.6227,783.69965,634.21246,-0.1434326171875,0.03369140625,0.98992919921875,7.65625,-6.041259765625,1.667327880859375,1,1.0,1.0,1.0,1.0,70.00
2021-04-07 12:02:34.481,0.45817742,0.46691877,0.3868755,0.31752542,0.19280118,0.15240046,-0.14399116,0.09422111,0.4087977,0.36664614,0.32340768,0.31715795,0.22869112,0.13347784,0.059706397,0.3048659,-0.30143288,-0.24302812,-0.29342625,-0.08151461,790.9524,806.26373,804.2491,801.4286,702.3077,-0.12548828125,0.0264892578125,1.00836181640625,4.344024658203125,-4.897308349609375,-4.074859619140625,1,2.0,1.0,1.0,2.0,70.00
2021-04-07 12:02:34.985,1.0096381,0.883167,0.6673907,1.3476639,0.6689927,0.39770246,0.33211413,0.9735652,0.87968594,0.60335165,0.6944406,1.0135498,0.5197051,0.25093314,0.041535545,0.4386726,0.2736429,-0.23751326,-0.2873441,0.12763537,790.14655,792.1612,796.5934,806.26373,719.6337,-0.17901611328125,0.0057373046875,0.996337890625,2.624359130859375,-0.814971923828125,2.654266357421875,1,1.0,1.0,1.0,1.0,70.00
2021-04-07 12:02:35.488,0.8750293,0.91446966,0.7051974,1.230645,0.58627516,0.42767817,0.38733095,0.8535707,0.8582457,0.60335165,0.6944406,1.0212268,0.39599395,0.26554748,-0.005686085,0.42370886,0.16184095,-0.16461809,-0.230511,0.14585459,817.9487,801.02563,799.41394,804.2491,725.6777,-0.17059326171875,-0.01556396484375,0.99432373046875,3.895416259765625,-1.5850830078125,1.562652587890625,1,1.0,1.0,1.0,1.0,70.00
2021-04-07 12:02:35.997,0.6757209,0.89943635,0.7069571,1.0932933,0.6446734,0.51972413,0.47473946,0.7478327,0.8582457,0.62002116,0.6989814,1.02364,0.43036225,0.29958805,0.12053056,0.43663722,0.09356565,-0.13297261,-0.2561624,0.13182342,780.07324,804.65204,799.41394,794.57874,707.9487,-0.14996337890625,-0.0263671875,1.00244140625,4.015045166015625,-5.211334228515625,1.846771240234375,1,1.0,1.0,1.0,1.0,70.00
2021-04-07 12:02:36.505,0.36334175,0.598324,0.5181015,0.65520704,0.8827214,0.50080407,0.18386687,0.738266,0.71375656,0.56125754,0.5626524,0.880881,0.4523864,0.22163202,0.16597256,0.41085225,-0.0424972,-0.11951553,-0.1493964,0.06984356,790.54944,800.6227,790.14655,801.02563,747.03296,-0.15557861328125,-0.01080322265625,0.9923095703125,2.714080810546875,-7.16278076171875,0.590667724609375,1,1.0,1.0,1.0,1.0,70.00
2021-04-07 12:02:37.016,0.35994756,0.7581741,0.63523203,0.70926404,0.95735335,0.61073613,0.20522298,0.86186135,0.75738573,0.60943484,0.5626524,0.8655699,0.5231528,0.23100376,0.23451523,0.40166372,-0.030792747,-0.09027502,-0.13951644,0.058050275,859.45056,805.8608,788.1319,846.1539,885.2381,-0.1202392578125,-0.015869140625,0.98553466796875,2.908477783203125,-5.42816162109375,0.0299072265625,1,1.0,1.0,1.0,1.0,70.00
2021-04-07 12:02:37.516,0.4001828,1.1296895,0.6324497,0.7153851,1.078864,0.7672932,-0.060512196,1.0102301,0.74954796,0.608992,0.36952946,0.5261235,0.5619793,0.13862757,0.2501594,0.3577209,-0.06460675,-0.14636725,-0.07483154,0.018152066,809.89014,807.8755,790.9524,809.4872,723.663,-0.11639404296875,-0.0223388671875,0.9903564453125,4.777679443359375,-4.508514404296875,2.415008544921875,1,1.0,1.0,1.0,1.0,70.00
2021-04-07 12:02:38.022,0.3293071,1.1700909,0.8390147,0.9211624,1.1117008,0.6957955,0.25714305,1.0385851,0.706013,0.5134999,0.21005125,0.4463161,0.60654235,0.027969567,0.23010798,0.18613565,-0.10090249,-0.16043085,-0.18738976,0.015092769,827.2161,807.8755,798.20514,810.696,721.6484,-0.08642578125,-0.0125732421875,0.99725341796875,6.392669677734375,-9.8095703125,-17.2265625,1,1.0,1.0,1.0,1.0,70.00
2021-04-07 12:02:38.536,0.3293071,1.3196145,1.2698991,1.641068,1.1117008,0.7497717,0.7645559,1.1214503,0.706013,0.6749696,0.3391994,0.7561875,0.60654235,-0.044085924,0.052726492,0.05124204,-0.10090249,-0.22743393,-0.21880804,-0.0691911,804.2491,792.5641,791.3553,821.5751,832.4542,0.0330810546875,0.07159423828125,1.001220703125,12.643280029296875,-14.647064208984375,-14.871368408203125,1,1.0,1.0,1.0,1.0,70.00
2021-04-07 12:02:39.063,0.3293071,1.2737424,1.0880255,1.641068,1.1117008,0.61055386,0.59051883,1.1214503,0.706013,0.7213605,0.43312612,0.7561875,0.60654235,0.048815712,0.03189681,0.05124204,-0.10090249,-0.22268507,-0.21138568,-0.0691911,807.47253,801.8315,796.1905,803.44324,660.80585,0.103515625,-0.0194091796875,1.00830078125,-1.951446533203125,-10.51239013671875,-1.18133544921875,1,1.0,1.0,1.0,1.0,70.00
2021-04-07 12:02:39.573,1.6360381,1.2168136,0.943958,1.641068,1.253882,0.5837043,0.46312496,1.1214503,0.8222933,0.7213605,0.43838528,0.7561875,0.6921864,0.06344266,0.015155932,0.05124204,0.12455011,-0.31075028,-0.27900225,-0.0691911,768.3883,795.78754,790.54944,796.99634,719.2308,0.08648681640625,-0.0443115234375,0.98663330078125,5.00946044921875,-1.9439697265625,5.2337646484375,1,1.0,1.0,1.0,1.0,70.00
2021-04-07 12:02:40.074,1.5001078,1.0388606,0.38332757,1.641068,1.1267446,0.46993843,-0.0064439285,1.1214503,0.8242511,0.7213605,0.4192909,0.7561875,0.6246817,0.040571496,-0.01452592,0.05124204,0.09221829,-0.28762284,-0.3648329,-0.0691911,848.1685,766.3736,830.84247,850.58606,772.01465,0.06573486328125,-0.050537109375,0.9864501953125,-1.368255615234375,6.4599609375,31.1334228515625,1,1.0,1.0,1.0,1.0,70.00
2021-04-07 12:02:40.579,1.4757373,0.36451542,0.23450589,1.641068,0.94477415,-0.018836163,-0.18859258,1.1214503,0.65189445,0.07352166,0.15770361,0.7561875,0.56854516,-0.07190311,-0.024674553,0.05124204,0.07324253,-0.32489175,-0.5205476,-0.0691911,851.39197,811.9048,791.3553,816.7399,754.2857,0.00482177734375,-0.07855224609375,0.99493408203125,6.452484130859375,2.27294921875,23.365020751953125,1,1.0,1.0,1.0,1.0,70.00
2021-04-07 12:02:41.101,0.88485265,0.10651,0.39798498,1.641068,0.51576,-0.016946426,-0.13260326,1.1214503,0.32433465,0.53277767,-0.1437207,0.7561875,0.43894833,0.06906831,-0.012335421,0.05124204,-0.012447613,-0.19685534,-0.5732043,-0.0691911,803.8461,792.5641,796.5934,801.4286,702.71063,-0.02874755859375,-0.0345458984375,1.011474609375,8.321685791015625,-2.70660400390625,9.278717041015625,1,1.0,1.0,1.0,1.0,70.00
2021-04-07 12:02:41.615,0.88485265,0.34979206,0.17253648,0.09365575,0.51576,-0.116339475,0.08360955,0.50875837,0.32433465,0.5646199,0.2663871,0.39557257,0.43894833,0.17594104,0.17238657,0.2820115,-0.012447613,-0.13311154,-0.08097429,-0.39298257,743.4066,811.50183,784.10254,761.53845,697.47253,0.009521484375,0.017333984375,1.01519775390625,9.1217041015625,-8.50860595703125,6.886138916015625,1,1.0,1.0,1.0,1.0,55.00
2021-04-07 12:02:42.141,0.5919095,0.37415543,0.38397923,0.6320011,0.54834825,0.028800782,0.10433398,0.8285447,0.73516494,0.60268706,0.32561907,1.0048938,0.4150841,0.19031249,0.21324587,0.36486048,0.22789818,-0.11653157,-0.16568321,-0.24677739,813.5165,806.6667,800.6227,819.9634,716.0073,-0.05133056640625,-0.02197265625,1.02001953125,0.94207763671875,-4.02252197265625,-1.532745361328125,1,1.0,1.0,1.0,1.0,55.00
2021-04-07 12:02:42.657,0.6268267,0.35531732,0.43530253,0.8542767,0.6696115,0.018159062,0.11030416,0.96270144,0.8996392,0.5618576,0.5438192,1.0197511,0.4122273,0.1329035,0.21862413,0.42562512,0.17153572,-0.18753979,-0.20051238,-0.16117445,845.7509,817.9487,787.326,823.9927,874.35895,-0.046142578125,-0.0394287109375,0.98516845703125,9.129180908203125,-0.785064697265625,-1.682281494140625,1,1.0,1.0,1.0,1.0,55.00
2021-04-07 12:02:43.165,0.5409707,0.6799856,0.838338,0.94523567,0.7269305,0.3224479,0.2918878,0.9961276,0.92223233,0.50520635,0.7243323,0.99697053,0.45468745,0.2089433,0.22725001,0.5484916,0.22634764,-0.31346118,-0.30130133,-0.043012716,799.011,809.4872,792.1612,794.57874,753.0769,0.064208984375,0.07208251953125,1.00830078125,11.484375,-7.588958740234375,1.532745361328125,1,1.0,1.0,1.0,1.0,55.00
2021-04-07 12:02:43.674,0.46111372,0.7158444,0.8677665,0.8455514,0.6626904,0.3970705,0.3037986,0.7759612,0.89628196,0.563783,0.72567886,0.9603214,0.41373634,0.18137889,0.16575086,0.5067569,0.10000546,-0.43579385,-0.3274305,-0.058561657,828.8278,811.0989,811.0989,870.7326,724.4689,0.20751953125,0.09423828125,0.9686279296875,12.84515380859375,-46.946868896484375,16.568603515625,1,1.0,1.0,1.0,1.0,55.00
2021-04-07 12:02:44.197,0.2681947,0.826299,0.92456317,0.6833842,0.5497675,0.43954363,0.47418973,0.5236058,0.7128353,0.5632633,0.72567886,0.58999217,0.41709912,0.16974868,0.1001071,0.48964325,0.11943961,-0.4915077,-0.3881967,-0.08236283,807.8755,811.0989,801.02563,793.7729,848.1685,0.3555908203125,0.07318115234375,0.94097900390625,1.592559814453125,-9.069366455078125,12.733001708984375,1,1.0,1.0,1.0,1.0,55.00
2021-04-07 12:02:44.709,0.37739667,0.9073982,0.77090716,0.7054626,0.2969119,0.24232079,0.39003804,0.29725873,0.3927407,0.41218325,0.43654546,0.5305531,0.36592966,0.036043942,0.062399205,0.40116963,-0.08291187,-0.46932137,-0.43163463,-0.08702248,907.8022,1212.8206,771.6117,886.8498,806.26373,0.1971435546875,0.02899169921875,0.93389892578125,1.51031494140625,13.0694580078125,-8.037567138671875,1,1.0,1.0,1.0,1.0,55.00
2021-04-07 12:02:45.222,0.37739667,1.0745876,1.089097,0.7054626,0.2969119,0.20634438,0.6682909,0.29725873,0.3927407,0.23628235,0.42981753,0.5305531,0.36592966,0.017226968,0.046426173,0.40116963,-0.08291187,-0.54352844,-0.3894969,-0.08702248,812.71063,782.8938,792.96704,813.91943,641.4652,0.16302490234375,0.00335693359375,0.93707275390625,-2.175750732421875,-2.452392578125,-7.9852294921875,1,1.0,1.0,1.0,1.0,55.00
2021-04-07 12:02:45.738,0.37739667,1.1928992,1.0909168,0.7054626,0.2969119,0.1402449,0.6173886,0.29725873,0.3927407,0.0913295,0.4592022,0.5305531,0.36592966,0.03845142,0.10794767,0.40116963,-0.08291187,-0.46241784,-0.2992444,-0.08702248,774.0293,798.60803,796.5934,793.7729,650.32965,0.10772705078125,0.0247802734375,0.99737548828125,4.486083984375,-0.7476806640625,2.474822998046875,1,1.0,1.0,1.0,1.0,55.00
2021-04-07 12:02:46.240,0.98464733,1.1928992,0.9892435,0.58942515,0.32904705,0.1402449,0.57786167,0.25940347,0.6532147,0.0913295,0.350272,0.57470715,0.33466893,0.03845142,0.1728114,0.4051467,0.0048770523,-0.46241784,-0.23255868,0.084740035,806.26373,788.93774,805.05493,799.81683,755.4945,0.1650390625,0.02801513671875,1.0018310546875,4.942169189453125,-10.325469970703125,1.712188720703125,1,1.0,1.0,1.0,1.0,55.00
2021-04-07 12:02:46.773,0.8236233,0.24218504,-0.0089882845,0.6340927,0.20627987,-0.020917896,0.07591844,0.21542434,0.703632,0.13647485,0.40887234,0.6569262,0.42798266,0.16905114,0.28079563,0.3395266,0.11320552,-0.10976766,-0.098404884,0.07990232,840.10986,809.89014,806.6667,815.5311,800.2198,0.15667724609375,0.04620361328125,1.039306640625,12.5909423828125,0.9869384765625,-0.949554443359375,1,1.0,1.0,1.0,1.0,55.00
2021-04-07 12:02:47.288,0.7281199,0.2593594,-0.15104556,0.60912806,0.4199404,0.15660606,-0.043523118,0.47218022,0.8068876,0.30167967,0.36100367,0.8980968,0.48931414,0.27467707,0.29225188,0.37805557,0.08460979,0.029947946,-0.09413796,0.049059257,824.7985,811.0989,805.05493,815.12823,735.34796,0.06512451171875,0.0379638671875,1.00628662109375,6.89361572265625,-0.186920166015625,-1.233673095703125,1,1.0,1.0,1.0,1.0,55.00
2021-04-07 12:02:47.810,0.61485976,0.3512797,-0.16966115,0.5941113,0.5845944,0.25635794,-0.10820064,0.5445505,0.83365107,0.30167967,0.36100367,0.89679134,0.47678035,0.25582844,0.3042347,0.48622066,0.20037635,0.041368548,-0.053904872,0.16164659,778.86444,843.73627,796.99634,810.293,638.6447,-0.08990478515625,0.02606201171875,1.001953125,0.7177734375,13.83209228515625,12.119903564453125,1,1.0,1.0,1.0,1.0,55.00
2021-04-07 12:02:48.319,0.6737901,0.3987245,-0.12685752,0.6593104,0.6016079,0.32833618,-0.33868095,0.5497769,0.83365107,0.27424052,0.24624658,0.89679134,0.4690215,0.2917201,0.28642836,0.6126256,0.33622018,0.08523043,-0.14814745,0.26190355,767.1795,735.34796,808.2784,773.22345,750.2564,-0.073974609375,0.01165771484375,0.99700927734375,4.41131591796875,-11.20025634765625,2.7813720703125,1,1.0,1.0,1.0,1.0,55.00
2021-04-07 12:02:48.820,0.75733,0.49043438,0.66025746,0.70149255,0.56311005,0.33277965,-0.1912258,0.42241833,0.78691846,-0.22351104,0.065281145,0.53715056,0.39230713,0.16554111,0.20479451,0.67863095,0.4359013,-0.02243537,-0.22657204,0.3533216,824.7985,798.20514,815.5311,831.6484,761.53845,-0.05316162109375,0.06561279296875,1.0283203125,8.29925537109375,1.71966552734375,6.759033203125,1,1.0,1.0,1.0,1.0,55.00
2021-04-07 12:02:49.338,0.995662,0.482905,0.779243,1.0410163,0.267323,0.32419178,0.17526776,0.44048065,0.59669244,-0.35551322,0.08577613,0.62960315,0.50664127,0.17625798,0.15638301,0.68215066,0.48018965,-0.028567085,-0.30991948,0.33150265,766.3736,1115.7142,876.3736,788.93774,613.2601,0.01910400390625,-0.0172119140625,1.0052490234375,5.749664306640625,-10.30303955078125,1.973876953125,1,1.0,1.0,1.0,1.0,55.00
2021-04-07 12:02:49.839,1.133048,0.482905,0.9698607,1.1746613,0.20069334,0.32419178,0.3476094,0.4655615,0.4424909,-0.35551322,0.08577613,0.62960315,0.5667812,0.17625798,0.07530997,0.6798262,0.5228932,-0.028567085,-0.31070396,0.27472505,819.5604,805.4579,802.6374,804.2491,867.50916,-0.032958984375,0.00555419921875,1.01104736328125,7.574005126953125,-4.18701171875,-9.390869140625,1,1.0,1.0,1.0,1.0,55.00
2021-04-07 12:02:50.355,1.133048,0.482905,0.81955576,1.1746613,0.20069334,0.32419178,0.5707831,0.4655615,0.4424909,-0.35551322,0.080393925,0.62960315,0.5667812,0.17625798,0.16195829,0.6798262,0.5228932,-0.028567085,-0.2860891,0.27472505,821.5751,773.6264,788.5348,830.4396,833.663,-0.06427001953125,0.04522705078125,0.97637939453125,6.646881103515625,-1.757049560546875,0.485992431640625,1,1.0,1.0,1.0,1.0,55.00
2021-04-07 12:02:50.883,1.133048,0.482905,0.81955576,1.1746613,0.20069334,0.32419178,0.5707831,0.4655615,0.4424909,-0.35551322,0.080393925,0.62960315,0.5667812,0.17625798,0.16195829,0.6798262,0.5228932,-0.028567085,-0.2860891,0.27472505,847.3626,795.78754,788.5348,818.7546,693.44324,-0.0474853515625,-0.01995849609375,1.0128173828125,2.833709716796875,-5.263671875,-8.8525390625,1,1.0,1.0,1.0,1.0,55.00
2021-04-07 12:02:51.394,0.8585243,0.482905,0.57566977,0.24813746,0.6568168,0.32419178,-0.12830338,0.12915662,0.72342604,-0.35551322,0.07757893,0.63145506,0.46491146,0.17625798,0.21256676,0.6113607,0.47861966,-0.028567085,-0.039178,0.267734,773.22345,805.4579,794.57874,788.93774,724.87177,-0.037353515625,0.0679931640625,1.0107421875,4.029998779296875,-4.2767333984375,-1.487884521484375,1,1.0,1.0,1.0,1.0,55.00
2021-04-07 12:02:51.918,0.88047236,0.482905,0.5532683,0.21578003,0.713264,0.32419178,-0.059405696,0.107803605,0.73349893,-0.35551322,0.07757893,0.63632035,0.49169436,0.17625798,0.2146628,0.60459673,0.46439984,-0.028567085,-0.055730432,0.32237527,821.1722,822.381,808.2784,833.663,707.5458,-0.01953125,0.0224609375,0.996826171875,-0.6280517578125,-3.18511962890625,-4.44122314453125,1,1.0,1.0,1.0,1.0,65.00
2021-04-07 12:02:52.438,0.9425847,0.482905,0.30324608,0.24813554,0.8298883,0.32419178,-0.008800391,-0.04522376,0.73349893,-0.35551322,-0.077430956,0.3488746,0.5578572,0.17625798,0.1802676,0.57403815,0.32983652,-0.028567085,-0.21066025,0.39260036,774.83514,773.22345,791.75824,792.5641,857.03296,0.0086669921875,0.01812744140625,0.99993896484375,4.26177978515625,-6.65435791015625,0.680389404296875,1,1.0,1.0,1.0,1.0,65.00
2021-04-07 12:02:52.975,0.9784977,0.482905,0.2658833,0.16872646,0.88543326,0.32419178,0.057692073,-0.07011224,0.73349893,-0.35551322,-0.09051967,0.31823567,0.5884316,0.17625798,0.1740847,0.5556725,0.2951029,-0.028567085,-0.24322352,0.44679335,871.13556,785.31134,774.83514,857.03296,782.0879,0.229248046875,0.02752685546875,0.97576904296875,6.691741943359375,-30.58013916015625,2.145843505859375,1,1.0,1.0,1.0,1.0,65.00
2021-04-07 12:02:53.477,0.9784977,0.482905,0.81051475,0.16872646,0.88543326,0.32419178,0.03200396,-0.07011224,0.73349893,-0.35551322,0.20865926,0.31823567,0.5884316,0.17625798,0.09396652,0.5556725,0.2951029,-0.028567085,-0.2807776,0.44679335,842.52747,759.92676,777.6557,828.8278,768.3883,0.28271484375,0.07989501953125,0.9534912109375,10.669403076171875,-4.658050537109375,9.2413330078125,1,1.0,1.0,1.0,1.0,65.00
2021-04-07 12:02:53.983,0.9784977,1.0142037,0.81053305,0.16872646,0.88543326,1.0325832,0.21595684,-0.07011224,0.73349893,0.44109872,0.37484613,0.31823567,0.5884316,0.012461281,0.09890091,0.5556725,0.2951029,-0.3518935,-0.30658355,0.44679335,678.1319,775.2381,788.1319,705.5311,669.67035,0.36273193359375,0.06097412109375,0.95697021484375,1.65985107421875,2.758941650390625,-2.10845947265625,1,1.0,1.0,1.0,1.0,65.00
2021-04-07 12:02:54.499,0.9784977,1.0142037,0.7891423,0.16872646,0.88543326,1.0325832,0.24907292,-0.07011224,0.73349893,0.44109872,0.3995125,0.31823567,0.5884316,0.012461281,0.14133126,0.5556725,0.2951029,-0.3518935,-0.35914952,0.44679335,863.8828,737.3626,792.5641,849.3773,806.6667,0.11297607421875,-9.1552734375E-4,0.99273681640625,1.457977294921875,5.5029296875,-6.377716064453125,1,2.0,1.0,1.0,2.0,65.00
2021-04-07 12:02:55.024,0.9784977,1.0142037,0.8162949,0.16872646,0.88543326,1.0325832,0.68665373,-0.07011224,0.73349893,0.44109872,0.4764267,0.31823567,0.5884316,0.012461281,0.23412064,0.5556725,0.2951029,-0.3518935,-0.27325445,0.44679335,822.7839,776.04395,792.5641,807.47253,857.4359,0.07611083984375,-0.06390380859375,1.00457763671875,-2.504730224609375,-7.663726806640625,2.938385009765625,1,2.0,1.0,1.0,2.0,65.00
2021-04-07 12:02:55.549,0.9784977,1.0142037,0.74889433,0.16872646,0.88543326,1.0325832,0.6667504,-0.07011224,0.73349893,0.44109872,0.37440783,0.31823567,0.5884316,0.012461281,0.24790172,0.5556725,0.2951029,-0.3518935,-0.1903623,0.44679335,838.9011,791.3553,798.20514,820.3663,818.3516,0.07342529296875,-0.0306396484375,1.00787353515625,5.345916748046875,0.4486083984375,2.773895263671875,1,2.0,1.0,1.0,2.0,65.00
2021-04-07 12:02:56.076,0.36051947,1.0142037,0.612697,-0.04274382,0.22005117,1.0325832,0.64651257,0.30315617,0.52432,0.44109872,0.37440783,0.42573294,0.44931358,0.012461281,0.24687561,0.369507,0.017968936,-0.3518935,-0.075343214,0.14541973,803.0403,784.10254,788.5348,809.89014,678.93774,0.0684814453125,-0.03912353515625,0.99700927734375,7.01324462890625,-9.22637939453125,0.19439697265625,1,1.0,1.0,1.0,1.0,65.00
2021-04-07 12:02:56.603,0.303966,0.5356113,0.18331653,0.11592491,0.19152257,0.15359606,0.041913886,0.17999896,0.601029,-0.0577873,0.14959618,0.43919498,0.5330018,0.3394047,0.097412586,0.340416,-0.0422201,0.029617134,-0.04295738,0.13456866,758.315,768.7912,801.8315,807.47253,784.5055,0.01318359375,-0.0325927734375,0.998779296875,-0.336456298828125,-1.435546875,-2.549591064453125,1,1.0,1.0,1.0,1.0,65.00
2021-04-07 12:02:57.128,0.36822435,0.66718745,-0.3310459,0.32812434,0.32194647,0.19831523,-0.11793229,0.16205142,0.60652274,0.25327453,0.057143383,0.5108294,0.5345588,0.40299508,0.013118154,0.3226022,-0.056651134,0.006895527,-0.027885301,0.12413467,790.9524,790.14655,794.57874,791.75824,796.1905,0.03472900390625,0.03045654296875,1.01702880859375,7.835693359375,9.10675048828125,-0.88226318359375,1,1.0,1.0,1.0,1.0,65.00
2021-04-07 12:02:57.654,0.6179703,0.59298986,-0.27699485,0.5795216,0.55391246,0.12854919,-0.060941502,0.16038793,0.69100344,0.2702608,0.074687004,0.542686,0.54579,0.36199513,-0.099789105,0.3264998,-0.05650444,-0.039472718,-0.12875119,0.1324827,782.0879,781.685,797.8022,797.8022,834.0659,-0.057861328125,-0.05322265625,1.0211181640625,-2.51220703125,-3.63372802734375,-2.4822998046875,1,1.0,1.0,1.0,1.0,65.00
2021-04-07 12:02:58.160,0.6091943,0.49605626,-0.14235419,0.56910384,0.6321674,0.17286187,-0.042203043,0.27339694,0.7994499,0.2890703,0.1139382,0.55312395,0.48338425,0.29201466,0.07536005,0.40307575,-0.014271667,-0.11616374,-0.19067167,0.094482325,817.9487,791.75824,792.96704,800.6227,867.1062,0.01300048828125,-0.03094482421875,1.00506591796875,8.725433349609375,-9.4207763671875,-0.142059326171875,1,1.0,1.0,1.0,1.0,65.00
2021-04-07 12:02:58.667,0.7889087,0.25964913,-0.08201573,0.63848186,0.9217102,0.12794991,-0.005675929,0.7004571,0.7966372,0.53712773,0.09778714,0.59331536,0.46643245,0.25578472,0.12846982,0.44486994,0.06729686,-0.16924623,-0.27887294,0.10856029,815.5311,788.1319,792.5641,808.2784,646.30035,0.02008056640625,-0.00494384765625,0.98858642578125,12.18719482421875,-7.3870849609375,6.32537841796875,1,1.0,1.0,1.0,1.0,65.00
2021-04-07 12:02:59.178,0.82851964,0.22812973,-0.022824058,0.66610175,0.97064894,0.24921255,-0.15993664,0.7570902,0.9208572,0.67623955,0.030120945,0.5880464,0.41200954,0.19161479,0.22214109,0.47619718,0.06731958,-0.22317675,-0.228853,0.0954341,797.8022,792.1612,803.8461,799.81683,740.18317,0.01885986328125,-0.01507568359375,0.9989013671875,6.138458251953125,-6.093597412109375,-0.471038818359375,1,1.0,1.0,1.0,1.0,65.00
2021-04-07 12:02:59.711,0.83686656,0.11362813,-0.04994906,0.6745817,0.957584,0.2983114,-0.18166481,0.7138517,0.8978478,0.675939,0.0253565,0.5590794,0.38130352,0.19363117,0.19411106,0.47403947,0.12092521,-0.21098517,-0.15424809,0.15638141,782.8938,769.59705,831.6484,803.8461,798.20514,0.021240234375,-0.03631591796875,0.99542236328125,3.282318115234375,-8.964691162109375,0.59814453125,1,1.0,1.0,1.0,1.0,65.00
2021-04-07 12:03:00.219,0.6995924,0.041415554,-0.0131584,0.62782186,0.7223036,0.37616852,-0.3464832,0.42976293,0.8904465,0.61705583,-0.122823305,0.6965146,0.34712586,-0.010843437,0.22906679,0.49796182,0.107708834,-0.22604893,-0.08453786,0.11919352,821.5751,780.4762,779.67035,812.71063,844.5421,0.05560302734375,-0.0345458984375,1.00067138671875,7.9852294921875,-6.422576904296875,4.000091552734375,1,1.0,1.0,1.0,1.0,65.00
2021-04-07 12:03:00.726,0.4957626,0.09084271,-0.14007264,0.51261073,0.5912307,0.26282555,-0.3105786,0.28601664,0.6534122,0.43177956,-0.31756315,0.7590012,0.34700784,-0.014183508,0.16999859,0.47201833,0.14424922,-0.3172095,-0.010449561,0.110709414,842.9304,780.4762,778.46155,820.3663,796.99634,0.019775390625,-0.01544189453125,0.99798583984375,7.8955078125,-3.1402587890625,0.82244873046875,1,1.0,1.0,1.0,1.0,65.00
2021-04-07 12:03:01.235,0.5389539,0.09084271,-0.14007264,0.44348875,0.5718357,0.26282555,-0.3105786,0.29838938,0.5163276,0.43177956,-0.31756315,0.74855214,0.34080234,-0.014183508,0.16999859,0.4300536,0.06792755,-0.3172095,-0.010449561,0.07860885,757.1062,795.78754,788.5348,791.75824,772.4176,0.046142578125,-0.03021240234375,1.01434326171875,6.661834716796875,-9.4207763671875,-0.299072265625,1,1.0,1.0,1.0,1.0,65.00
2021-04-07 12:03:01.763,0.5280167,0.09084271,0.109604724,0.35155454,0.4260653,0.26282555,-0.5297892,0.19685012,0.4479772,0.43177956,-0.18246637,0.78011245,0.28684443,-0.014183508,0.11480163,0.37391174,0.021989373,-0.3172095,-0.0019809878,0.15683113,780.87915,799.011,788.1319,796.5934,770.40295,0.08660888671875,0.04254150390625,0.99957275390625,8.98712158203125,-7.3272705078125,3.7982177734375,1,1.0,1.0,1.0,1.0,65.00
2021-04-07 12:03:02.275,1.4134554,0.52420974,0.15805899,0.23566334,0.7978464,-0.105826154,-0.3098858,0.33098313,1.1045761,0.22940896,-0.0025623909,0.6077304,0.54906493,0.1926358,0.19404615,0.4075418,0.096015766,-0.17272036,0.053911604,0.20159633,784.10254,779.2674,791.75824,798.60803,802.6374,0.06231689453125,0.01287841796875,1.00531005859375,5.031890869140625,-7.693634033203125,6.14593505859375,1,1.0,1.0,1.0,1.0,70.00
2021-04-07 12:03:02.787,1.5073009,0.65401757,0.22784016,0.43018708,0.868332,-0.046100724,-0.22519948,0.42966333,1.1045761,0.5274714,0.2630022,0.7587534,0.61571914,0.17008261,0.20703268,0.4139809,0.15224262,-0.2234394,0.026051916,0.20324144,821.978,809.0842,789.34064,813.91943,782.0879,0.050048828125,0.01904296875,1.00482177734375,5.181427001953125,-7.992706298828125,1.33087158203125,1,1.0,1.0,1.0,1.0,70.00
2021-04-07 12:03:03.298,1.3641341,0.5941651,0.21944,0.5230239,0.80408823,-0.004501425,-0.23851894,0.48294893,1.1045761,0.68515867,0.3725697,0.81625473,0.64474726,0.2528449,0.1697064,0.44623667,0.22509065,-0.19701733,-0.10378413,0.117989756,823.9927,822.7839,799.41394,835.2747,783.69965,0.1015625,-0.01727294921875,1.01251220703125,4.65057373046875,-5.03936767578125,-11.402130126953125,1,1.0,1.0,1.0,1.0,70.00
2021-04-07 12:03:03.811,0.73080635,0.88867116,0.6880776,0.78422093,0.48472524,0.6070519,0.22485453,0.7003438,0.7766924,0.7456156,0.41215292,0.95228696,0.5858818,0.29399025,0.108709276,0.5043185,0.2852145,-0.17724666,-0.20977834,0.111364745,791.3553,793.36993,797.8022,807.8755,818.7546,0.077392578125,0.00665283203125,0.990234375,1.60003662109375,-2.093505859375,-9.04693603515625,1,1.0,1.0,1.0,1.0,70.00
2021-04-07 12:03:04.322,0.5062961,1.0352007,0.7976196,0.76646316,0.91302955,0.79987603,0.33934626,0.8765907,0.8589263,0.7524804,0.46627858,0.9025239,0.62095207,0.32312107,0.16944529,0.50962555,0.3272026,-0.059162915,-0.13971028,0.13474411,775.64105,786.9231,799.011,787.72894,769.59705,0.06988525390625,0.01055908203125,1.01483154296875,-0.919647216796875,0.635528564453125,-4.867401123046875,1,1.0,1.0,1.0,1.0,70.00
2021-04-07 12:03:04.853,0.19305207,1.1257306,0.8171565,0.6649081,1.0506015,0.8283075,0.33454457,1.0327632,0.7899029,0.62235063,0.46045825,1.0369183,0.5822356,0.30274048,0.18309943,0.51753885,0.36883858,0.03180706,-0.08904581,0.111362815,832.8571,790.14655,792.1612,816.7399,749.45056,-0.03204345703125,0.099365234375,1.01043701171875,-1.54022216796875,-3.955230712890625,1.68975830078125,1,1.0,1.0,1.0,1.0,70.00
2021-04-07 12:03:05.358,0.5413607,0.9625946,0.3787801,0.6740727,1.0500789,0.48634937,-0.08478023,0.94545877,0.7107791,0.39909378,0.46220446,0.7774614,0.54794407,0.2697314,0.15631038,0.48019576,0.3146839,0.06405018,-0.08210554,0.014880922,823.9927,805.05493,793.7729,809.4872,786.1172,-0.00848388671875,-0.0196533203125,0.99407958984375,3.7982177734375,-14.9237060546875,-3.69354248046875,1,1.0,1.0,1.0,1.0,70.00
2021-04-07 12:03:05.865,0.715745,0.72631365,0.2213732,0.80884725,0.84436196,0.20485538,-0.23942009,0.9058579,0.6823832,0.31221455,0.3720244,0.75195414,0.4711401,0.23188055,0.100629844,0.48358515,0.24316716,0.014528954,-0.15587422,-0.010561238,816.7399,785.7143,784.90845,814.3223,747.8388,-0.005126953125,0.001220703125,0.991455078125,0.082244873046875,-0.336456298828125,-2.10845947265625,1,1.0,1.0,1.0,1.0,70.00
2021-04-07 12:03:06.375,0.8673404,0.36739874,0.28033486,1.0058771,0.49391398,-0.009048052,0.03876875,0.6498726,0.47527996,0.19204643,0.2369988,0.16935971,0.41141576,0.26210177,0.103528276,0.46587396,0.06655882,-0.04670719,-0.16352883,0.014473412,797.3993,795.38464,803.8461,805.8608,807.8755,0.09552001953125,0.02020263671875,1.0225830078125,6.392669677734375,-6.41510009765625,-1.054229736328125,1,1.0,1.0,1.0,1.0,70.00
2021-04-07 12:03:06.909,0.9241604,0.2066459,0.33912522,1.0634685,0.5741596,-0.010660911,0.06036923,0.6737972,0.15047625,0.13939235,0.17390399,0.10263948,0.32143998,0.27649024,0.18645051,0.3040272,-0.1483453,-0.086708106,-0.20148864,0.032558814,846.9597,807.47253,791.3553,845.34796,699.4872,-0.005615234375,-0.069580078125,0.99420166015625,3.641204833984375,-3.96270751953125,-1.7047119140625,1,1.0,1.0,1.0,1.0,70.00
2021-04-07 12:03:07.418,0.5861996,0.13793321,0.32170826,0.3067837,0.739158,-0.1470499,0.08582358,0.1006479,0.59393126,0.26409158,0.109535374,0.27566347,0.60556704,0.3443954,0.21492079,0.69023407,0.27471232,-0.08306038,-0.1633822,0.09729097,809.4872,801.02563,794.17584,805.8608,696.6667,-0.10382080078125,-0.03759765625,0.99932861328125,4.964599609375,4.314117431640625,7.035675048828125,1,1.0,1.0,1.0,1.0,70.00
2021-04-07 12:03:07.945,0.5787329,0.030868175,0.18560323,0.3391365,0.61472064,-0.15166804,0.059071824,0.012511323,0.5970956,0.27623087,0.21619791,0.31615937,0.54227656,0.23831809,0.1427665,0.6079972,0.15802702,-0.12582387,-0.13242047,0.07546943,768.3883,792.5641,802.23444,803.8461,686.1905,-0.05615234375,-0.0260009765625,1.0081787109375,5.316009521484375,-4.044952392578125,-0.620574951171875,1,1.0,1.0,1.0,1.0,70.00
2021-04-07 12:03:08.447,0.73260564,-0.18517743,0.1489894,0.5381474,0.49462992,-0.18650162,0.03651106,-0.041031454,0.5970956,0.2579574,0.23105152,0.33901283,0.4607139,0.17000365,0.16791181,0.53184557,0.102885954,-0.101756275,-0.13327874,0.06369892,787.326,805.8608,799.81683,801.4286,678.93774,-0.065673828125,-0.008056640625,1.00628662109375,5.24871826171875,-3.835601806640625,0.979461669921875,1,1.0,1.0,1.0,1.0,70.00
2021-04-07 12:03:08.957,0.7079939,0.17896657,-0.016410321,0.561499,0.287831,-0.13137501,-0.056122568,-0.16308461,0.3567542,0.26254293,0.2134006,0.34815603,0.30264908,0.1279508,0.17786275,0.4044572,-0.04991764,-0.13213724,-0.09528344,0.06057321,839.707,817.5458,811.0989,825.6044,814.3223,-0.0247802734375,0.0079345703125,0.9986572265625,8.276824951171875,-10.66192626953125,1.413116455078125,1,1.0,1.0,1.0,1.0,70.00
2021-04-07 12:03:09.463,0.6559147,0.36337477,0.11971248,0.516471,0.14582215,-0.15473421,-0.31052226,-0.088725686,0.3465737,0.093328245,0.077629596,0.2588662,0.18789151,0.18812883,0.23010112,0.28396574,-0.07888703,-0.12183333,-0.124443695,0.054652825,845.34796,800.6227,803.44324,828.8278,722.4542,-0.03961181640625,-0.02044677734375,0.99798583984375,4.74029541015625,-2.429962158203125,0.127105712890625,1,1.0,1.0,1.0,1.0,70.00
2021-04-07 12:03:09.975,0.45478922,0.5383211,0.21341278,0.30788794,0.13951287,-0.13294548,-0.4223565,0.08007607,0.44080552,0.12349856,-0.03902981,0.36104357,0.26433834,0.23363008,0.13403764,0.23789622,-0.05882516,-0.1669995,-0.05587024,0.10192323,772.8205,793.36993,798.20514,783.69965,691.4286,-0.0191650390625,-0.01129150390625,1.00823974609375,4.463653564453125,-9.398345947265625,2.03369140625,1,1.0,1.0,1.0,1.0,70.00
2021-04-07 12:03:10.483,0.48904565,0.47740495,0.20469873,0.2696073,0.17486235,-0.15324132,-0.43759355,0.18566626,0.48581484,0.00571719,0.09268531,0.2853967,0.32460862,0.19845693,0.11140691,0.21324846,0.010606409,-0.06645763,-0.09274124,0.0809124,772.01465,797.8022,801.8315,799.81683,848.1685,0.03265380859375,-0.0130615234375,1.0096435546875,6.89361572265625,-0.859832763671875,1.39068603515625,1,1.0,1.0,1.0,1.0,70.00
2021-04-07 12:03:11.003,0.49839425,0.36435133,0.022482725,0.39942667,0.29229787,-0.06901912,-0.5896288,0.36086908,0.5753735,0.18413019,0.10833681,0.35826144,0.3510489,0.22497375,0.13008745,0.34711915,0.09229294,-0.021874316,-0.035356484,0.07116759,840.5128,805.8608,794.9817,806.6667,769.59705,0.00958251953125,-0.00262451171875,0.9945068359375,6.497344970703125,-2.340240478515625,-1.00189208984375,1,1.0,1.0,1.0,1.0,70.00
2021-04-07 12:03:11.508,0.59744513,-0.009041095,-0.10296333,0.41059694,0.39987358,-0.12286066,-0.3820596,0.3972559,0.6018587,0.1367982,0.16176333,0.38472134,0.2912927,0.22844854,0.2555438,0.3872422,0.11452836,-0.026713587,-0.12526715,-0.0132985525,850.58606,802.6374,803.0403,828.4249,711.5751,-0.0205078125,-0.033447265625,0.99603271484375,2.489776611328125,-2.61688232421875,1.816864013671875,1,1.0,1.0,1.0,1.0,70.00
2021-04-07 12:03:12.012,0.49317637,-0.17972605,-0.031775855,0.32454476,0.46778885,-0.17649807,-0.35426232,0.43122205,0.6601624,0.13477121,0.050566506,0.44362974,0.3043258,0.18605648,0.21671265,0.39238074,0.05327866,0.008927676,-0.13998145,-0.03475152,770.80585,792.1612,789.7436,790.54944,724.0659,-0.01605224609375,-0.00146484375,0.99151611328125,5.4132080078125,-3.566436767578125,5.106658935546875,1,1.0,1.0,1.0,1.0,70.00
2021-04-07 12:03:12.512,0.46098825,0.12301526,0.5614729,0.40396675,0.44616795,0.09174416,0.06939672,0.4004957,0.6338937,0.6064174,0.48340538,0.41783884,0.35189736,0.09602835,0.18351531,0.3050572,-0.101715125,0.07814195,-0.21252689,-0.060508385,817.5458,805.8608,803.8461,816.7399,750.65936,0.00244140625,-0.03125,1.0279541015625,2.115936279296875,-4.388885498046875,-0.456085205078125,1,1.0,1.0,1.0,1.0,65.00
2021-04-07 12:03:13.016,0.039429918,0.5663025,0.91031396,0.43505418,0.36088035,0.39129916,0.33811674,0.43132475,0.67240816,0.6844405,0.53798646,0.55770487,0.44598976,0.10206884,0.24180195,0.38762122,-0.2035097,0.108921185,-0.12568584,-0.03556173,778.0586,793.7729,793.7729,794.9817,628.5714,-0.0076904296875,-0.01593017578125,1.0030517578125,4.867401123046875,-4.26177978515625,3.596343994140625,1,1.0,1.0,1.0,1.0,65.00
2021-04-07 12:03:13.524,0.19915187,0.5962725,0.9057605,0.5845738,0.14369285,0.4480724,0.32069367,0.30338216,0.65390366,0.6849044,0.53798646,0.59160966,0.4757887,0.13051842,0.29118505,0.39132908,-0.1978597,0.020956764,-0.14910378,-0.06596689,745.0183,782.49084,806.26373,747.8388,697.8755,0.05511474609375,-0.0087890625,1.017578125,6.62445068359375,3.1103515625,1.00189208984375,1,1.0,1.0,1.0,1.0,65.00
2021-04-07 12:03:14.037,0.20719883,0.62602735,0.8515477,0.45872015,9.77688E-4,0.31856,0.26207176,0.15381142,0.54493284,0.68326783,0.6424118,0.518332,0.5033719,0.24220763,0.3053692,0.4590492,-0.12998806,-0.06575195,-0.08855491,-0.05708212,790.9524,814.3223,796.1905,810.696,626.1539,-0.23492431640625,0.0107421875,0.99163818359375,8.74786376953125,14.3255615234375,-3.33465576171875,1,1.0,1.0,1.0,1.0,65.00
2021-04-07 12:03:14.552,0.36285892,0.58153975,0.7932995,0.43037173,-0.04374236,0.051452167,0.13646907,-0.11694532,0.4258952,0.40741533,0.5353909,0.3732431,0.41995126,0.24029766,0.18215054,0.34880912,-0.14874694,-0.102214575,-0.11991874,-0.0710803,814.3223,803.44324,803.44324,816.337,801.02563,-0.17315673828125,0.07293701171875,0.99737548828125,5.5328369140625,-9.981536865234375,-1.33087158203125,1,1.0,1.0,1.0,1.0,65.00
2021-04-07 12:03:15.055,0.36285892,0.61523855,0.82333475,0.43037173,-0.04374236,0.121420965,0.18066928,-0.11694532,0.4258952,0.47284982,0.5353909,0.3732431,0.41995126,0.2610489,0.16073173,0.34880912,-0.14874694,-0.06144593,-0.111651085,-0.0710803,798.60803,804.2491,801.02563,807.0696,777.6557,-0.1614990234375,0.06011962890625,0.98748779296875,3.93280029296875,-4.867401123046875,1.413116455078125,1,1.0,1.0,1.0,1.0,65.00
2021-04-07 12:03:15.565,0.2951357,0.47098687,0.6863113,0.22063796,0.35932514,0.15195483,0.13370559,0.16213678,-0.18721509,0.46927944,0.47937244,0.010511609,0.1284085,0.14121208,0.12852633,0.15205008,-0.1867811,-0.20000012,-0.18510659,-0.2283289,772.4176,811.0989,796.1905,794.57874,666.04395,-0.153076171875,0.0526123046875,0.9962158203125,5.031890869140625,-4.53094482421875,0.530853271484375,1,1.0,1.0,1.0,1.0,65.00
2021-04-07 12:03:16.067,0.23265639,0.24538764,0.14724305,0.32224184,0.21923712,0.21684694,-0.031970486,0.19518009,0.06374078,0.54708225,0.13420379,0.1544067,0.20697832,0.08102158,0.08437314,0.28760096,-0.18596631,-0.28515348,-0.20325224,-0.15170784,807.0696,803.8461,791.75824,808.68134,886.4469,-0.16033935546875,0.0643310546875,0.989501953125,3.9776611328125,-4.11224365234375,2.3626708984375,1,1.0,1.0,1.0,1.0,65.00
2021-04-07 12:03:16.590,0.21410613,0.22032374,0.0016875935,0.29161948,0.33375302,0.147495,-0.07329209,0.3503503,0.27755144,0.5582866,0.10133875,0.43789765,0.20244366,0.089017585,0.036740832,0.286726,-0.12818065,-0.4389358,-0.18978783,-0.17939202,944.87177,804.2491,795.78754,938.022,799.81683,-0.05926513671875,0.03717041015625,0.99615478515625,-3.476715087890625,-41.847686767578125,33.249359130859375,1,1.0,1.0,1.0,1.0,65.00
2021-04-07 12:03:17.098,0.16711204,0.2460903,0.19564657,0.32318613,0.3203792,0.23266745,-0.16647057,0.42069933,0.27739838,0.6004948,0.105367795,0.43789765,0.23521015,0.1967547,-0.019117981,0.34107634,-0.10160141,-0.34506983,-0.2588687,-0.15684722,808.2784,797.8022,788.1319,811.50183,738.5714,-0.075927734375,0.0166015625,1.00933837890625,2.115936279296875,2.519683837890625,-9.43572998046875,1,1.0,1.0,1.0,1.0,65.00
2021-04-07 12:03:17.622,0.113449186,0.2644437,0.5669103,0.22113426,0.5251826,0.3617031,-0.17073941,0.59078836,0.24970873,0.56407434,0.27828956,0.41371426,0.19196716,0.28816488,-0.032419305,0.3027378,-0.0140440315,-0.20996615,-0.38328606,-0.26600018,810.696,811.0989,786.9231,806.6667,794.57874,-0.163330078125,0.01861572265625,0.99420166015625,1.218719482421875,-0.112152099609375,4.97955322265625,1,1.0,1.0,1.0,1.0,65.00
2021-04-07 12:03:18.150,0.113449186,0.47735104,0.65882975,0.22113426,0.5251826,0.3492626,-0.07137438,0.59078836,0.24970873,0.24874285,0.41531634,0.41371426,0.19196716,0.30634093,-0.03432628,0.3027378,-0.0140440315,-0.090356104,-0.3619399,-0.26600018,805.8608,806.6667,795.38464,817.1429,755.89746,-0.14971923828125,-0.02593994140625,0.99072265625,4.538421630859375,-5.9515380859375,-0.052337646484375,1,1.0,1.0,1.0,1.0,65.00
2021-04-07 12:03:18.663,0.113449186,0.48286077,0.5971321,0.22113426,0.5251826,0.26270273,-0.073230006,0.59078836,0.24970873,0.15058175,0.41531634,0.41371426,0.19196716,0.28462538,0.007695537,0.3027378,-0.0140440315,-0.033837534,-0.39206383,-0.26600018,854.21246,801.02563,795.38464,867.9121,837.28937,-0.15130615234375,-0.00653076171875,0.99249267578125,5.3533935546875,-2.07855224609375,2.220611572265625,1,1.0,1.0,1.0,1.0,65.00
2021-04-07 12:03:19.187,0.113449186,0.47500518,0.44125566,0.22113426,0.5251826,0.09105025,-0.045853797,0.59078836,0.24970873,-7.841032E-4,0.26029664,0.41371426,0.19196716,0.23544435,0.10695005,0.3027378,-0.0140440315,-0.05950187,-0.34203473,-0.26600018,789.7436,780.87915,813.91943,796.1905,733.73627,-0.1444091796875,-0.01580810546875,0.9921875,4.2169189453125,-4.388885498046875,2.400054931640625,1,1.0,1.0,1.0,1.0,65.00
2021-04-07 12:03:19.714,0.113449186,0.40796942,0.40695226,0.22113426,0.5251826,0.2288458,0.101587884,0.59078836,0.24970873,0.34894016,0.34221062,0.41371426,0.19196716,0.20120697,0.15612468,0.3027378,-0.0140440315,-0.13067845,-0.22908878,-0.26600018,801.02563,797.8022,790.54944,796.5934,759.5238,-0.14752197265625,9.1552734375E-4,0.9947509765625,5.3533935546875,-3.3197021484375,1.60003662109375,1,2.0,1.0,1.0,2.0,65.00
2021-04-07 12:03:20.220,0.113449186,0.4395546,0.4833876,0.22113426,0.5251826,0.3257314,0.27428025,0.59078836,0.24970873,0.4102086,0.34183776,0.41371426,0.19196716,0.19141614,0.17982322,0.3027378,-0.0140440315,-0.17241967,-0.1660979,-0.26600018,799.81683,803.44324,813.5165,809.0842,738.97437,-0.1639404296875,0.00457763671875,0.9921875,5.14404296875,-2.803802490234375,1.697235107421875,1,2.0,1.0,1.0,2.0,65.00
2021-04-07 12:03:20.727,0.05408962,0.34238547,0.38066742,0.19351508,0.37766758,0.29183874,0.31089422,0.05900615,0.43716595,0.4102086,0.34151843,0.2767471,0.3505664,0.17771754,0.13754918,0.24564636,-0.17448917,-0.21986537,-0.16425887,-0.10456316,805.8608,793.36993,795.38464,810.293,751.4652,-0.17950439453125,0.0101318359375,0.982421875,3.00567626953125,-5.96649169921875,1.457977294921875,1,1.0,1.0,1.0,1.0,65.00
2021-04-07 12:03:21.260,0.14010419,0.11901263,0.27390942,0.17532592,0.2261717,0.11711413,0.15229475,-0.04232142,0.44237512,0.4062031,0.3238148,0.29293022,0.28275317,0.08967631,0.11899244,0.2752149,-0.16819595,-0.23151658,-0.21215792,-0.14164071,787.72894,801.02563,799.41394,798.60803,697.47253,-0.1748046875,0.02142333984375,0.9891357421875,7.409515380859375,-7.596435546875,3.54400634765625,1,1.0,1.0,1.0,1.0,65.00
2021-04-07 12:03:21.777,0.26227793,-0.009989969,0.11065288,0.10526736,0.14555345,0.06635505,-0.1230344,0.03957303,0.4070659,0.3828435,0.30110696,0.23124611,0.20989819,-0.0947739,0.051488798,0.25403774,-0.1877651,-0.23359641,-0.1849519,-0.12884884,774.83514,794.57874,790.54944,791.3553,674.5055,-0.15826416015625,-0.0045166015625,0.986328125,4.583282470703125,-4.777679443359375,-2.788848876953125,1,1.0,1.0,1.0,1.0,65.00
2021-04-07 12:03:22.293,0.41099757,-0.12384355,0.11448113,0.24563086,0.18558024,0.029981928,-0.17525177,0.1538548,0.4070659,0.3828435,0.19665967,0.32291117,0.13904689,-0.048944183,-0.0018829996,0.22725423,-0.30207348,-0.22915499,-0.17498633,-0.15090491,797.8022,796.5934,791.75824,793.36993,694.65204,-0.16888427734375,0.00848388671875,0.9937744140625,5.241241455078125,-4.4561767578125,-0.680389404296875,1,1.0,1.0,1.0,1.0,65.00
2021-04-07 12:03:22.819,0.5468933,-0.1351869,-0.026866416,0.20953967,0.4271985,0.060455833,-0.037404593,0.4104788,0.45394352,0.36983594,0.07666132,0.33951002,0.1779389,0.014470175,0.07650723,0.21775118,-0.35935506,-0.2895167,-0.17247808,-0.13339725,808.2784,798.20514,792.1612,809.4872,896.9231,-0.16912841796875,-7.9345703125E-4,0.9881591796875,4.366455078125,-4.65057373046875,0.500946044921875,1,1.0,1.0,1.0,1.0,60.00
2021-04-07 12:03:23.329,0.53657895,-0.076714486,-0.025215857,0.13418688,0.5795631,-0.12555166,0.018212287,0.46152118,0.3578085,0.07693754,0.04671321,0.37144196,0.20516305,0.009918625,0.15534978,0.244624,-0.3576966,-0.31364942,-0.22281915,-0.17633817,813.1135,810.293,794.57874,815.9341,826.4103,-0.16558837890625,0.0069580078125,0.99554443359375,5.443115234375,-4.91973876953125,2.88604736328125,1,1.0,1.0,1.0,1.0,60.00
2021-04-07 12:03:23.843,0.46960214,0.027979538,-0.09272491,-0.025811942,0.5980201,-0.06350608,0.07399607,0.40389442,0.54486865,0.120832846,-0.05305646,0.30611977,0.343445,-0.088714786,0.14801574,0.33213884,-0.22849193,-0.37275422,-0.2552626,-0.16411893,797.3993,805.4579,787.72894,790.9524,693.44324,-0.1650390625,0.0096435546875,0.99078369140625,5.345916748046875,-5.93658447265625,1.435546875,1,1.0,1.0,1.0,1.0,60.00
2021-04-07 12:03:24.368,0.28660834,0.5555266,0.76432854,0.54753864,0.51714456,0.23591816,0.5044412,0.48247012,0.6125393,0.514377,0.5018892,0.67402786,0.37329748,-0.0682175,0.161566,0.35615274,-0.21672279,-0.33785847,-0.36912885,-0.20426475,793.36993,794.57874,804.65204,797.3993,726.4835,-0.15948486328125,0.00738525390625,0.99053955078125,4.747772216796875,-4.66552734375,2.743988037109375,1,1.0,1.0,1.0,1.0,60.00
2021-04-07 12:03:24.890,0.40311572,0.8951019,0.8814576,0.71303695,0.37929875,0.4484019,0.6061665,0.5291482,0.6303298,0.5887143,0.52781713,0.6738008,0.3957348,0.061835155,0.18636641,0.39333093,-0.15196471,-0.34779152,-0.3458439,-0.2076468,815.12823,807.0696,787.72894,815.12823,736.55676,-0.18402099609375,0.00518798828125,0.9884033203125,1.607513427734375,-0.695343017578125,19.222869873046875,1,1.0,1.0,1.0,1.0,60.00
2021-04-07 12:03:25.401,0.40612543,0.9758909,0.9080237,0.771427,0.3580731,0.57469517,0.5988025,0.53731185,0.53074163,0.5916915,0.52781713,0.6735829,0.3153712,0.15787277,0.20688532,0.33399332,-0.095013775,-0.26678023,-0.33414,-0.030443836,820.3663,811.50183,800.2198,821.5751,778.0586,-0.188720703125,0.03411865234375,0.9853515625,5.323486328125,-5.14404296875,1.136474609375,1,1.0,1.0,1.0,1.0,60.00
2021-04-07 12:03:25.904,0.47398117,0.81183505,0.53834903,0.26131728,0.31202862,0.4216056,0.29447663,0.12134933,0.5144047,0.47521654,0.30924347,0.09711761,0.22565049,0.2194899,0.14846167,0.30746934,-0.0011663175,-0.32696375,-0.36945003,0.031420164,801.8315,816.337,804.65204,803.8461,707.1429,-0.18609619140625,0.0244140625,0.9781494140625,4.366455078125,-4.717864990234375,-0.680389404296875,1,1.0,1.0,1.0,1.0,60.00
2021-04-07 12:03:26.418,0.29350352,0.47053432,0.20922941,0.30556723,0.096153386,0.23903798,-0.020884266,0.09693528,0.32883155,0.30104598,0.15843694,0.40102094,0.20822419,0.1987575,0.034634624,0.31138444,0.014737882,-0.35529664,-0.36725304,0.05752642,820.3663,825.2015,797.8022,815.12823,772.01465,-0.1878662109375,0.0291748046875,0.9869384765625,4.88983154296875,-3.401947021484375,1.0467529296875,1,1.0,1.0,1.0,1.0,60.00
2021-04-07 12:03:26.923,0.30074498,0.30529892,-0.0072495746,0.23897217,-0.01239956,0.15036814,-0.14501742,0.18021351,0.33852503,0.22410655,0.097665116,0.49361053,0.22224753,0.20782883,-0.09309989,0.28297433,-0.06196125,-0.41472065,-0.4534315,0.029624198,838.0952,819.5604,794.17584,824.7985,762.3443,-0.20941162109375,0.0257568359375,0.979248046875,5.06927490234375,-3.63372802734375,-1.8841552734375,1,1.0,1.0,1.0,1.0,60.00
2021-04-07 12:03:27.439,0.3237893,0.25640044,-0.08930158,0.45565024,0.4312525,0.09700956,-0.075014904,0.6785966,0.6449791,0.29554123,0.105020694,1.0644193,0.3299753,0.13985533,-0.16725814,0.36902773,-0.15534692,-0.4138018,-0.43308112,0.044282753,802.23444,807.47253,797.8022,802.6374,711.5751,-0.2135009765625,0.02813720703125,0.97662353515625,5.48797607421875,-3.925323486328125,-1.55517578125,1,1.0,1.0,1.0,1.0,60.00
2021-04-07 12:03:27.956,0.43912956,0.46890914,-0.058535375,0.5694082,0.578073,0.07475184,-0.08282603,0.75120544,0.638703,0.28644797,0.0752815,1.063799,0.31120732,0.08063533,-0.13140163,0.3493844,-0.2295998,-0.3167852,-0.38543433,-0.09406,831.6484,812.71063,797.8022,820.3663,685.38464,-0.21484375,0.02484130859375,0.98089599609375,4.35150146484375,-4.9945068359375,0.844879150390625,1,1.0,1.0,1.0,1.0,60.00
2021-04-07 12:03:28.476,0.49889222,0.41264173,0.0028211875,0.6016087,0.5699952,-0.07045735,-0.049413875,0.7279052,0.6301974,0.21913527,0.077326335,1.0633253,0.3011071,0.030131772,-0.069621146,0.3747666,-0.25973132,-0.30779713,-0.35174224,-0.11660279,806.6667,804.2491,802.6374,809.4872,772.8205,-0.22027587890625,0.02520751953125,0.9769287109375,4.1571044921875,-4.29168701171875,0.755157470703125,1,1.0,1.0,1.0,1.0,60.00
2021-04-07 12:03:28.984,0.4247912,0.29527888,-0.05395715,0.4092355,0.1950387,-0.047657367,-0.46449688,0.17254111,0.5159098,0.06159654,-0.030408794,0.6788939,0.15574995,0.020737708,-0.07079166,0.21618138,-0.3144833,-0.30230618,-0.30398074,-0.19075678,799.41394,810.293,804.65204,801.8315,747.4359,-0.22296142578125,0.02813720703125,0.979736328125,4.972076416015625,-4.844970703125,0.829925537109375,1,1.0,1.0,1.0,1.0,60.00
2021-04-07 12:03:29.485,0.3948282,0.2149223,0.054983404,0.35773966,0.1149976,-0.07447717,-0.48320782,0.116002575,0.52180666,0.37096822,-0.031417716,0.48100144,0.11137965,0.008728551,-0.07080501,0.250152,-0.2953822,-0.364983,-0.38448578,-0.14434788,806.26373,807.47253,790.9524,809.4872,700.293,-0.22161865234375,0.02886962890625,0.9791259765625,4.5159912109375,-3.84307861328125,0.5682373046875,1,1.0,1.0,1.0,1.0,60.00
2021-04-07 12:03:29.994,0.2378746,0.31171736,0.0026610915,0.16881569,0.19737682,-0.11812448,-0.53329337,0.10002543,0.60565597,0.387951,-0.101846114,0.5047956,0.109738134,-0.06866316,-0.08897593,0.2573037,-0.2711678,-0.33680204,-0.41761553,-0.12444025,763.5531,772.8205,812.71063,789.34064,834.0659,-0.2320556640625,0.0247802734375,0.9776611328125,4.56085205078125,-4.6954345703125,1.24114990234375,1,1.0,1.0,1.0,1.0,60.00
2021-04-07 12:03:30.510,0.13483337,0.4483587,0.16107705,0.16477315,0.23257093,0.119957484,-0.39163047,0.041323148,0.59826136,0.5066683,0.20673084,0.3315685,0.23619445,-0.10905098,-0.0857093,0.26564693,-0.22694463,-0.38538116,-0.40889937,-0.07652778,801.8315,811.50183,805.05493,802.23444,766.3736,-0.23004150390625,0.02313232421875,0.97393798828125,4.463653564453125,-3.2598876953125,-0.216827392578125,1,1.0,1.0,1.0,1.0,60.00
2021-04-07 12:03:31.024,0.14658654,0.47052014,0.18381532,0.038516503,0.26597676,0.28591594,-0.25835735,0.11653583,0.60102576,0.47077516,0.21613762,0.29278183,0.3545351,-0.072302565,-0.080496505,0.20183198,-0.24239685,-0.33178487,-0.3194667,-0.08225683,808.2784,809.89014,794.17584,813.1135,791.75824,-0.24151611328125,0.0233154296875,0.9744873046875,5.345916748046875,-3.70849609375,0.142059326171875,1,1.0,1.0,1.0,1.0,60.00
2021-04-07 12:03:31.547,0.2569085,0.41290954,0.25731266,0.052870087,0.2036358,0.33286867,-0.21163908,0.15450738,0.65450805,0.47077516,0.201456,0.08718567,0.3475153,-0.043139137,-0.17404377,0.17013146,-0.2425884,-0.32267794,-0.28074643,-0.09920305,786.9231,805.8608,807.8755,794.9817,657.1795,-0.25909423828125,0.02728271484375,0.9666748046875,6.437530517578125,-4.32159423828125,-2.579498291015625,1,1.0,1.0,1.0,1.0,60.00
2021-04-07 12:03:32.073,0.5513418,0.29369885,0.4210216,0.35592738,0.36333114,0.2719866,-0.15521798,0.20891672,0.8124272,0.30651703,0.05263438,0.44038522,0.2219332,0.025587372,-0.20083056,0.1154655,-0.18550882,-0.25367218,-0.22094542,-0.19696619,797.8022,805.4579,793.36993,801.02563,641.8681,-0.2464599609375,0.027587890625,0.976318359375,4.478607177734375,-5.75714111328125,-0.19439697265625,1,1.0,1.0,1.0,1.0,60.00
2021-04-07 12:03:32.576,0.6167495,0.15156473,0.38195214,0.4331735,0.40592965,0.12809002,-0.20777532,0.017921437,0.7613393,0.12837684,0.034286465,0.5285256,0.10848846,0.069516405,-0.1992305,0.1974842,-0.19178012,-0.32831746,-0.24215749,-0.26367092,788.5348,798.20514,805.8608,795.78754,697.47253,-0.23382568359375,0.03424072265625,0.97259521484375,3.18511962890625,-6.063690185546875,0.83740234375,1,1.0,1.0,1.0,1.0,60.00
2021-04-07 12:03:33.091,0.54621786,0.18811247,0.30361956,0.5354404,0.39706352,0.027182978,-0.2058334,0.17651103,0.800815,0.2057705,0.16610463,0.82849073,0.31326914,0.025095964,-0.15788196,0.574606,-0.19633949,-0.45402768,-0.27148253,-0.22125933,803.8461,796.1905,784.5055,801.02563,807.0696,-0.22247314453125,0.0330810546875,0.97991943359375,4.3365478515625,-5.084228515625,0.919647216796875,1,1.0,1.0,1.0,1.0,70.00
2021-04-07 12:03:33.594,0.33430195,0.27586982,-0.034159597,0.42799574,0.23758242,-0.106770396,-0.22030942,0.20172364,0.77179384,0.35701573,0.30403113,0.8811602,0.47731876,-0.056708865,-0.117941156,0.65813816,-0.27197874,-0.5615413,-0.2617777,-0.24279238,809.0842,805.05493,792.1612,809.4872,731.7216,-0.20733642578125,0.04052734375,0.98614501953125,4.8748779296875,-5.390777587890625,0.88226318359375,1,1.0,1.0,1.0,1.0,70.00
2021-04-07 12:03:34.105,0.28996396,0.27772027,0.066360824,0.33337352,0.123380184,-0.02863916,-0.07816662,0.27750507,0.7748301,0.3554806,0.30864286,0.8811602,0.45739156,-0.10740968,-0.063671984,0.5955919,-0.3877984,-0.44336885,-0.28382832,-0.26634774,798.60803,805.8608,788.1319,803.0403,772.4176,-0.21331787109375,0.02899169921875,0.97723388671875,4.0673828125,-6.1907958984375,-0.01495361328125,1,1.0,1.0,1.0,1.0,70.00
2021-04-07 12:03:34.623,0.42611137,0.18206622,0.058738787,0.27253225,0.1649128,-0.15358174,0.03231054,0.4305115,0.78246003,0.3575693,0.44223988,0.84195244,0.29550472,0.068987615,0.033579685,0.42568317,-0.4478431,-0.34287396,-0.35271913,-0.3450362,808.68134,804.2491,799.011,805.8608,856.2271,-0.20843505859375,0.033935546875,0.97906494140625,4.91973876953125,-4.403839111328125,0.28411865234375,1,1.0,1.0,1.0,1.0,70.00
2021-04-07 12:03:35.149,0.32361078,-0.07894281,0.078699045,0.2439197,0.118453234,-0.25616738,0.027134644,0.44103378,0.44036016,0.35821378,0.41595712,0.5062826,0.03433167,0.052268893,0.01922329,0.21081458,-0.5055553,-0.30643407,-0.358003,-0.35762525,815.12823,813.1135,804.2491,812.71063,743.8095,-0.20318603515625,0.03778076171875,0.982666015625,4.598236083984375,-5.14404296875,0.889739990234375,1,1.0,1.0,1.0,1.0,70.00
2021-04-07 12:03:35.672,0.23610656,0.026028829,-0.003942889,0.3052068,0.20272352,-0.2037996,-0.0027761827,0.47114116,0.4590505,0.3044265,0.39673835,0.39211458,0.18431345,0.037984952,0.056050252,0.22428496,-0.34785694,-0.31796798,-0.26432034,-0.3442118,817.5458,794.57874,794.9817,823.9927,962.6007,-0.20745849609375,0.05224609375,0.97528076171875,5.84686279296875,-2.58697509765625,1.009368896484375,1,1.0,1.0,1.0,1.0,70.00
2021-04-07 12:03:36.176,0.13926847,0.092638224,-0.029737508,0.12270667,0.46425647,0.09913018,-0.170311,0.55639476,0.8524789,0.30841058,0.35211062,0.44253823,0.26500696,-0.017150654,0.05213627,0.20652112,-0.31980196,-0.41799465,-0.19068122,-0.29891592,808.2784,803.44324,782.0879,809.0842,692.6374,-0.24676513671875,0.0611572265625,0.9677734375,6.706695556640625,-1.353302001953125,1.375732421875,1,1.0,1.0,1.0,1.0,70.00
2021-04-07 12:03:36.692,0.4516411,0.15855256,-0.15256166,0.11960999,0.6309114,0.26920277,-0.1995343,0.5742177,0.87834877,0.3192575,0.30904981,0.6026881,0.2763098,0.12273693,0.16176024,0.21674289,-0.26012352,-0.4589202,-0.2328333,-0.32942015,785.31134,805.4579,790.54944,795.38464,769.19415,-0.292236328125,0.0831298828125,0.9578857421875,5.45806884765625,-3.27484130859375,2.684173583984375,1,1.0,1.0,1.0,1.0,70.00
2021-04-07 12:03:37.195,0.8876617,0.28376886,0.07604926,0.5576859,0.80380386,0.37533242,-0.021772996,0.6378716,0.95682997,0.23718327,0.44852543,0.66483986,0.3937174,0.21350312,0.20525616,0.2225633,-0.2194584,-0.4729362,-0.30615643,-0.33269468,808.2784,811.0989,808.2784,798.20514,752.674,-0.27630615234375,0.0701904296875,0.96392822265625,3.850555419921875,-4.463653564453125,0.3887939453125,1,1.0,1.0,1.0,1.0,70.00
2021-04-07 12:03:37.711,0.9008243,0.54225504,0.14250629,0.5986243,0.7626812,0.31171826,0.03414581,0.5037954,0.90470034,0.20850077,0.44614354,0.65553945,0.34628755,0.13437411,0.20233652,0.19278806,-0.25211358,-0.38470146,-0.35661796,-0.34338638,797.8022,809.89014,796.1905,802.23444,708.3516,-0.27294921875,0.076904296875,0.96197509765625,4.837493896484375,-4.194488525390625,1.069183349609375,1,1.0,1.0,1.0,1.0,70.00
2021-04-07 12:03:38.214,0.88581616,0.58353364,0.19979782,0.59931606,0.7164259,0.2025807,0.09403154,0.42056394,0.8287692,0.24576794,0.44245127,0.56749535,0.34555948,0.06790694,0.09582466,0.11429851,-0.30095905,-0.3680258,-0.42017737,-0.36769578,784.5055,819.5604,801.4286,791.75824,652.3443,-0.25885009765625,0.07452392578125,0.9674072265625,3.75335693359375,-5.091705322265625,1.383209228515625,1,1.0,1.0,1.0,1.0,70.00
2021-04-07 12:03:38.715,0.38282123,0.88283074,0.3272062,0.48852274,0.52015483,0.40709767,0.32409167,0.4204887,0.4059463,0.4492319,0.42673522,0.3186313,0.06363982,-0.03172888,0.019760424,-0.00732064,-0.46176076,-0.35473165,-0.45808473,-0.3709193,801.4286,810.293,797.3993,806.6667,773.6264,-0.28546142578125,0.0640869140625,0.9605712890625,3.880462646484375,-2.43743896484375,0.64300537109375,1,1.0,1.0,1.0,1.0,70.00
2021-04-07 12:03:39.241,0.12974791,0.85532326,0.3731224,0.541129,0.6699064,0.613128,0.4145675,0.66711086,0.4608978,0.49425232,0.42144632,0.42172927,0.028034931,0.08146598,0.040498234,0.029333953,-0.46379,-0.40205216,-0.5293782,-0.44399735,801.02563,834.87177,776.04395,791.75824,680.9524,-0.271728515625,0.04541015625,0.96588134765625,1.876678466796875,-17.413482666015625,1.682281494140625,1,1.0,1.0,1.0,1.0,70.00
2021-04-07 12:03:39.766,0.18077707,0.8572946,0.5405102,0.7431313,1.0346906,0.698176,0.5391648,1.0265174,0.7136253,0.5014212,0.44708377,0.872901,0.32144353,0.14317241,0.094535805,0.3809527,-0.5126236,-0.39483127,-0.49613243,-0.42434257,935.2015,813.1135,794.17584,934.3956,811.9048,0.17913818359375,0.00872802734375,0.99114990234375,-0.037384033203125,-48.16558837890625,3.446807861328125,1,1.0,1.0,1.0,1.0,70.00
2021-04-07 12:03:40.291,0.18077707,0.56743985,0.6647206,0.67760086,1.0346906,0.645089,0.39161643,1.0590583,0.7136253,0.48465994,0.32400227,0.872901,0.32144353,0.14151591,0.04662508,0.43596485,-0.5126236,-0.49211183,-0.38738564,-0.49203965,849.3773,793.36993,790.14655,828.022,784.90845,0.2205810546875,0.03570556640625,0.9503173828125,1.951446533203125,-2.87109375,5.09918212890625,1,1.0,1.0,1.0,1.0,70.00
2021-04-07 12:03:40.794,0.25197965,0.55438787,0.67193365,0.8689933,1.0739237,0.42416263,0.2523981,1.2165169,0.7136253,0.29145777,0.30936685,0.872901,0.40609437,0.062271096,-0.035045452,0.6501366,-0.5102298,-0.5833388,-0.3709352,-0.5414502,835.6777,799.011,794.17584,811.9048,813.5165,0.312255859375,-0.01025390625,0.94110107421875,3.87298583984375,-5.6524658203125,0.037384033203125,1,1.0,1.0,1.0,1.0,70.00
2021-04-07 12:03:41.301,0.25197965,0.47496232,0.48252597,0.8689933,1.0739237,0.22072057,-0.10767254,1.2165169,0.7136253,0.06540905,0.22186759,0.872901,0.40609437,-0.04720522,-0.12072981,0.6501366,-0.5102298,-0.6593285,-0.42907977,-0.5414502,380.3663,771.6117,832.8571,421.4652,798.60803,0.342041015625,-0.02374267578125,0.97308349609375,1.009368896484375,8.037567138671875,0.171966552734375,1,1.0,1.0,1.0,1.0,70.00
2021-04-07 12:03:41.813,0.25197965,0.3885615,0.41366065,0.8689933,1.0739237,-0.051629264,0.08002342,1.2165169,0.7136253,0.030259015,0.104584865,0.872901,0.40609437,-0.08963589,-0.13154098,0.6501366,-0.5102298,-0.6843258,-0.49269938,-0.5414502,821.978,738.97437,799.41394,830.84247,837.28937,0.01519775390625,-0.03436279296875,1.00079345703125,6.8487548828125,10.669403076171875,-9.383392333984375,1,1.0,1.0,1.0,1.0,70.00
2021-04-07 12:03:42.326,0.25197965,0.19355996,0.47214267,0.8689933,1.0739237,0.06926819,0.22031967,1.2165169,0.7136253,-0.057184175,-0.16298354,0.872901,0.40609437,-0.091230854,-0.14136219,0.6501366,-0.5102298,-0.65503305,-0.47322294,-0.5414502,793.7729,770.40295,794.17584,808.2784,634.61536,-0.03668212890625,0.0897216796875,0.9844970703125,12.045135498046875,1.39068603515625,-1.921539306640625,1,2.0,1.0,1.0,2.0,70.00
2021-04-07 12:03:42.832,0.25197965,0.16815482,0.9737492,0.8689933,1.0739237,0.093210936,0.48124117,1.2165169,0.7136253,-0.09626857,0.24142627,0.872901,0.40609437,-0.057070374,0.06980055,0.6501366,-0.5102298,-0.6840653,-0.33526552,-0.5414502,799.81683,791.3553,799.011,807.8755,762.3443,-0.00726318359375,0.1558837890625,0.99468994140625,7.439422607421875,1.143951416015625,7.8955078125,1,2.0,1.0,1.0,2.0,70.00
2021-04-07 12:03:43.342,0.25197965,0.16815482,1.027955,0.8689933,1.0739237,0.093210936,0.48442715,1.2165169,0.7136253,-0.09626857,0.32171968,0.872901,0.40609437,-0.057070374,0.12659094,0.6501366,-0.5102298,-0.6840653,-0.31072357,-0.5414502,600.3663,784.90845,817.1429,596.337,782.8938,-0.02606201171875,0.115234375,0.99786376953125,1.375732421875,9.49554443359375,7.55157470703125,1,2.0,1.0,1.0,2.0,70.00
2021-04-07 12:03:43.854,0.25197965,0.16815482,0.99772596,0.8689933,1.0739237,0.093210936,0.4860045,1.2165169,0.7136253,-0.09626857,0.33122224,0.872901,0.40609437,-0.057070374,0.172965,0.6501366,-0.5102298,-0.6840653,-0.12767413,-0.5414502,805.05493,810.293,793.7729,809.0842,793.36993,-0.13690185546875,0.11737060546875,0.98162841796875,7.379608154296875,1.98883056640625,5.809478759765625,1,2.0,1.0,1.0,2.0,70.00
2021-04-07 12:03:44.373,0.25197965,0.16815482,0.9097234,0.8689933,1.0739237,0.093210936,0.47270033,1.2165169,0.7136253,-0.09626857,0.38517353,0.872901,0.40609437,-0.057070374,0.18801717,0.6501366,-0.5102298,-0.6840653,-0.04441053,-0.5414502,809.0842,826.0073,799.011,807.8755,743.8095,-0.1895751953125,0.12274169921875,0.9744873046875,3.880462646484375,-2.58697509765625,-2.1533203125,1,2.0,1.0,1.0,2.0,70.00
2021-04-07 12:03:44.881,0.25197965,0.58746475,0.73089457,0.8689933,1.0739237,0.64775544,0.39294994,1.2165169,0.7136253,0.10506688,0.3774026,0.872901,0.40609437,0.26601553,0.24115875,0.6501366,-0.5102298,-0.12111232,-0.03651255,-0.5414502,790.9524,811.50183,792.96704,784.90845,674.5055,-0.18560791015625,0.1209716796875,0.97784423828125,4.85992431640625,-3.81317138671875,0.590667724609375,1,2.0,1.0,1.0,2.0,70.00
2021-04-07 12:03:45.388,0.7499017,0.5386789,0.51689786,0.9996846,0.7809787,0.5959274,0.3104811,0.81743765,0.671711,0.16223754,0.40927857,0.8238978,0.49794513,0.21278487,0.19016524,0.48845023,-0.046334736,-0.1143432,-0.11276084,-0.23551255,818.3516,802.23444,797.8022,810.696,775.64105,-0.1773681640625,0.11578369140625,0.9747314453125,4.837493896484375,-5.076751708984375,0.949554443359375,1,1.0,1.0,1.0,1.0,70.00
2021-04-07 12:03:45.897,0.6021026,0.5501299,0.2304819,0.8066283,0.71293616,0.48392528,0.16381736,0.720624,0.7121967,0.16490561,0.28247884,0.8493381,0.41593307,0.20286888,0.18431148,0.43352643,-0.11520604,-0.119303055,-0.14914617,-0.19522947,846.55676,815.9341,807.47253,852.1978,767.5824,-0.1904296875,0.1102294921875,0.97528076171875,4.23187255859375,-5.5328369140625,4.41131591796875,1,1.0,1.0,1.0,1.0,70.00
2021-04-07 12:03:46.423,0.8595654,0.6826669,0.33890787,0.9395953,0.9747597,0.4083048,0.032918222,0.9122189,0.67525274,0.18642613,0.19136965,0.76728314,0.25514084,0.27645162,0.1299997,0.33092135,-0.1251403,-0.13607016,-0.19536819,-0.18447532,788.1319,1093.1501,868.71796,787.72894,674.5055,-0.14361572265625,0.07080078125,0.9925537109375,0.829925537109375,-15.14801025390625,-1.42059326171875,1,1.0,1.0,1.0,1.0,70.00
2021-04-07 12:03:46.949,1.0778449,0.7633583,0.33386356,0.9287823,1.0918252,0.31585988,-0.14437538,0.96678966,0.7457982,0.10924111,0.1675707,0.76728314,0.22702484,0.33271563,0.15153939,0.2889028,-0.30918485,-0.1526844,-0.2599022,-0.17625546,868.71796,738.97437,795.38464,878.3883,959.3773,-0.09613037109375,0.10174560546875,0.98175048828125,-2.714080810546875,-10.7965087890625,35.4998779296875,1,1.0,1.0,1.0,1.0,70.00
2021-04-07 12:03:47.474,1.2795441,0.92327076,0.62809986,1.2615241,1.2583987,0.48974204,-0.10473839,1.2278595,0.71628654,0.009960223,0.04217455,0.74892634,0.22870018,0.4681192,0.08427281,0.23447916,-0.3318009,-0.18366905,-0.46651715,-0.22988051,781.685,812.71063,785.31134,773.6264,811.0989,-0.134033203125,0.12933349609375,0.989501953125,5.12908935546875,-0.73272705078125,-11.805877685546875,1,1.0,1.0,1.0,1.0,70.00
2021-04-07 12:03:48.002,1.1622255,0.92327076,0.62809986,1.2615241,1.0387251,0.48974204,-0.10473839,1.2278595,0.4835478,0.009960223,0.04217455,0.74892634,0.3317919,0.4681192,0.08427281,0.23447916,-0.50683826,-0.18366905,-0.46651715,-0.22988051,834.4689,808.2784,797.8022,821.1722,902.5641,-0.182861328125,0.0916748046875,0.98333740234375,1.51031494140625,1.5850830078125,5.779571533203125,1,1.0,1.0,1.0,1.0,70.00
2021-04-07 12:03:48.523,1.1622255,0.92327076,0.62809986,1.2615241,1.0387251,0.48974204,-0.10473839,1.2278595,0.4835478,0.009960223,0.04217455,0.74892634,0.3317919,0.4681192,0.08427281,0.23447916,-0.50683826,-0.18366905,-0.46651715,-0.22988051,809.4872,813.1135,791.3553,804.65204,807.8755,-0.26812744140625,0.111572265625,0.9593505859375,4.6356201171875,-3.1103515625,1.24114990234375,1,1.0,1.0,1.0,1.0,70.00
2021-04-07 12:03:49.036,1.1622255,0.92327076,0.26058307,1.2615241,1.0387251,0.48974204,-0.09549469,1.2278595,0.4835478,0.009960223,0.11735688,0.74892634,0.3317919,0.4681192,0.14299686,0.23447916,-0.50683826,-0.18366905,-0.26852778,-0.22988051,790.9524,817.5458,793.36993,807.47253,666.4469,-0.24755859375,0.09283447265625,0.95941162109375,4.074859619140625,-5.884246826171875,-3.5589599609375,1,1.0,1.0,1.0,1.0,70.00
2021-04-07 12:03:49.558,1.1622255,1.1867601,0.7317122,0.7237167,1.0387251,0.6980322,0.33337605,0.38781655,0.4835478,0.54459506,0.3145224,0.26483202,0.3317919,0.07195881,0.07010524,0.3350968,-0.50683826,-0.16194798,-0.2975534,-0.13693826,778.0586,778.46155,812.71063,794.57874,801.4286,-0.2462158203125,0.0863037109375,0.96087646484375,5.06927490234375,-2.64678955078125,2.452392578125,1,1.0,1.0,1.0,1.0,70.00
2021-04-07 12:03:50.063,1.1622255,1.1867601,0.8480807,0.7237167,1.0387251,0.6980322,0.42824495,0.38781655,0.4835478,0.54459506,0.41536632,0.26483202,0.3317919,0.07195881,0.0931178,0.3350968,-0.50683826,-0.16194798,-0.15646502,-0.13693826,832.8571,801.8315,789.34064,815.9341,809.89014,-0.26544189453125,0.10052490234375,0.9664306640625,5.061798095703125,-5.136566162109375,2.97576904296875,1,1.0,1.0,1.0,1.0,70.00
2021-04-07 12:03:50.576,1.1622255,1.1664845,0.8869055,0.8485584,1.0387251,0.64483446,0.4625247,0.4063586,0.4835478,0.5389886,0.41330972,0.25545344,0.3317919,0.060435977,0.09428402,0.34441295,-0.50683826,-0.22184518,-0.11506209,-0.08264136,815.9341,794.17584,800.6227,818.3516,719.6337,-0.2423095703125,0.10223388671875,0.97125244140625,4.3365478515625,-5.562744140625,1.48040771484375,1,1.0,1.0,1.0,1.0,70.00
2021-04-07 12:03:51.091,0.7161059,0.11904829,0.6835537,0.255944,0.48076025,0.4554591,0.2454414,-0.018344937,-0.14516442,0.1261801,0.3689761,0.10563414,0.16925594,0.079064235,0.068636574,0.320891,-0.5898966,-0.42485783,-0.103223614,-0.19359356,784.5055,799.81683,799.011,801.8315,667.6557,-0.23297119140625,0.111572265625,0.97039794921875,6.220703125,-5.973968505859375,2.265472412109375,1,1.0,1.0,1.0,1.0,70.00
2021-04-07 12:03:51.601,0.67904705,0.46499798,0.45584604,0.3060726,0.5718659,0.701475,0.02135046,0.15516326,-0.10789491,0.27911615,0.26511273,0.17328486,0.13841422,0.036919568,-0.028077666,0.29562122,-0.5844014,-0.3037637,-0.24116698,-0.20963438,773.6264,838.0952,790.9524,782.8938,649.92676,-0.1480712890625,0.09674072265625,0.98370361328125,1.532745361328125,-10.579681396484375,10.325469970703125,1,1.0,1.0,1.0,1.0,70.00
2021-04-07 12:03:52.126,0.67904705,0.4746715,0.42428496,0.3060726,0.5718659,0.7337198,-0.082403824,0.15516326,-0.10789491,0.27294302,-0.07007997,0.17328486,0.13841422,0.026865672,-0.16100192,0.29562122,-0.5844014,-0.29914904,-0.3128671,-0.20963438,807.0696,787.72894,799.41394,804.65204,750.2564,-0.113037109375,0.0908203125,0.989013671875,4.583282470703125,-5.18890380859375,1.293487548828125,1,1.0,1.0,1.0,1.0,70.00
2021-04-07 12:03:52.629,0.6357467,0.68483317,0.533813,0.30423692,0.6267548,0.88302463,0.046695333,0.19848369,-0.15130714,0.24179229,0.07595316,0.14603573,0.1405879,-0.019728184,-0.030257316,0.28181145,-0.6011638,-0.19250204,-0.40704924,-0.25138384,826.0073,804.65204,799.81683,818.3516,777.6557,-0.11236572265625,0.08258056640625,0.9859619140625,5.323486328125,-3.865509033203125,1.308441162109375,1,1.0,1.0,1.0,1.0,70.00
2021-04-07 12:03:53.139,0.5438784,0.71314,0.14649943,0.31376183,0.6564042,0.89694506,-0.11696222,0.6535721,0.5449098,0.23983814,0.008087136,0.67430747,0.16146941,-0.0124773765,-0.049386006,0.37421456,-0.24375266,-0.19246848,-0.4245035,-0.096584246,801.4286,815.9341,789.34064,795.78754,729.707,-0.0926513671875,0.15435791015625,0.9921875,7.55157470703125,-4.35150146484375,1.278533935546875,1,1.0,1.0,1.0,1.0,70.00
2021-04-07 12:03:53.642,0.6835278,0.87530935,0.02298395,0.3667473,0.6591147,0.30291852,-0.17023252,0.614837,0.6774358,0.112645134,0.02729026,0.71125305,0.20319752,0.23436974,-0.09252662,0.32532403,-0.26147687,-0.5096737,-0.43862137,-0.089086704,790.9524,783.2967,796.5934,809.0842,758.71796,-0.12701416015625,0.12896728515625,0.9898681640625,2.811279296875,-4.2169189453125,0.336456298828125,1,1.0,1.0,1.0,1.0,55.00
2021-04-07 12:03:54.166,0.7166186,0.87530935,-0.36296067,0.37954128,0.6329822,0.30291852,-0.32065144,0.5642493,0.6774358,0.112645134,0.0323214,0.71074784,0.20001027,0.23436974,-0.07441049,0.32302108,-0.2724546,-0.5096737,-0.3692961,-0.1343323,821.1722,793.7729,802.6374,814.7253,840.10986,-0.1524658203125,0.11602783203125,0.98394775390625,5.63751220703125,-3.54400634765625,-25.862274169921875,1,1.0,1.0,1.0,1.0,55.00
2021-04-07 12:03:54.674,0.85039246,1.100535,0.94092494,0.43484175,0.56017435,0.61877894,0.53594273,0.34706667,0.6334124,0.44851285,0.29962224,0.53569686,0.21388598,0.2328068,0.04733729,0.31287512,-0.24785054,-0.25594383,-0.33377203,-0.16970375,822.7839,784.5055,792.1612,825.6044,863.8828,-0.2083740234375,0.03607177734375,0.98553466796875,5.899200439453125,-1.65985107421875,-13.86199951171875,1,1.0,1.0,1.0,1.0,55.00
2021-04-07 12:03:55.190,0.8733074,0.90286165,0.9744628,0.44304982,0.49504942,0.80264527,0.56507516,0.1360776,0.5229765,0.5143673,0.38273856,0.08116896,0.1764099,0.075745694,0.13543288,0.36001056,-0.21345803,-0.112272896,-0.27088198,-0.25305194,816.337,792.96704,800.6227,827.619,846.55676,-0.1871337890625,0.03692626953125,0.96478271484375,3.985137939453125,-8.71795654296875,-3.90289306640625,1,1.0,1.0,1.0,1.0,55.00
2021-04-07 12:03:55.703,0.159372,0.7918328,0.98061424,0.22107123,0.4028745,0.69136494,0.5721639,-0.04721143,0.67630774,0.5147243,0.36913645,0.43263564,0.38335764,0.09922084,0.21561678,0.4031657,0.14642897,-0.19743064,-0.21431974,0.02320592,785.7143,779.67035,810.293,802.23444,732.1245,-0.164306640625,0.0340576171875,0.98211669921875,8.03009033203125,-3.66363525390625,1.263580322265625,1,1.0,1.0,1.0,1.0,55.00
2021-04-07 12:03:56.211,0.5241884,0.7568027,0.34025043,0.22806323,0.4346397,0.5581655,0.028336301,0.30022317,0.91462874,0.6642,0.23574151,0.68531084,0.38363513,0.22883745,0.30357018,0.4368367,0.2592715,-0.14519067,-0.067131355,0.14384598,805.8608,782.0879,798.20514,804.2491,700.293,-0.16265869140625,0.03076171875,0.98828125,5.78704833984375,-4.762725830078125,0.007476806640625,1,1.0,1.0,1.0,1.0,55.00
2021-04-07 12:03:56.722,0.5260624,0.6636172,0.23728836,0.5764235,0.47174025,0.41373655,-0.01641919,0.4736344,0.984626,0.5944762,0.22317035,0.78146935,0.46647203,0.25756547,0.33478633,0.49921286,0.2656902,-0.14187224,-0.102408774,0.10376007,808.2784,785.31134,793.7729,801.02563,838.49817,-0.1578369140625,0.04150390625,0.99505615234375,5.495452880859375,-3.45428466796875,3.207550048828125,1,1.0,1.0,1.0,1.0,55.00
2021-04-07 12:03:57.240,1.0935683,0.89931554,0.4964575,1.0580736,0.9020819,0.55532926,0.352318,0.87715816,1.2727711,0.68165565,0.27740252,1.1840734,0.49042273,0.2732128,0.2528753,0.5342156,0.2645091,-0.1220927,-0.2500068,0.047048446,834.87177,796.99634,796.5934,823.5897,713.5897,-0.17120361328125,0.05230712890625,0.990234375,4.0374755859375,-3.342132568359375,4.942169189453125,1,1.0,1.0,1.0,1.0,55.00
2021-04-07 12:03:57.745,1.4772793,0.9653815,0.65857726,1.4386084,1.2345996,0.6967495,0.518988,1.143507,1.2925731,0.67613393,0.31302246,1.2004743,0.5237593,0.17198847,0.18980572,0.5251707,0.15881114,-0.17761925,-0.34112823,-0.087883845,889.2674,801.4286,809.89014,912.23444,711.1722,-0.0953369140625,0.01898193359375,0.98236083984375,-4.77020263671875,-26.071624755859375,31.74652099609375,1,1.0,1.0,1.0,1.0,55.00
2021-04-07 12:03:58.272,1.7534565,0.96931934,0.7909023,1.625848,1.4919249,0.5856661,0.56644607,1.3170182,1.2190745,0.6022696,0.32998183,1.1853125,0.44887313,0.12821043,0.09718501,0.45681262,-0.047759537,-0.15714826,-0.29796356,-0.18992217,797.8022,786.52014,800.6227,814.3223,661.6117,-0.17486572265625,0.02642822265625,0.98431396484375,6.273040771484375,7.888031005859375,0.16448974609375,1,1.0,1.0,1.0,1.0,55.00
2021-04-07 12:03:58.779,1.7619746,0.8320857,0.9737767,1.8461765,1.4786388,0.41788852,0.5568135,1.500272,1.215476,0.73073316,0.28207234,1.1850904,0.46984574,0.09695995,0.0604929,0.34010574,-0.049506593,-0.08885458,-0.20167483,-0.21394381,810.293,783.2967,791.3553,814.3223,776.8498,-0.3394775390625,0.126953125,0.93402099609375,27.596893310546875,29.89227294921875,-1.89910888671875,1,1.0,1.0,1.0,1.0,55.00
2021-04-07 12:03:59.283,1.7619746,0.6965822,0.88186586,1.8461765,1.4786388,0.008205279,0.3782011,1.500272,1.215476,0.60205007,0.32309675,1.1850904,0.46984574,0.08334824,0.06059708,0.34010574,-0.049506593,-0.10696908,-0.21336111,-0.21394381,812.3077,892.49084,780.87915,799.41394,834.4689,-0.3953857421875,0.26129150390625,0.8831787109375,-10.60211181640625,-15.005950927734375,1.09161376953125,1,1.0,1.0,1.0,1.0,55.00
2021-04-07 12:03:59.799,0.8182202,0.75863665,0.9939429,0.8952592,0.221454,0.0658959,0.37235412,0.31815818,0.58698446,0.6006375,0.5283278,0.40608546,0.33543167,0.074753314,0.11898391,0.58054656,-0.1385009,-0.13872209,-0.20711638,-0.2125503,819.15753,785.31134,805.05493,812.71063,782.49084,-0.30621337890625,0.114990234375,0.9541015625,3.12530517578125,-10.33294677734375,-0.5682373046875,1,1.0,1.0,1.0,1.0,55.00
2021-04-07 12:04:00.333,0.7203314,0.77894855,0.8516065,0.7770683,0.72564954,-0.06409799,0.15230031,0.6772454,1.1190786,0.3689954,0.49891862,0.97594255,0.4382271,-0.0328921,0.14875634,0.5281072,-0.089900956,-0.20706153,-0.22743371,-0.26894182,791.75824,790.9524,789.7436,799.41394,744.21246,-0.28472900390625,0.08648681640625,0.9605712890625,2.803802490234375,-2.100982666015625,-3.39447021484375,1,1.0,1.0,1.0,1.0,55.00
2021-04-07 12:04:00.857,0.79064006,0.77894855,1.0992187,0.7643593,0.7574586,-0.06409799,0.3038051,0.64638436,1.1200898,0.3689954,0.49891862,0.97651726,0.3737959,-0.0328921,0.22443785,0.48825365,-0.1608789,-0.20706153,-0.35609916,-0.22611766,773.6264,789.34064,788.93774,794.9817,772.01465,-0.28472900390625,0.0869140625,0.95574951171875,-2.46734619140625,2.474822998046875,4.673004150390625,1,1.0,1.0,1.0,1.0,55.00
2021-04-07 12:04:01.359,0.647004,0.77894855,1.1224117,0.6596745,0.7487729,-0.06409799,0.80759895,0.6482714,1.117575,0.3689954,0.52631754,0.96978086,0.4057969,-0.0328921,0.18615784,0.3888018,-0.25548443,-0.20706153,-0.26225215,-0.24871668,828.8278,790.9524,801.8315,817.9487,743.8095,-0.26556396484375,0.02569580078125,0.99591064453125,8.919830322265625,-3.7384033203125,-10.579681396484375,1,1.0,1.0,1.0,1.0,55.00
2021-04-07 12:04:01.868,0.69067705,1.3318603,0.9278205,0.6713123,0.46758932,1.2020025,0.5917883,0.34023803,0.87881744,0.7904699,0.5320675,0.83283716,0.5005743,0.34214687,0.22174847,0.5057289,-0.32859653,-0.23279552,-0.2870502,-0.19701524,784.90845,855.0183,800.6227,795.38464,667.6557,-0.333740234375,0.11566162109375,0.9033203125,6.228179931640625,-4.762725830078125,5.495452880859375,1,1.0,1.0,1.0,1.0,55.00
2021-04-07 12:04:02.373,0.69611377,1.3318603,0.9134528,0.87471616,0.3330689,1.2020025,0.6480486,0.23978823,0.6966627,0.7904699,0.71625006,0.7383532,0.6113904,0.34214687,0.17245984,0.5409421,-0.25139508,-0.23279552,-0.3058252,-0.2699367,777.25275,786.1172,793.36993,781.28204,694.65204,-0.28656005859375,-0.0025634765625,0.9268798828125,0.52337646484375,-51.79931640625,-6.44500732421875,1,1.0,1.0,1.0,1.0,55.00
2021-04-07 12:04:02.896,0.8149925,1.3318603,0.6657711,0.96755826,0.50237066,1.2020025,0.45796597,0.27367902,0.71387845,0.7904699,0.6217756,0.69696385,0.6530262,0.34214687,0.11616235,0.61725396,-0.19568484,-0.23279552,-0.33659115,-0.2909746,751.4652,812.71063,800.2198,772.8205,602.7839,0.3394775390625,0.11956787109375,0.9405517578125,1.45050048828125,-11.058197021484375,3.865509033203125,1,1.0,1.0,1.0,1.0,55.00
2021-04-07 12:04:03.425,0.86850625,1.3318603,0.769683,1.1230692,0.6786875,1.2020025,0.55153036,0.46242437,0.7103486,0.7904699,0.6049461,0.6877028,0.60297054,0.34214687,-0.022365658,0.5122865,-0.19750282,-0.23279552,-0.38011202,-0.4277506,822.381,435.16483,786.1172,839.707,755.4945,0.01983642578125,0.02203369140625,1.008056640625,-2.01873779296875,5.884246826171875,-6.4300537109375,1,1.0,1.0,1.0,1.0,55.00
2021-04-07 12:04:03.936,0.8669593,1.3318603,0.6784875,1.1790825,0.80253494,1.2020025,0.36487547,0.59980035,0.6533327,0.7904699,0.18377273,0.62555766,0.5638449,0.34214687,-0.11445859,0.48600063,-0.2815702,-0.23279552,-0.4015307,-0.5606162,825.6044,710.3663,799.41394,823.5897,767.5824,0.0145263671875,0.02838134765625,1.0047607421875,5.6524658203125,-4.732818603515625,2.31781005859375,1,1.0,1.0,1.0,1.0,70.00
2021-04-07 12:04:04.449,0.8669593,1.3318603,0.85230476,1.1790825,0.80253494,1.2020025,0.49110207,0.59980035,0.6533327,0.7904699,0.036076106,0.62555766,0.5638449,0.34214687,-0.22826482,0.48600063,-0.2815702,-0.23279552,-0.46302393,-0.5606162,828.022,757.50916,799.41394,814.3223,707.9487,-0.03741455078125,0.017578125,1.0269775390625,0.94207763671875,-3.72344970703125,-2.429962158203125,1,1.0,1.0,1.0,1.0,70.00
2021-04-07 12:04:04.960,0.5797525,1.3318603,0.57131594,0.61756325,0.8723571,1.2020025,0.41902593,0.9964038,0.5858352,0.7904699,0.6281838,0.7450746,0.31010944,0.34214687,-0.0022031534,0.24518687,-0.24397017,-0.23279552,-0.22948441,-0.2945256,768.3883,774.43225,782.8938,790.9524,653.95605,0.01959228515625,0.00445556640625,0.9703369140625,1.9140625,-25.70526123046875,-12.269439697265625,1,1.0,1.0,1.0,1.0,70.00
2021-04-07 12:04:05.474,0.6076839,1.2232864,0.8869781,0.7283451,1.0524195,0.6658245,0.84788823,1.3121318,0.7341226,0.34793442,0.8112444,0.97307557,0.37148216,0.46609157,0.13729616,0.38793272,-0.16712691,-0.12917887,-0.11369412,-0.11854373,783.2967,774.83514,787.72894,796.1905,682.1612,0.030517578125,0.0750732421875,1.005615234375,4.119720458984375,-9.428253173828125,5.316009521484375,1,1.0,1.0,1.0,1.0,70.00
2021-04-07 12:04:05.979,0.6882221,1.1793566,0.78899777,0.6726095,0.99151486,0.6416287,0.7606073,1.208595,0.880448,0.39601284,0.8112444,0.97307557,0.4588603,0.37294483,0.12071381,0.5225444,0.023705192,-0.18356226,-0.0071427096,-0.0016253841,806.6667,781.685,801.02563,809.0842,859.45056,-0.00885009765625,0.009033203125,1.0137939453125,1.831817626953125,-2.7813720703125,2.983245849609375,1,1.0,1.0,1.0,1.0,70.00
2021-04-07 12:04:06.495,0.8421738,1.0394592,0.69731516,0.715372,0.9877697,0.6084542,0.74640715,1.1836629,0.95967793,0.43603793,0.8106829,0.97307557,0.4775144,0.31952366,0.13651589,0.5258243,0.1376284,-0.1796212,0.045906708,0.08330077,857.03296,778.46155,799.41394,833.2601,803.44324,-0.03564453125,-0.0242919921875,0.99658203125,2.51220703125,0.411224365234375,0.560760498046875,1,1.0,1.0,1.0,1.0,70.00
2021-04-07 12:04:07.025,0.80704933,0.79766864,0.12823178,0.57836807,0.7146113,0.43685266,0.3516609,0.75826067,0.9339569,0.37786317,0.3086523,0.67782307,0.45271072,0.21351811,0.10297527,0.5119446,0.19387203,-0.20169666,0.017814528,0.07766877,801.02563,791.75824,795.78754,799.81683,681.75824,-0.0679931640625,-0.0130615234375,0.997802734375,3.4991455078125,-5.9814453125,-0.800018310546875,1,1.0,1.0,1.0,1.0,70.00
2021-04-07 12:04:07.547,0.69439304,0.4006744,-0.20880395,0.5265381,0.5579984,0.18092011,0.16322349,0.52593815,0.86774796,0.38406464,0.12558587,0.44269937,0.3475296,0.09918463,0.078398354,0.3498467,0.07490002,-0.19263452,-0.09404563,-0.04859694,770.40295,774.83514,800.6227,795.38464,761.9414,-0.04168701171875,0.00885009765625,1.00360107421875,4.366455078125,0.3887939453125,-1.09161376953125,1,1.0,1.0,1.0,1.0,70.00
2021-04-07 12:04:08.057,0.5478669,0.3608465,-0.0060117384,0.5292027,0.4014437,-0.1746082,-0.040656336,0.1824322,0.67924917,0.2659855,-0.078965366,0.45173383,0.29517663,0.14021523,0.040879536,0.38196588,0.03256119,-0.19422215,-0.15811801,-0.105677,836.8865,791.75824,796.1905,816.337,793.7729,-0.0732421875,-0.01971435546875,1.00250244140625,3.058013916015625,-5.151519775390625,0.456085205078125,1,1.0,1.0,1.0,1.0,70.00
2021-04-07 12:04:08.568,0.592335,0.34938756,-0.062019803,0.57749784,0.45818397,-0.17810367,-0.2605162,0.03991585,0.61462426,0.22464412,0.040072206,0.31868172,0.2730063,0.1590208,0.010113661,0.35699973,-0.033766095,-0.18640421,-0.1275299,-0.15846726,844.1392,790.54944,792.1612,826.4103,759.12085,-0.04888916015625,-0.01129150390625,1.0047607421875,5.525360107421875,-5.016937255859375,-2.145843505859375,1,1.0,1.0,1.0,1.0,70.00
2021-04-07 12:04:09.069,0.730435,0.2231869,0.060456373,0.71163625,0.6078,-0.13791957,-0.09688492,0.23759025,0.61462426,-0.11765132,0.11076733,0.29498217,0.26079828,0.26521742,0.01862102,0.38866243,0.056552265,-0.15343013,-0.08746295,-0.0942281,813.1135,781.28204,794.57874,808.68134,753.8828,-0.0416259765625,-0.01251220703125,1.00030517578125,3.768310546875,-1.996307373046875,2.639312744140625,1,1.0,1.0,1.0,1.0,70.00
2021-04-07 12:04:09.577,0.73865616,0.15080373,-0.036413155,0.68293196,0.66815543,-0.12278469,-0.04365345,0.3201865,0.5877598,0.124953404,0.1258071,0.29498217,0.26554817,0.20084879,0.085037015,0.42793423,0.09550356,-0.1606578,-0.08560654,-0.07150173,771.6117,785.31134,812.3077,799.011,668.0586,-0.01251220703125,-0.01715087890625,0.99652099609375,4.78515625,-4.77020263671875,-1.18133544921875,1,1.0,1.0,1.0,1.0,70.00
2021-04-07 12:04:10.088,0.49947694,0.23550667,0.094861,0.4147479,0.27975217,0.011566757,0.091042355,-0.12575516,0.48572934,0.30055296,0.118601486,-0.065583356,0.47110474,0.1707465,0.15515593,0.49820396,-0.006047505,-0.13749103,-0.115349464,-0.1840991,794.9817,783.69965,806.26373,810.293,798.20514,-0.029296875,-0.009521484375,1.00140380859375,4.26177978515625,-4.6356201171875,2.0635986328125,1,1.0,1.0,1.0,1.0,70.00
2021-04-07 12:04:10.606,0.50541914,0.29271194,-0.023475453,0.36384362,0.35641593,0.04471472,0.0066348696,-0.034468662,0.5907618,0.3115584,0.15467429,0.23052101,0.3743534,0.084636174,0.18340522,0.3970076,-0.09956844,-0.089204416,-0.07132173,-0.12715073,808.68134,795.78754,796.1905,810.696,736.1539,-0.01629638671875,4.2724609375E-4,1.00628662109375,4.7552490234375,-7.349700927734375,2.474822998046875,1,1.0,1.0,1.0,1.0,70.00
2021-04-07 12:04:11.138,0.33293885,0.23310865,-0.027568344,0.2656951,0.39170158,0.092806995,-0.032805655,0.27735707,0.6141705,0.25361133,0.21643604,0.28170016,0.30545154,0.04643801,0.16331434,0.36764976,-0.10968699,-0.06610273,-0.09765475,-0.100072615,821.1722,782.8938,801.8315,817.1429,689.41394,-0.01702880859375,-0.00567626953125,1.0029296875,3.0804443359375,-4.23187255859375,1.936492919921875,1,1.0,1.0,1.0,1.0,70.00
2021-04-07 12:04:11.645,0.11112939,0.06626352,-0.19035791,0.14596741,0.39254928,0.13261475,-0.20479356,0.4500626,0.5380035,0.04610485,0.22140358,0.27966064,0.29412147,0.05469943,0.12582077,0.353473,-0.20108873,-0.13589397,-0.11782571,-0.057392206,777.25275,778.46155,803.44324,787.72894,691.8315,-0.007080078125,-0.0081787109375,1.0072021484375,3.940277099609375,-4.613189697265625,0.201873779296875,1,1.0,1.0,1.0,1.0,70.00
2021-04-07 12:04:12.167,-0.1455499,0.032555707,-0.2614217,0.056756064,0.34627157,0.1788957,-0.26638645,0.4360122,0.52785206,0.15299231,0.17900738,0.35856274,0.37490436,0.1244095,0.1668809,0.37908372,-0.19326858,-0.27027047,-0.234135,-0.07078537,827.2161,776.4469,801.02563,803.44324,839.707,-0.01898193359375,-0.00897216796875,1.01922607421875,2.093505859375,-5.540313720703125,3.39447021484375,1,1.0,1.0,1.0,1.0,70.00
2021-04-07 12:04:12.673,0.14067362,-0.025225688,0.5529674,0.4139947,0.621125,0.19291678,0.12550464,0.45025763,0.6349347,0.15596469,0.46506068,0.57995135,0.40469927,0.23022886,0.20813324,0.40841103,-0.08856666,-0.38957828,-0.24526547,-0.03204791,814.7253,835.6777,803.8461,819.9634,796.1905,0.0250244140625,-0.00238037109375,0.9661865234375,8.56842041015625,-10.056304931640625,-1.39068603515625,1,1.0,1.0,1.0,1.0,70.00
2021-04-07 12:04:13.203,0.51653725,0.044430863,1.1200596,0.8846249,0.8022584,0.15311722,0.62093186,0.6763691,0.59536916,0.13911845,0.6829929,0.6379095,0.43550214,0.32180238,0.19836079,0.4111002,0.03320472,-0.49989846,-0.2918289,0.028749404,836.4835,793.36993,800.6227,817.5458,927.1429,0.04754638671875,-0.01177978515625,0.98388671875,4.777679443359375,-9.22637939453125,-9.846954345703125,1,1.0,1.0,1.0,1.0,70.00
2021-04-07 12:04:13.729,0.65919656,0.10491264,1.1297108,0.92624676,0.8683624,0.090711445,0.6115254,0.69192713,0.69037855,0.100575484,0.6829929,0.7082662,0.4789528,0.36945513,0.09760005,0.4411151,0.17814127,-0.46676058,-0.2321443,0.06931793,792.1612,807.8755,812.3077,804.65204,736.1539,0.07220458984375,0.0582275390625,0.970458984375,11.3348388671875,-0.859832763671875,2.6019287109375,1,1.0,1.0,1.0,1.0,70.00
2021-04-07 12:04:14.243,0.8033806,0.7462598,1.0216553,0.8491597,0.8246324,0.34966382,0.5303405,0.67154974,0.62506336,0.29334348,0.6829929,0.68022066,0.5736871,0.00724658,0.05745233,0.45406368,0.23537382,-0.13924138,-0.21224728,0.03859389,791.3553,791.75824,801.4286,799.011,706.337,0.02471923828125,0.0364990234375,0.99468994140625,5.031890869140625,0.059814453125,0.441131591796875,1,1.0,1.0,1.0,1.0,70.00
2021-04-07 12:04:14.752,0.81153363,1.0353006,0.39662698,0.32023457,0.7627608,0.39844224,-0.05563776,0.3504288,0.6369187,0.6182862,0.14138608,0.65022516,0.5861127,0.15992616,0.02000442,0.5132803,0.27368402,-0.15033573,-0.18640432,-0.002801751,816.7399,782.0879,796.5934,823.9927,834.4689,-0.1260986328125,0.06219482421875,0.97833251953125,7.917938232421875,8.560943603515625,-9.94415283203125,1,1.0,1.0,1.0,1.0,70.00
2021-04-07 12:04:15.264,0.8921551,1.1912165,0.58080226,0.13788909,0.81429446,0.48412478,0.042954203,0.45343217,0.6369187,0.6182862,0.1375899,0.57235086,0.59044826,0.1468976,0.06883091,0.5426899,0.2444108,-0.17310396,-0.25492918,-0.007288789,794.9817,774.83514,781.28204,799.81683,634.21246,-0.17529296875,0.1080322265625,0.97381591796875,2.489776611328125,8.172149658203125,5.106658935546875,1,1.0,1.0,1.0,1.0,70.00
2021-04-07 12:04:15.774,0.9204186,1.3375341,0.97345126,-0.03886463,0.8709065,0.5444373,0.6556312,0.401741,0.4330633,0.5513816,0.5618634,0.24429724,0.520251,0.21614493,0.07807336,0.6023708,0.17358308,-0.18973868,-0.32008433,0.061579723,804.65204,819.5604,803.0403,806.6667,751.06226,-0.275390625,0.0948486328125,0.96856689453125,0.022430419921875,2.6019287109375,-0.25421142578125,1,1.0,1.0,1.0,1.0,70.00
2021-04-07 12:04:16.292,0.9204186,1.4348005,1.0709835,-0.03886463,0.8709065,0.63653797,0.7942356,0.401741,0.4330633,0.43204182,0.5589369,0.24429724,0.520251,0.094800845,0.12291265,0.6023708,0.17358308,-0.21083719,-0.4171724,0.061579723,807.0696,793.36993,805.8608,806.6667,711.5751,-0.2689208984375,0.0306396484375,0.96771240234375,4.478607177734375,-5.5029296875,-0.171966552734375,1,1.0,1.0,1.0,1.0,70.00
2021-04-07 12:04:16.817,0.9204186,1.4348005,1.036596,-0.03886463,0.8709065,0.63653797,0.79973817,0.401741,0.4330633,0.43204182,0.56187856,0.24429724,0.520251,0.094800845,0.15063173,0.6023708,0.17358308,-0.21083719,-0.44131926,0.061579723,823.1868,799.81683,802.23444,817.1429,703.1135,-0.26446533203125,0.05230712890625,0.96954345703125,3.895416259765625,-2.1832275390625,1.2261962890625,1,1.0,1.0,1.0,1.0,70.00
2021-04-07 12:04:17.342,0.3347585,1.4348005,0.5978041,0.40292868,0.36238807,0.63653797,0.24747683,0.1788384,0.50340396,0.43204182,0.3061863,0.3583214,0.16699225,0.094800845,0.094647475,0.28703085,-0.19822924,-0.21083719,-0.4011098,-0.24021813,795.38464,797.8022,804.2491,809.4872,672.0879,-0.25872802734375,0.020751953125,0.96728515625,5.181427001953125,-4.448699951171875,0.95703125,1,1.0,1.0,1.0,1.0,70.00
2021-04-07 12:04:17.868,0.32539415,0.5580901,0.34502202,0.42939812,0.31029657,0.1722057,-0.017367965,0.18390933,0.5207672,0.2717526,0.15336812,0.38671058,0.218982,-0.052572813,0.037281975,0.33672392,-0.2081628,-0.66164976,-0.36105847,-0.25048244,841.31866,797.8022,806.26373,849.7802,709.5604,-0.269287109375,0.0411376953125,0.96240234375,4.912261962890625,-5.121612548828125,1.233673095703125,1,1.0,1.0,1.0,1.0,70.00
2021-04-07 12:04:18.376,1.0282431,0.7192071,0.22979715,1.0756658,0.64288217,0.1875952,-0.095834106,0.5423902,1.0047231,0.38986284,0.24168746,0.9444254,0.28056413,0.0071390904,-0.034253772,0.35825935,-0.22906512,-0.41277876,-0.31951392,-0.25774816,879.59705,797.8022,796.1905,883.22345,715.6044,-0.14727783203125,0.0294189453125,0.98443603515625,7.61138916015625,-35.2606201171875,5.8319091796875,1,1.0,1.0,1.0,1.0,70.00
2021-04-07 12:04:18.898,1.300898,0.8819755,0.0679685,1.3417295,0.82810646,0.24481055,-0.060470175,0.757932,0.9865728,0.38986284,0.19211765,0.9672396,0.31743962,0.02919478,-0.07960797,0.42379808,-0.19369525,-0.34764966,-0.36584687,-0.27122104,801.4286,837.6923,784.10254,793.36993,778.86444,-0.114013671875,0.1221923828125,0.98040771484375,0.0299072265625,-3.297271728515625,0.55328369140625,1,1.0,1.0,1.0,1.0,70.00
2021-04-07 12:04:19.401,1.6275988,1.0355963,0.22805358,1.6599516,1.1155244,0.26077554,-0.009100582,1.038896,0.96705556,0.31933627,0.16395672,0.9672396,0.35731626,0.07971967,-0.09805632,0.43580034,-0.1602244,-0.2699709,-0.40051693,-0.27326524,849.7802,833.663,775.64105,844.94507,675.7143,-0.1658935546875,0.0567626953125,0.99005126953125,1.727142333984375,1.98883056640625,-1.5252685546875,1,1.0,1.0,1.0,1.0,70.00
2021-04-07 12:04:19.917,1.6275988,1.134802,0.58649975,1.6599516,1.1155244,0.30015305,0.45690307,1.038896,0.96705556,0.1922246,0.16643037,0.9672396,0.35731626,0.080349326,-0.051441982,0.43580034,-0.1602244,-0.33183065,-0.4601786,-0.27326524,811.50183,805.05493,794.57874,807.8755,706.337,-0.195068359375,0.05718994140625,0.98516845703125,5.480499267578125,-2.833709716796875,1.31591796875,1,1.0,1.0,1.0,1.0,70.00
2021-04-07 12:04:20.440,1.6275988,1.2478981,0.67419523,1.6599516,1.1155244,0.358152,0.5261779,1.038896,0.96705556,0.12378616,0.12484527,0.9672396,0.35731626,0.06718539,0.08294706,0.43580034,-0.1602244,-0.41471702,-0.44735232,-0.27326524,820.3663,781.685,794.57874,817.9487,767.98535,-0.21563720703125,0.04058837890625,0.97454833984375,6.362762451171875,-2.55706787109375,6.32537841796875,1,1.0,1.0,1.0,1.0,70.00
2021-04-07 12:04:20.949,1.6275988,1.2825004,0.8480822,1.6599516,1.1155244,0.6517407,0.67630136,1.038896,0.96705556,0.55761325,0.08930095,0.9672396,0.35731626,0.4212766,0.116178855,0.43580034,-0.1602244,-0.017919425,-0.39873728,-0.27326524,819.9634,822.381,794.17584,818.3516,731.31866,-0.2469482421875,0.12786865234375,0.97418212890625,4.179534912109375,-4.942169189453125,-6.886138916015625,1,1.0,1.0,1.0,1.0,70.00
2021-04-07 12:04:21.454,1.0842103,1.20811,0.87315845,1.6599516,0.88214153,0.5403047,0.4998685,1.038896,0.6876479,0.57586634,0.34373355,0.9672396,0.55218583,0.3755808,0.17815337,0.43580034,-0.3733717,-0.09106777,-0.34416622,-0.27326524,808.68134,790.54944,795.78754,803.44324,892.0879,-0.27911376953125,0.07275390625,0.95513916015625,1.71966552734375,-8.321685791015625,0.964508056640625,1,1.0,1.0,1.0,1.0,70.00
2021-04-07 12:04:21.956,0.9738365,1.1856359,0.87083006,0.45460516,0.8298655,0.56720203,0.4663927,0.5736061,0.8144118,0.8553781,0.34829277,0.6235863,0.44627324,0.29843807,0.11167579,0.23045455,-0.055117235,-0.13120927,-0.2800109,0.008318907,845.7509,808.68134,797.3993,832.4542,787.326,-0.256591796875,0.029296875,0.9678955078125,-1.89910888671875,-2.82623291015625,-7.1478271484375,1,1.0,1.0,1.0,1.0,70.00
2021-04-07 12:04:22.494,0.86484164,1.0000921,0.6365408,0.77360517,0.77301985,0.4247678,0.14107345,0.5403892,0.93472475,0.8068369,0.35492495,0.6938849,0.4009224,0.15589568,0.09381909,0.36815125,-0.08098383,-0.23327291,-0.29530323,-0.028809639,818.3516,802.6374,825.2015,827.2161,724.4689,-0.40032958984375,-0.1182861328125,0.89007568359375,4.725341796875,5.263671875,-1.233673095703125,1,1.0,1.0,1.0,1.0,70.00
2021-04-07 12:04:23.001,0.8111194,0.8231784,0.6240481,0.8315823,0.61159414,0.33223844,0.098114856,0.5138319,0.93090063,0.7893136,0.24318664,0.6938849,0.26311454,0.1214979,0.05461024,0.3961999,-0.04937539,-0.20873557,-0.27322,-0.042008437,774.83514,795.78754,803.44324,784.90845,719.2308,-0.3526611328125,-0.0576171875,0.9375,5.24871826171875,-8.8824462890625,-0.5682373046875,1,1.0,1.0,1.0,1.0,70.00
2021-04-07 12:04:23.513,0.8620054,0.65180165,0.7379621,1.135466,0.5708326,0.17553267,0.09692428,0.6527463,0.8782424,0.42114723,0.1457048,0.7539019,0.35160848,0.08804615,0.15328367,0.56399035,-0.18272626,-0.26776588,-0.3243266,-0.14432406,800.6227,800.6227,803.44324,804.2491,735.34796,-0.31121826171875,-0.05426025390625,0.9541015625,4.6356201171875,-6.98333740234375,-0.538330078125,1,1.0,1.0,1.0,1.0,70.00
2021-04-07 12:04:24.043,0.9323224,0.41940156,0.78819144,1.3019547,0.5553768,0.10948654,0.15443379,0.7854021,0.60772973,0.1451636,0.27839237,0.8627516,0.39825425,0.08705765,0.17039716,0.54944164,-0.23460798,-0.2817733,-0.33017865,-0.2421172,827.619,790.9524,801.02563,820.7692,813.1135,-0.2972412109375,-0.0618896484375,0.9515380859375,4.80010986328125,-5.615081787109375,-0.127105712890625,1,1.0,1.0,1.0,1.0,70.00
2021-04-07 12:04:24.564,0.94615424,0.49397105,0.6520322,1.3028142,0.5820927,0.20783429,0.13384382,0.7856925,0.5592044,0.13499755,0.27873027,0.8627516,0.45380738,0.01635291,0.11812152,0.54401857,-0.26207623,-0.37872344,-0.3518327,-0.28823456,809.4872,790.9524,795.78754,828.8278,727.6923,-0.30352783203125,-0.05078125,0.96063232421875,4.4561767578125,-4.702911376953125,0.545806884765625,1,1.0,1.0,1.0,1.0,70.00
2021-04-07 12:04:25.081,1.0170586,0.55217516,0.9615723,1.2907453,0.54890126,0.2910061,0.6095441,0.7150451,0.5468084,0.50663793,0.2821269,0.8627516,0.44229975,0.019891834,-0.027247842,0.40033418,-0.47045898,-0.2914223,-0.3781099,-0.2938555,782.0879,786.9231,794.57874,793.36993,583.44324,-0.28765869140625,-0.0709228515625,0.95672607421875,4.2169189453125,-4.329071044921875,-0.37384033203125,1,1.0,1.0,1.0,1.0,70.00
2021-04-07 12:04:25.585,1.0276828,0.6996876,1.0761126,1.2865009,0.4758843,0.40579608,0.7048493,0.65270394,0.48412496,0.6904562,0.32037526,0.82265806,0.4489969,0.042574752,0.030263739,0.4246602,-0.5261637,-0.30328342,-0.35747787,-0.33865145,803.0403,788.1319,802.6374,802.6374,718.4249,-0.2994384765625,-0.0614013671875,0.95599365234375,4.7552490234375,-4.643096923828125,1.15142822265625,1,1.0,1.0,1.0,1.0,70.00
2021-04-07 12:04:26.092,0.4232111,0.9282556,1.1213775,1.2865009,0.27021602,0.5350168,0.75119627,0.65270394,0.42681655,0.7209656,0.37988973,0.82265806,0.38507387,0.10023274,0.056720726,0.4246602,-0.07141479,-0.2470815,-0.39867955,-0.33865145,815.12823,799.011,791.75824,810.293,837.6923,-0.29937744140625,-0.06500244140625,0.957275390625,5.136566162109375,-5.151519775390625,1.547698974609375,1,1.0,1.0,1.0,1.0,70.00
2021-04-07 12:04:26.595,0.39118767,0.85190755,0.8661563,0.5164383,0.09317098,0.46191198,0.46718514,-0.12496462,0.44339773,0.6931748,0.37429872,0.009788954,0.2895092,0.13669164,0.04850724,0.2729156,-0.22627631,-0.30709726,-0.36530435,-0.25883883,828.8278,800.2198,795.78754,826.8132,748.6447,-0.22283935546875,-0.04144287109375,0.97491455078125,5.166473388671875,-22.80426025390625,2.093505859375,1,1.0,1.0,1.0,1.0,70.00
2021-04-07 12:04:27.114,0.39118767,0.86006284,0.57300955,0.5164383,0.09317098,0.3775566,0.32563585,-0.12496462,0.44339773,0.6494054,0.36977136,0.009788954,0.2895092,0.14252663,-0.03447512,0.2729156,-0.22627631,-0.3734679,-0.4689325,-0.25883883,775.64105,778.0586,811.9048,793.36993,727.6923,-0.08538818359375,0.0035400390625,1.0106201171875,0.171966552734375,-11.028289794921875,0.964508056640625,1,1.0,1.0,1.0,1.0,70.00
2021-04-07 12:04:27.625,0.35661364,0.600632,0.3547866,0.48697376,-0.210733,0.08622105,0.21427403,-0.067865334,0.36111844,0.31061593,0.5167005,-0.05177403,0.16680345,0.19557409,-0.027558884,0.23626797,-0.46921328,-0.45482957,-0.5490894,-0.2591423,753.47986,813.1135,808.68134,795.78754,720.4396,0.08563232421875,-0.23931884765625,0.96026611328125,-7.529144287109375,-23.021087646484375,-11.02081298828125,1,1.0,1.0,1.0,1.0,70.00
2021-04-07 12:04:28.133,0.28380197,0.8357664,0.6715366,0.41761976,-0.19989386,0.27450395,0.43425313,-0.015221242,0.34485266,0.29866555,0.5306344,-0.12829381,0.17072341,0.22975518,0.039414812,0.2292321,-0.4217474,-0.52190626,-0.60000885,-0.25759274,827.619,828.4249,807.47253,836.4835,868.71796,0.19403076171875,-0.31707763671875,0.955078125,8.65814208984375,6.02630615234375,5.390777587890625,1,1.0,1.0,1.0,1.0,70.00
2021-04-07 12:04:28.659,0.28380197,0.8357664,0.6715366,0.41761976,-0.19989386,0.27450395,0.43425313,-0.015221242,0.34485266,0.29866555,0.5306344,-0.12829381,0.17072341,0.22975518,0.039414812,0.2292321,-0.4217474,-0.52190626,-0.60000885,-0.25759274,762.74725,776.4469,795.78754,767.98535,753.8828,-0.16046142578125,-0.03314208984375,0.9849853515625,25.652923583984375,20.62103271484375,14.6246337890625,1,1.0,1.0,1.0,1.0,70.00
2021-04-07 12:04:29.187,0.28380197,0.8357664,0.6715366,0.41761976,-0.19989386,0.27450395,0.43425313,-0.015221242,0.34485266,0.29866555,0.5306344,-0.12829381,0.17072341,0.22975518,0.039414812,0.2292321,-0.4217474,-0.52190626,-0.60000885,-0.25759274,785.31134,803.44324,808.2784,809.0842,681.3553,-0.27032470703125,0.1400146484375,0.95733642578125,13.764801025390625,-2.160797119140625,5.39825439453125,1,1.0,1.0,1.0,1.0,70.00
2021-04-07 12:04:35.320,1.2891958,1.0065659,0.7157568,1.1122313,1.0843595,0.4215128,0.30811977,0.8089793,0.8511898,0.48776388,0.3984827,0.60858434,0.36949342,0.31494954,-0.0020908653,0.11686218,-0.0651273,-0.2710555,-0.21944946,-0.4340424,780.07324,783.69965,796.99634,794.57874,738.1685,0.09735107421875,-0.00274658203125,1.002685546875,4.732818603515625,-7.858123779296875,0.07476806640625,1,1.0,1.0,1.0,1.0,70.00
2021-04-07 12:04:35.843,1.2891958,1.0065659,0.7157568,1.1122313,1.0843595,0.4215128,0.30811977,0.8089793,0.8511898,0.48776388,0.3984827,0.60858434,0.36949342,0.31494954,-0.0020908653,0.11686218,-0.0651273,-0.2710555,-0.21944946,-0.4340424,844.1392,794.57874,807.8755,826.8132,783.2967,0.08892822265625,-0.0028076171875,1.0013427734375,4.134674072265625,-4.508514404296875,1.74957275390625,1,1.0,1.0,1.0,1.0,70.00
2021-04-07 12:04:54.823,0.07144795,0.9945496,-0.30780673,0.06966427,0.6700247,0.4421624,0.19282894,0.75153774,0.51875675,-0.12753217,-0.18388122,0.5258382,0.13818674,-0.01932665,-0.3809274,0.2773366,0.018729972,-0.6269237,-0.6181984,-0.085492104,815.12823,787.326,799.011,810.696,692.23444,0.35272216796875,0.04180908203125,0.92193603515625,2.938385009765625,-8.904876708984375,1.547698974609375,1,1.0,1.0,1.0,1.0,65.00
2021-04-07 12:04:55.334,0.1811908,0.8785006,-0.29426247,0.08725422,0.7756142,0.4457881,0.28440946,0.9376356,0.5886075,0.37096676,0.20137215,0.638231,0.18156733,-0.04044981,-0.24026011,0.3708549,0.0106900865,-0.6762954,-0.6568053,-0.06955679,766.77655,792.5641,788.93774,787.326,744.21246,0.4140625,0.10089111328125,0.91156005859375,6.287994384765625,-4.41131591796875,6.6094970703125,1,1.0,1.0,1.0,1.0,60.00
2021-04-07 12:04:55.846,0.1811908,0.8785006,-0.29426247,0.08725422,0.7756142,0.4457881,0.28440946,0.9376356,0.5886075,0.37096676,0.20137215,0.638231,0.18156733,-0.04044981,-0.24026011,0.3708549,0.0106900865,-0.6762954,-0.6568053,-0.06955679,784.5055,793.7729,804.65204,799.011,613.2601,0.4581298828125,0.0887451171875,0.90863037109375,4.306640625,-8.83758544921875,0.740203857421875,1,1.0,1.0,1.0,1.0,60.00
2021-04-07 12:05:34.073,-0.65393215,-0.17986421,-0.39426443,0.14990574,-0.02097917,-0.4437775,-0.4957948,0.37123972,0.57857347,-0.15844502,-0.50048244,-0.03318505,0.4421519,-0.26320285,0.012233656,0.2959272,0.10227301,-0.7369138,-0.6614859,-0.23425038,797.8022,798.20514,799.41394,795.78754,643.8828,0.48492431640625,0.0224609375,0.892333984375,3.27484130859375,-7.005767822265625,-3.880462646484375,1,2.0,1.0,1.0,2.0,70.00
2021-04-07 12:05:34.582,-0.41009858,-0.26943025,-0.34107965,-0.011649627,-0.030625096,-0.25231463,-0.35799292,0.3151074,0.60610944,-0.06852986,-0.26724797,0.019082878,0.36968738,-0.13322937,-0.094222344,0.35218316,0.1610323,-0.76361,-0.74516195,-0.15423419,827.2161,797.3993,799.81683,820.7692,892.0879,0.48321533203125,0.0234375,0.88525390625,3.768310546875,-5.203857421875,-1.831817626953125,1,1.0,1.0,1.0,1.0,70.00
2021-04-07 12:05:35.093,-0.41009858,-0.26943025,-0.34107965,-0.011649627,-0.030625096,-0.25231463,-0.35799292,0.3151074,0.60610944,-0.06852986,-0.26724797,0.019082878,0.36968738,-0.13322937,-0.094222344,0.35218316,0.1610323,-0.76361,-0.74516195,-0.15423419,828.022,795.78754,800.2198,814.7253,709.5604,0.48931884765625,0.0291748046875,0.88671875,5.38330078125,-4.149627685546875,1.27105712890625,1,1.0,1.0,1.0,1.0,70.00
2021-04-07 12:05:35.603,-0.41009858,-0.26943025,-0.34107965,-0.011649627,-0.030625096,-0.25231463,-0.35799292,0.3151074,0.60610944,-0.06852986,-0.26724797,0.019082878,0.36968738,-0.13322937,-0.094222344,0.35218316,0.1610323,-0.76361,-0.74516195,-0.15423419,807.0696,801.4286,801.02563,799.41394,685.78754,0.48455810546875,0.03387451171875,0.8924560546875,5.016937255859375,-5.540313720703125,-1.54022216796875,1,1.0,1.0,1.0,1.0,70.00
2021-04-07 12:07:43.521,0.77179354,1.1840255,0.7184415,0.8197798,0.36538678,0.5471558,-0.016227791,0.31358016,0.36631423,0.8572046,0.05307893,0.6561138,0.5171511,0.14427087,-0.07370296,0.553757,0.13648576,-0.23362339,-0.6562439,-0.15205054,779.2674,802.6374,822.7839,803.8461,739.7802,0.4229736328125,0.18817138671875,0.90521240234375,7.28240966796875,-11.6339111328125,5.09918212890625,1,1.0,1.0,1.0,1.0,65.00
2021-04-07 12:07:44.032,0.7286154,1.0411524,0.5851849,0.6820278,0.30425206,0.5402977,0.024847731,0.2152164,0.45948902,0.85776234,0.06508123,0.6561138,0.5662093,0.19411545,-0.123353325,0.579856,0.09550464,-0.30273092,-0.65147597,-0.10437148,827.2161,782.0879,806.6667,815.12823,772.8205,0.41839599609375,0.12982177734375,0.89801025390625,0.934600830078125,-4.747772216796875,0.35888671875,1,1.0,1.0,1.0,1.0,65.00
2021-04-07 12:07:44.543,0.6185991,0.99861145,0.025597265,0.5670648,0.27730927,0.80312103,0.013341551,0.20446792,0.5939655,0.88674945,0.11016199,0.6856207,0.4998496,0.23219618,-0.20771158,0.53745025,0.1953972,-0.36215618,-0.5397518,-0.02565257,796.5934,803.0403,804.65204,802.6374,712.7839,0.435546875,0.1243896484375,0.89080810546875,6.0113525390625,-5.181427001953125,2.714080810546875,1,1.0,1.0,1.0,1.0,65.00
2021-04-07 12:07:45.049,0.5525371,1.0063939,-0.002211673,0.38177454,0.23759763,0.8239736,0.1047752,0.122507825,0.5684964,0.663515,0.31477496,0.6181968,0.46578592,0.23287115,-0.1495818,0.52009237,0.17329958,-0.42335665,-0.51803064,-0.018173464,768.7912,781.28204,807.47253,804.2491,701.50183,0.43756103515625,0.1448974609375,0.88909912109375,5.4730224609375,-4.523468017578125,1.6748046875,1,1.0,1.0,1.0,1.0,65.00
2021-04-07 12:07:45.558,0.3191664,1.4278492,-0.008581745,0.09165762,0.21961993,0.7524148,-0.05066197,0.03508814,0.4907758,0.50775427,0.30815774,0.4665462,0.35631937,0.13586278,-0.102262266,0.40563822,0.17809394,-0.53114104,-0.5081016,-0.024543041,806.6667,793.36993,805.4579,809.89014,822.381,0.45367431640625,0.15985107421875,0.89105224609375,5.435638427734375,-3.39447021484375,2.37762451171875,1,1.0,1.0,1.0,1.0,65.00
2021-04-07 12:07:46.059,0.56638235,1.4738655,-0.12362919,-0.036623366,0.2741712,0.29589775,-0.18201433,0.22007976,0.5698602,0.38467994,0.32367647,0.46948475,0.35394254,0.06594207,-0.06251591,0.34909025,0.08558744,-0.5222256,-0.5538779,-0.11383566,832.0513,759.5238,801.8315,813.91943,726.4835,0.459228515625,0.111083984375,0.8743896484375,5.420684814453125,-6.482391357421875,1.2261962890625,1,1.0,1.0,1.0,1.0,65.00
2021-04-07 12:07:46.562,0.89858335,1.4415951,-0.101387545,0.22021578,0.37286562,0.19112319,-0.28580126,0.32939988,0.67188716,0.33838868,0.22969666,0.40120637,0.42491475,-0.006216072,-0.10148741,0.315477,0.17695698,-0.5127266,-0.5608906,-0.079604775,813.1135,798.20514,804.2491,809.0842,699.89014,0.46405029296875,0.13262939453125,0.88201904296875,5.301055908203125,-5.271148681640625,1.03179931640625,1,1.0,1.0,1.0,1.0,65.00
2021-04-07 12:07:47.074,0.9260426,1.3996122,-0.16714114,0.31104642,0.4492387,0.1612664,-0.25906438,0.37921673,0.67188716,0.2957363,0.22328848,0.34699026,0.44099802,-0.09477098,-0.08549132,0.3222721,0.21669167,-0.4870433,-0.5895812,-0.080294386,825.2015,800.2198,809.4872,813.91943,829.2308,0.49444580078125,0.1424560546875,0.87103271484375,4.074859619140625,-4.605712890625,-2.9608154296875,1,1.0,1.0,1.0,1.0,65.00
2021-04-07 12:07:47.604,0.90297145,0.617605,0.009279928,0.5541906,0.45991918,0.48731855,-0.18768613,0.28834125,0.67188716,0.05501171,0.16476937,0.34899065,0.5014904,0.12291745,-0.092997074,0.32868925,0.26950896,-0.604241,-0.62829417,-0.040322993,843.3333,797.8022,809.4872,822.381,754.2857,0.474365234375,0.13958740234375,0.86944580078125,4.2169189453125,-5.016937255859375,-0.216827392578125,1,1.0,1.0,1.0,1.0,65.00
2021-04-07 12:07:48.117,0.37709984,0.6818128,0.20766127,0.6226383,0.31082445,0.32048953,-0.14784932,0.21174201,0.41514271,0.17800121,0.112230755,0.39790207,0.46597102,0.013841055,-0.12049172,0.21294595,0.20860638,-0.4618014,-0.55191845,-0.13734204,831.2454,789.7436,801.02563,823.1868,830.84247,0.467529296875,0.15789794921875,0.8712158203125,5.973968505859375,-3.611297607421875,1.143951416015625,1,1.0,1.0,1.0,1.0,65.00
2021-04-07 12:07:48.625,0.4931882,0.81310916,0.32949188,0.6415423,0.17165495,0.37993672,-0.08796973,0.17279705,0.45868844,0.24047877,0.108922005,0.40723178,0.4862825,0.001564518,-0.2538835,0.25073203,0.14355443,-0.49796993,-0.5415907,-0.070411235,836.08057,784.90845,805.05493,823.1868,720.4396,0.480224609375,0.167724609375,0.86846923828125,5.615081787109375,-6.38519287109375,3.028106689453125,1,1.0,1.0,1.0,1.0,65.00
2021-04-07 12:07:49.151,0.49187785,0.9541161,0.19384907,0.47350743,0.100539826,0.2592187,-0.17992269,0.28124717,0.42247212,0.2511631,0.055446226,0.4482425,0.43802607,-0.14807458,-0.32947415,0.17845659,0.06213387,-0.45462018,-0.5563443,-0.08465563,792.96704,781.685,798.20514,799.81683,748.6447,0.4727783203125,0.15716552734375,0.87261962890625,5.659942626953125,-4.2169189453125,-0.411224365234375,1,1.0,1.0,1.0,1.0,65.00
2021-04-07 12:07:49.662,0.46909976,1.0265974,0.09890993,0.395824,0.22583953,0.32926124,-0.060138915,0.3170476,0.45830503,0.23471192,0.25073543,0.5058253,0.361234,-0.15245423,-0.24560429,0.21683933,0.047254246,-0.50256675,-0.64391655,8.207402E-4,757.1062,788.93774,814.3223,792.96704,738.1685,0.4771728515625,0.15618896484375,0.86810302734375,3.147735595703125,-3.925323486328125,-2.332763671875,1,1.0,1.0,1.0,1.0,65.00
2021-04-07 12:07:50.170,0.2988097,1.0626725,0.13241154,0.45753294,0.24737205,0.11202273,0.07258054,0.27505997,0.445558,0.1420286,0.26115617,0.51494706,0.26565027,-0.37119296,-0.1188774,0.1825001,0.050197516,-0.4068686,-0.60503036,-0.01220362,782.49084,802.6374,810.696,829.2308,752.27106,0.4727783203125,0.15911865234375,0.86236572265625,3.51409912109375,-3.805694580078125,1.054229736328125,1,1.0,1.0,1.0,1.0,65.00
2021-04-07 12:07:50.672,-0.020740919,1.0480837,0.25022426,0.46443194,0.33625296,-0.034994442,0.112581275,0.13882248,0.445558,0.07258501,0.25669485,0.54544437,0.21951868,-0.39304596,-0.013886459,0.2694529,0.097040266,-0.38358334,-0.56403357,0.022873014,828.8278,776.8498,804.2491,821.1722,859.85345,0.46856689453125,0.1531982421875,0.8646240234375,4.239349365234375,-4.20196533203125,0.13458251953125,1,1.0,1.0,1.0,1.0,65.00
