TimeStamp,Delta_TP9,Delta_AF7,Delta_AF8,Delta_TP10,Theta_TP9,Theta_AF7,Theta_AF8,Theta_TP10,Alpha_TP9,Alpha_AF7,Alpha_AF8,Alpha_TP10,Beta_TP9,Beta_AF7,Beta_AF8,Beta_TP10,Gamma_TP9,Gamma_AF7,Gamma_AF8,Gamma_TP10,RAW_TP9,RAW_AF7,RAW_AF8,RAW_TP10,AUX_RIGHT,Accelerometer_X,Accelerometer_Y,Accelerometer_Z,Gyro_X,Gyro_Y,Gyro_Z,HeadBandOn,HSI_TP9,HSI_AF7,HSI_AF8,HSI_TP10,Battery,Elements
2021-04-28 12:00:46.978,1.0753182,0.050208412,0.16475612,1.0376929,0.3517595,-0.2715217,-0.09977863,0.17478283,0.866004,-0.09641388,0.05694641,0.662891,0.41214365,-0.047464024,-0.028499605,0.6417494,-0.35976702,-0.5316369,-0.39721408,0.19023085,784.90845,803.0403,801.02563,782.8938,628.5714,0.21429443359375,-0.05987548828125,0.980712890625,6.497344970703125,-6.400146484375,1.772003173828125,1,1.0,1.0,1.0,1.0,70.00
2021-04-28 12:00:47.484,0.9264391,-0.03692027,0.16286263,1.0216488,0.511056,-0.14788744,-0.0037115149,0.36694178,0.40421596,-0.021815471,0.02862018,0.54147786,0.39233443,-0.048912805,-0.07159083,0.5238482,-0.19088443,-0.5750968,-0.3664808,0.22174993,830.0366,807.47253,813.91943,826.4103,983.1502,0.21337890625,-0.06304931640625,0.98504638671875,3.36456298828125,-0.276641845703125,0.83740234375,1,1.0,1.0,1.0,1.0,70.00
2021-04-28 12:00:47.994,0.8484668,-0.27857184,-0.22787187,0.85953707,0.45653254,-0.14421107,-0.14146903,0.3572855,0.49724394,0.0565404,-0.03368601,0.5690182,0.29964817,-0.10032696,-0.17546679,0.41615513,-0.2632577,-0.5547725,-0.461305,0.27435255,780.87915,806.6667,805.8608,785.7143,600.3663,0.19525146484375,-0.0750732421875,0.98712158203125,7.40203857421875,-1.114044189453125,-4.583282470703125,1,1.0,1.0,1.0,1.0,70.00
2021-04-28 12:00:48.501,0.90660655,-0.27368006,-0.14541742,0.9740242,0.5404638,-0.24592742,-0.12978576,0.53963476,0.5703169,0.05310305,-0.050684325,0.6157671,0.3615833,-0.088905185,-0.085632056,0.54269665,-0.346,-0.5798322,-0.49611795,0.21314362,808.2784,794.57874,799.41394,814.7253,726.08057,0.22625732421875,0.05126953125,0.97760009765625,13.047027587890625,-3.521575927734375,-15.424652099609375,1,1.0,1.0,1.0,1.0,70.00
2021-04-28 12:00:49.006,0.95686877,0.03179054,0.810655,1.0174689,0.60344076,-0.124977246,0.20286177,0.63521457,0.5634374,0.12379517,0.38175857,0.6172086,0.41427246,-0.02449665,-0.045142163,0.560085,-0.355683,-0.5546006,-0.46860436,0.09973014,826.0073,806.6667,808.68134,815.5311,925.12823,0.16705322265625,-0.03179931640625,0.95916748046875,-2.82623291015625,-2.79632568359375,-27.933349609375,1,1.0,1.0,1.0,1.0,70.00
2021-04-28 12:00:49.512,1.0744722,0.17317861,0.98229206,1.1074476,0.71750873,1.7206382E-4,0.34430218,0.6365951,0.5634374,0.08661568,0.38175857,0.59418726,0.5440947,0.008406039,0.034695722,0.6246162,-0.3324544,-0.5864588,-0.4203626,0.02851845,809.4872,812.3077,812.71063,808.2784,770.0,0.07342529296875,0.0111083984375,0.98101806640625,4.254302978515625,2.37762451171875,-15.29754638671875,1,1.0,1.0,1.0,1.0,70.00
2021-04-28 12:00:50.025,1.3908057,0.71182007,1.0451748,1.1214683,1.0312074,0.4011327,0.48626596,0.7697031,0.780333,0.13090622,0.3840451,0.7788413,0.5678963,0.14897528,-0.11023632,0.49459147,-0.268785,-0.67724717,-0.54538304,-0.031491805,869.12085,840.5128,780.87915,856.63007,625.34796,0.00244140625,0.02593994140625,0.9915771484375,6.53472900390625,-4.7552490234375,-32.8680419921875,1,1.0,1.0,1.0,1.0,70.00
2021-04-28 12:00:50.539,1.4540484,1.1066725,0.8858728,1.1811242,1.1099107,0.8172659,0.4700495,0.8831763,0.780333,0.46856686,0.2419535,0.85697937,0.50400656,-2.783599E-4,-0.2448337,0.30390576,-0.28941625,-0.57969356,-0.68011624,0.021031592,765.16486,809.0842,802.6374,774.0293,664.43225,-0.00360107421875,0.1536865234375,1.004150390625,11.805877685546875,-5.2935791015625,-21.495819091796875,1,1.0,1.0,1.0,1.0,70.00
2021-04-28 12:00:51.049,1.4540484,1.1115746,1.0372343,1.2398463,1.1099107,0.79331714,0.58799195,1.0226258,0.780333,0.5161324,0.34111995,0.85697937,0.50400656,-0.017531225,-0.2266803,0.17469032,-0.28941625,-0.5829214,-0.7082797,-0.14534406,842.1245,809.0842,807.0696,843.3333,755.89746,0.00634765625,0.21923828125,0.977294921875,7.648773193359375,-9.22637939453125,0.46356201171875,1,1.0,1.0,1.0,1.0,70.00
2021-04-28 12:00:51.577,1.4840555,1.2496749,1.0976748,1.2652301,1.1650592,0.8922597,0.60564095,0.95566374,0.780333,0.7057396,0.40666658,0.77656657,0.51105404,0.071645744,-0.10593595,0.06259424,-0.30231568,-0.5546392,-0.6278362,-0.12999128,838.49817,814.3223,799.41394,840.9158,722.8571,0.0294189453125,0.2081298828125,0.98016357421875,-3.566436767578125,2.40753173828125,41.085052490234375,1,1.0,1.0,1.0,1.0,70.00
2021-04-28 12:00:52.100,1.4840555,1.2660918,0.99672514,1.2652301,1.1650592,0.82965225,0.5305325,0.95566374,0.780333,0.6784701,0.38226393,0.77656657,0.51105404,0.16556662,-0.018628199,0.06259424,-0.30231568,-0.5743758,-0.5753193,-0.12999128,799.011,806.6667,798.20514,786.1172,593.91943,-0.0244140625,0.15789794921875,0.9932861328125,0.35888671875,1.562652587890625,19.387359619140625,1,1.0,1.0,1.0,1.0,70.00
2021-04-28 12:00:52.609,1.4840555,1.2918414,0.73044187,1.2652301,1.1650592,0.8754894,0.30865675,0.95566374,0.780333,0.6784701,0.31541127,0.77656657,0.51105404,0.21961409,0.09608413,0.06259424,-0.30231568,-0.56676805,-0.4417547,-0.12999128,814.3223,807.8755,803.44324,805.05493,663.6264,-0.0330810546875,0.133544921875,0.97662353515625,6.916046142578125,0.590667724609375,4.94964599609375,1,1.0,1.0,1.0,1.0,70.00
2021-04-28 12:00:53.115,1.4840555,1.1185335,0.75385314,1.2652301,1.1650592,0.2711804,0.33097595,0.95566374,0.780333,-0.054109775,0.16722763,0.77656657,0.51105404,-0.1314875,-0.002541203,0.06259424,-0.30231568,-0.30479702,-0.5265109,-0.12999128,815.9341,809.0842,808.68134,805.4579,786.9231,-0.0054931640625,0.14141845703125,1.0030517578125,3.461761474609375,-4.403839111328125,4.9346923828125,1,1.0,1.0,1.0,1.0,70.00
2021-04-28 12:00:53.627,1.4840555,1.0768849,0.7016832,1.2652301,1.1650592,0.22083993,0.21882159,0.95566374,0.780333,-0.0092669055,0.16930504,0.77656657,0.51105404,-0.070712514,-0.06748748,0.06259424,-0.30231568,-0.32349068,-0.40187156,-0.12999128,826.4103,808.2784,803.44324,819.9634,791.75824,-0.04949951171875,0.122314453125,0.99298095703125,4.90478515625,-3.5888671875,3.686065673828125,1,2.0,1.0,1.0,2.0,70.00
2021-04-28 12:00:54.139,1.4840555,1.3020302,0.7016832,1.2652301,1.1650592,0.5885766,0.21882159,0.95566374,0.780333,0.35207522,0.16930504,0.77656657,0.51105404,-0.06230716,-0.06748748,0.06259424,-0.30231568,-0.3405803,-0.40187156,-0.12999128,797.3993,811.0989,811.0989,793.36993,666.8498,-0.06085205078125,0.13189697265625,0.99114990234375,4.059906005859375,-2.64678955078125,-1.21124267578125,1,2.0,1.0,1.0,2.0,70.00
2021-04-28 12:00:54.651,1.4840555,1.1105428,-0.009736449,1.2652301,1.1650592,0.47974548,-0.4429477,0.95566374,0.780333,0.3794929,-0.22519411,0.77656657,0.51105404,0.016695017,-0.0987769,0.06259424,-0.30231568,-0.41754106,-0.36625397,-0.12999128,816.337,801.02563,802.23444,810.293,940.84247,-0.0675048828125,0.12994384765625,0.98687744140625,4.32159423828125,-3.36456298828125,0.665435791015625,1,2.0,1.0,1.0,2.0,70.00
2021-04-28 12:00:55.176,0.9410528,0.98326844,0.0595899,0.92972803,0.7529403,0.52102953,-0.44525588,0.5983504,0.8774654,0.4596816,0.25171518,0.7839466,0.39953238,-0.019870998,-0.04128481,0.44729018,-0.41259208,-0.4775882,-0.454262,-0.11182456,817.1429,808.68134,806.26373,817.9487,834.0659,-0.060302734375,0.12774658203125,0.9892578125,4.852447509765625,-4.9346923828125,3.5589599609375,1,1.0,1.0,1.0,1.0,70.00
2021-04-28 12:00:55.703,0.9434596,0.44000533,0.09868583,1.2207779,0.7396961,0.2491425,-0.2861294,0.7057208,0.8774654,0.48066235,0.2576899,0.84376043,0.38007024,-0.061496507,-0.09146492,0.35040987,-0.41477913,-0.49695578,-0.4573433,-0.07752313,850.58606,826.8132,793.36993,834.0659,923.1135,-0.0770263671875,0.13482666015625,0.98736572265625,5.375823974609375,-4.9346923828125,2.16827392578125,1,1.0,1.0,1.0,1.0,70.00
2021-04-28 12:00:56.213,0.94935167,0.45643345,0.20776099,1.190444,0.7007228,0.3409032,-0.08731172,0.62808764,0.8774654,0.50136316,0.3315728,0.8423244,0.3595388,-0.027234178,-0.11584766,0.2195369,-0.42097723,-0.5750424,-0.5475757,-0.09840193,807.47253,805.8608,805.8608,819.5604,783.69965,-0.0479736328125,0.1474609375,1.00799560546875,2.998199462890625,-9.21142578125,4.2767333984375,1,1.0,1.0,1.0,1.0,70.00
2021-04-28 12:00:56.717,0.94000536,0.4585541,0.5594283,1.3109617,0.65774065,0.2991622,0.31894803,0.6699173,0.79633677,0.5228993,0.38539684,0.5546692,0.29529896,0.06550358,-0.08851012,0.12617952,-0.47368157,-0.53434354,-0.5979467,-0.09315715,781.685,804.65204,803.8461,794.9817,640.65936,-0.08160400390625,0.1328125,0.9864501953125,4.2169189453125,-0.949554443359375,-7.716064453125,1,1.0,1.0,1.0,1.0,70.00
2021-04-28 12:00:57.245,0.94000536,0.61781925,0.7058305,1.1769664,0.65774065,0.46670014,0.45755488,0.4004991,0.79633677,0.5643741,0.5229811,0.3862783,0.29529896,0.11330878,-0.02690522,0.027444296,-0.47368157,-0.5047675,-0.49429664,-0.18582165,799.81683,798.20514,803.0403,801.02563,778.46155,-0.08453369140625,0.12200927734375,0.99676513671875,4.74029541015625,-3.42437744140625,-4.613189697265625,1,1.0,1.0,1.0,1.0,70.00
2021-04-28 12:00:57.754,0.94000536,0.8390135,0.9523407,1.1769664,0.65774065,0.6343189,0.6423517,0.4004991,0.79633677,0.68256605,0.6661454,0.3862783,0.29529896,0.11435885,0.040235758,0.027444296,-0.47368157,-0.43737856,-0.38057086,-0.18582165,815.12823,809.0842,799.81683,807.8755,759.92676,-0.13348388671875,0.12445068359375,0.98504638671875,3.686065673828125,-2.639312744140625,-0.545806884765625,1,1.0,1.0,1.0,1.0,70.00
2021-04-28 12:00:58.261,0.94000536,0.98167944,0.99593055,1.1769664,0.65774065,0.7721968,0.6570629,0.4004991,0.79633677,0.64445615,0.66566175,0.3862783,0.29529896,0.046267726,0.047642335,0.027444296,-0.47368157,-0.44806176,-0.2707351,-0.18582165,790.14655,803.44324,796.99634,790.14655,629.3773,-0.1351318359375,0.129638671875,0.9849853515625,5.704803466796875,-3.372039794921875,0.949554443359375,1,1.0,1.0,1.0,1.0,70.00
2021-04-28 12:00:58.780,0.94000536,0.80994844,0.85106546,1.1769664,0.65774065,0.590755,0.4546652,0.4004991,0.79633677,0.62259287,0.6593762,0.3862783,0.29529896,-0.07464473,0.11247876,0.027444296,-0.47368157,-0.5442335,-0.42833993,-0.18582165,796.1905,802.6374,796.1905,796.5934,802.6374,-0.143310546875,0.13726806640625,0.98004150390625,5.562744140625,-2.76641845703125,1.323394775390625,1,2.0,1.0,1.0,2.0,70.00
2021-04-28 12:00:59.304,0.31108826,0.3056486,0.26522908,0.46772152,0.5167279,0.3306695,-0.1568969,0.32903075,0.5010065,0.54544944,0.03522804,0.4986142,-0.022232523,-0.11269704,0.073336355,0.42399994,-0.3267164,-0.6409273,-0.5028571,-0.45161062,821.978,811.50183,804.2491,811.50183,800.2198,-0.1484375,0.16131591796875,0.9859619140625,2.1533203125,-1.435546875,2.459869384765625,1,1.0,1.0,1.0,1.0,70.00
2021-04-28 12:00:59.812,0.18487185,0.15476158,0.100574575,0.34332797,0.3924614,0.14803183,-0.107576095,0.21188307,0.50967103,0.55807996,0.15687582,0.5062111,0.10890327,-0.16436869,-0.016369382,0.2873579,-0.35332894,-0.5726631,-0.5233581,-0.29024738,801.8315,799.81683,804.2491,801.8315,767.98535,-0.1942138671875,0.11370849609375,0.96051025390625,5.121612548828125,-2.82623291015625,-0.396270751953125,1,1.0,1.0,1.0,1.0,70.00
2021-04-28 12:01:00.317,0.14480641,0.39246246,0.22769362,0.27999133,0.38522327,0.19802096,0.058725554,0.16411744,0.50967103,0.5437627,0.24063173,0.46268106,0.12859239,-0.12614052,-0.04647657,0.24308936,-0.34614995,-0.6102356,-0.53290683,-0.27621815,757.50916,824.7985,777.6557,732.1245,716.4103,0.02215576171875,0.143310546875,1.02716064453125,5.802001953125,-22.019195556640625,-18.041534423828125,1,1.0,1.0,1.0,1.0,70.00
2021-04-28 12:01:00.835,-0.12130672,0.8299171,0.58839726,0.044471804,0.09410984,0.11022421,0.21189524,-0.059309382,0.085046224,0.41205147,0.2487269,0.25120816,0.25221133,-0.15745182,-0.036699574,-0.06391972,-0.3965801,-0.57638335,-0.51750153,-0.12425981,850.58606,805.8608,798.20514,842.1245,659.59705,-0.0548095703125,0.05181884765625,1.01654052734375,4.486083984375,-2.0635986328125,-12.69561767578125,1,1.0,1.0,1.0,1.0,70.00
2021-04-28 12:01:01.337,-0.12130672,1.0519577,0.866407,0.044471804,0.09410984,0.15626267,0.36023995,-0.059309382,0.085046224,0.37006414,0.44503638,0.25120816,0.25221133,-0.12926786,0.026161166,-0.06391972,-0.3965801,-0.51919234,-0.45238668,-0.12425981,799.011,794.57874,801.4286,796.1905,748.24176,-0.070068359375,0.1331787109375,0.99298095703125,5.4730224609375,-4.88983154296875,-5.443115234375,1,1.0,1.0,1.0,1.0,70.00
2021-04-28 12:01:01.856,-0.12130672,1.1323664,1.0318177,0.044471804,0.09410984,0.4780795,0.47927883,-0.059309382,0.085046224,0.5285765,0.5827725,0.25120816,0.25221133,-0.14992532,-0.0039592264,-0.06391972,-0.3965801,-0.4830627,-0.44027933,-0.12425981,818.7546,801.4286,803.44324,823.9927,841.31866,-0.0626220703125,0.21270751953125,0.9942626953125,8.142242431640625,-0.31402587890625,2.87109375,1,1.0,1.0,1.0,1.0,70.00
2021-04-28 12:01:02.379,-0.12130672,1.2792706,1.0141886,0.044471804,0.09410984,0.8923601,0.5139026,-0.059309382,0.085046224,0.62839067,0.5827725,0.25120816,0.25221133,-0.107627094,-0.020797448,-0.06391972,-0.3965801,-0.4918121,-0.43791488,-0.12425981,777.6557,801.02563,793.36993,779.2674,662.01465,-0.05938720703125,0.23638916015625,0.9891357421875,6.796417236328125,-8.29925537109375,8.082427978515625,1,2.0,1.0,1.0,2.0,70.00
2021-04-28 12:01:02.908,-0.12130672,1.3202797,0.99332094,0.044471804,0.09410984,0.9640371,0.47613692,-0.059309382,0.085046224,0.6264765,0.48523906,0.25120816,0.25221133,0.02172914,-0.037517343,-0.06391972,-0.3965801,-0.4979358,-0.56501067,-0.12425981,785.7143,801.02563,810.293,797.8022,785.31134,-0.016845703125,0.21533203125,0.9814453125,2.444915771484375,-5.21881103515625,3.5589599609375,1,2.0,1.0,1.0,2.0,70.00
2021-04-28 12:01:03.413,-0.12130672,1.4278547,1.0332109,0.044471804,0.09410984,0.95270264,0.5097042,-0.059309382,0.085046224,0.6306948,0.47540498,0.25120816,0.25221133,0.13013157,-0.010316528,-0.06391972,-0.3965801,-0.39288178,-0.6393518,-0.12425981,796.99634,805.8608,804.2491,798.20514,680.9524,-0.0850830078125,0.1839599609375,0.98199462890625,-5.824432373046875,5.62255859375,11.746063232421875,1,2.0,1.0,1.0,2.0,70.00
2021-04-28 12:01:03.915,-0.12130672,1.0593705,0.43953207,0.044471804,0.09410984,0.41057563,-0.37688214,-0.059309382,0.085046224,0.35970148,-0.1312561,0.25120816,0.25221133,0.14340462,-0.14966288,-0.06391972,-0.3965801,-0.37628368,-0.45358452,-0.12425981,801.4286,809.0842,804.65204,801.8315,792.5641,-0.1329345703125,0.0809326171875,0.98614501953125,4.388885498046875,-6.990814208984375,1.09161376953125,1,2.0,1.0,1.0,2.0,70.00
2021-04-28 12:01:04.453,0.55496085,0.85094744,0.2544112,0.5219524,0.4907257,0.17884114,-0.67848647,0.49374244,0.46605048,0.30390918,-0.123629786,0.38656282,0.1943545,0.014009087,0.027466133,0.1160227,-0.2873804,-0.44110906,-0.29474348,-0.25441632,818.3516,810.696,807.47253,818.3516,765.56775,-0.04852294921875,0.09320068359375,1.0001220703125,3.648681640625,-10.744171142578125,-8.4039306640625,1,2.0,1.0,1.0,2.0,70.00
2021-04-28 12:01:04.959,0.8338771,-0.065455176,0.081409544,0.7796407,0.9283977,-0.52761626,-0.17510399,0.9018522,0.8859401,0.058401365,-0.031732753,0.60991234,0.266805,-0.0536494,-0.00957501,0.15807904,-0.24672402,-0.5105593,-0.30002993,-0.2559673,772.8205,805.05493,813.1135,776.04395,729.707,0.02056884765625,0.0975341796875,0.99530029296875,8.08990478515625,-5.90667724609375,0.530853271484375,1,1.0,1.0,1.0,1.0,70.00
2021-04-28 12:01:05.477,0.84846,0.17335719,0.19155133,0.805833,0.9427781,0.030140094,0.08491464,0.91128,0.8946005,0.36581746,-0.005320572,0.60991234,0.2520729,-0.080544226,-0.005583024,0.14835425,-0.23033714,-0.5840199,-0.24194671,-0.2653776,818.3516,800.2198,807.47253,823.9927,703.1135,0.02239990234375,0.1107177734375,0.9981689453125,4.702911376953125,-6.228179931640625,14.512481689453125,1,1.0,1.0,1.0,1.0,70.00
2021-04-28 12:01:05.993,0.95591307,0.519297,0.34182045,0.91107273,1.0793827,0.35018867,0.21099573,1.0425593,0.8946005,0.38909084,0.3145377,0.598806,0.28190842,-0.012305032,-0.11842991,0.1658032,-0.20081735,-0.6201381,-0.27121198,-0.2717677,818.3516,811.50183,809.0842,817.9487,783.2967,-0.001953125,0.05780029296875,0.9918212890625,6.258087158203125,0.904693603515625,-8.95721435546875,1,1.0,1.0,1.0,1.0,70.00
2021-04-28 12:01:06.520,0.89653176,0.7300673,0.48013246,1.8604211,1.1543924,0.45405656,0.26220426,1.1601479,0.8810628,0.38909084,0.315841,0.70261127,0.22750342,-0.06587801,-0.18717973,0.11222309,-0.124867626,-0.5760316,-0.32630244,-0.34987542,807.0696,815.5311,795.78754,800.6227,789.7436,-0.0072021484375,0.1064453125,1.00262451171875,-0.11962890625,3.6187744140625,23.91082763671875,1,1.0,1.0,1.0,1.0,70.00
2021-04-28 12:01:07.036,0.89653176,0.85706764,0.8583186,1.7543097,1.1543924,0.39150557,0.25905785,0.99025637,0.8810628,0.34759226,0.38254756,0.77742654,0.22750342,-0.05262023,-0.20217654,0.014293005,-0.124867626,-0.4090254,-0.41779947,-0.14770393,822.7839,812.3077,804.65204,821.5751,803.0403,-0.0506591796875,0.05810546875,1.00341796875,8.5235595703125,-6.4300537109375,-19.536895751953125,1,1.0,1.0,1.0,1.0,70.00
2021-04-28 12:01:07.541,0.89653176,0.7139476,0.96832603,1.5804889,1.1543924,0.13725105,0.30577666,0.7827716,0.8810628,0.2079158,0.3415235,0.75168,0.22750342,-0.07418998,-0.15546516,0.040998083,-0.124867626,-0.34331983,-0.33545458,-0.10982321,796.99634,805.8608,812.71063,802.6374,686.1905,-0.11822509765625,0.04443359375,0.99041748046875,6.078643798828125,-2.878570556640625,-6.691741943359375,1,1.0,1.0,1.0,1.0,70.00
2021-04-28 12:01:08.052,0.8038427,0.8065159,1.0729811,1.0780562,0.64117163,0.2130989,0.3527115,0.52728784,0.683425,0.27052218,0.44326323,0.545254,0.17272113,-0.037996594,-0.061497737,-0.019233115,-0.4883698,-0.39002725,-0.30851534,-0.071541585,799.011,792.1612,821.5751,800.6227,707.9487,-0.080810546875,0.07391357421875,1.0059814453125,-1.1663818359375,-7.499237060546875,24.7930908203125,1,1.0,1.0,1.0,1.0,70.00
2021-04-28 12:01:08.554,1.0877373,0.8809789,1.0155756,1.0586556,0.64546376,0.41337612,0.44156465,0.39513597,0.78295577,0.45994207,0.41910538,0.41334033,0.12156546,-0.053583477,-0.014913154,0.021330025,-0.5334137,-0.50286865,-0.38294324,-0.094228804,829.6337,804.2491,803.8461,829.2308,840.10986,-0.042724609375,0.1070556640625,1.00555419921875,10.310516357421875,-1.9140625,-22.0416259765625,1,1.0,1.0,1.0,1.0,70.00
2021-04-28 12:01:09.072,1.1130283,0.9723023,1.0081571,1.0616386,0.6597531,0.43692562,0.40878442,0.45543095,0.7781649,0.5246132,0.41910538,0.40716475,0.09280366,-0.07505099,-0.069865696,-0.046140518,-0.54401237,-0.598499,-0.5696067,-0.08381465,812.3077,809.0842,793.7729,815.12823,821.5751,-0.09375,0.08367919921875,0.99664306640625,2.235565185546875,-4.127197265625,9.25628662109375,1,1.0,1.0,1.0,1.0,70.00
2021-04-28 12:01:09.595,1.3615339,0.83683884,0.8656695,1.1226704,0.7255202,0.3475702,0.30804187,0.45820135,0.83324724,0.5056015,0.29073057,0.35934412,0.068307124,-0.16642348,-0.16224991,-0.12627979,-0.547744,-0.63634944,-0.59757936,-0.07701852,759.92676,815.9341,803.8461,759.92676,672.8938,-0.0631103515625,0.1170654296875,1.00177001953125,2.863616943359375,-1.637420654296875,2.444915771484375,1,1.0,1.0,1.0,1.0,70.00
2021-04-28 12:01:10.098,1.4214115,0.66284204,0.7792169,1.1226704,0.78119475,0.09557391,0.26882908,0.45820135,0.8165359,0.42082626,0.15262209,0.35934412,0.0707567,-0.07267908,-0.22313765,-0.12627979,-0.5497504,-0.58741134,-0.48136482,-0.07701852,837.6923,802.6374,802.6374,832.8571,774.43225,-0.09222412109375,0.102783203125,0.99737548828125,4.83001708984375,-7.237548828125,0.471038818359375,1,1.0,1.0,1.0,1.0,70.00
2021-04-28 12:01:10.618,1.4214115,0.45170796,0.59485954,1.1226704,0.78119475,0.031527355,0.16833198,0.45820135,0.8165359,0.27181244,0.13814397,0.35934412,0.0707567,-0.074941,-0.27095914,-0.12627979,-0.5497504,-0.55984116,-0.4593065,-0.07701852,798.60803,804.2491,806.6667,800.6227,733.73627,-0.1083984375,0.0928955078125,0.9879150390625,4.97955322265625,-0.79254150390625,0.97198486328125,1,1.0,1.0,1.0,1.0,75.00
2021-04-28 12:01:11.144,1.4214115,0.39168453,0.5822778,1.1226704,0.78119475,0.08060374,0.14849742,0.45820135,0.8165359,0.3536321,0.18085815,0.35934412,0.0707567,-0.090926975,-0.2505679,-0.12627979,-0.5497504,-0.5959698,-0.37464708,-0.07701852,770.40295,812.71063,796.5934,763.5531,732.52747,-0.04302978515625,0.10009765625,1.0013427734375,3.102874755859375,-5.54779052734375,0.112152099609375,1,1.0,1.0,1.0,1.0,75.00
2021-04-28 12:01:11.670,1.4464307,0.6298202,0.6364486,1.1226704,0.38310468,0.20265938,0.1308775,0.45820135,0.28411707,0.27114204,0.1477918,0.35934412,0.14662766,-0.25337118,-0.23397467,-0.12627979,-0.41728905,-0.67417866,-0.35877204,-0.07701852,821.978,798.20514,799.41394,814.7253,709.5604,-0.14959716796875,0.06964111328125,0.9835205078125,2.3028564453125,4.329071044921875,-1.846771240234375,1,2.0,1.0,1.0,2.0,75.00
2021-04-28 12:01:12.172,1.4464307,0.6363698,0.56370103,1.1226704,0.38310468,0.16648665,0.13488753,0.45820135,0.28411707,0.28251576,0.15333317,0.35934412,0.14662766,-0.2511291,-0.16119045,-0.12627979,-0.41728905,-0.73384345,-0.3788133,-0.07701852,824.3956,811.50183,800.2198,815.9341,716.0073,-0.132080078125,0.07073974609375,0.98724365234375,7.43194580078125,-12.78533935546875,-1.4056396484375,1,1.0,1.0,1.0,1.0,75.00
2021-04-28 12:01:12.675,1.4464307,0.6851206,0.56275904,1.1226704,0.38310468,0.16612954,0.0989345,0.45820135,0.28411707,0.2951114,0.2647657,0.35934412,0.14662766,-0.19158232,-0.04002411,-0.12627979,-0.41728905,-0.66648734,-0.37035874,-0.07701852,912.6374,805.4579,794.17584,906.99634,779.2674,-0.0594482421875,0.10040283203125,0.99468994140625,7.813262939453125,0.0897216796875,-9.61517333984375,1,1.0,1.0,1.0,1.0,75.00
2021-04-28 12:01:13.184,1.4464307,0.8791023,0.5187665,1.1226704,0.38310468,0.3559494,-0.0764652,0.45820135,0.28411707,0.32945147,0.16835825,0.35934412,0.14662766,-0.15802409,0.021418493,-0.12627979,-0.41728905,-0.5404552,-0.38336918,-0.07701852,799.81683,808.68134,805.05493,799.011,730.10986,-0.09173583984375,0.1181640625,0.9884033203125,7.0880126953125,-12.2918701171875,5.375823974609375,1,1.0,1.0,1.0,1.0,75.00
2021-04-28 12:01:13.708,1.4464307,0.96234745,0.682618,1.1226704,0.38310468,0.38687822,-0.05345295,0.45820135,0.28411707,0.32945147,0.22676355,0.35934412,0.14662766,-0.14990146,0.087371774,-0.12627979,-0.41728905,-0.5172608,-0.290865,-0.07701852,579.011,757.9121,865.09155,598.7546,797.3993,-0.003173828125,0.144287109375,1.007568359375,3.18511962890625,0.351409912109375,7.596435546875,1,1.0,1.0,1.0,1.0,75.00
2021-04-28 12:01:14.235,1.4464307,1.2839574,1.3256514,1.1226704,0.38310468,0.7146222,0.46897823,0.45820135,0.28411707,0.5508942,0.2736713,0.35934412,0.14662766,-0.19099319,0.01689616,-0.12627979,-0.41728905,-0.5347094,-0.45568442,-0.07701852,873.5531,809.0842,787.72894,855.0183,720.0366,-0.15460205078125,0.08795166015625,0.9847412109375,0.299072265625,0.127105712890625,6.721649169921875,1,1.0,1.0,1.0,1.0,75.00
2021-04-28 12:01:14.739,1.4464307,1.31003,1.3588383,1.1226704,0.38310468,0.7568404,0.51949656,0.45820135,0.28411707,0.5284106,0.2401913,0.35934412,0.14662766,-0.21670926,-0.0023530398,-0.12627979,-0.41728905,-0.638795,-0.54579395,-0.07701852,751.06226,810.293,826.0073,749.85345,822.381,-0.14471435546875,0.0877685546875,0.9803466796875,7.050628662109375,-9.802093505859375,0.97198486328125,1,2.0,1.0,1.0,2.0,75.00
2021-04-28 12:01:15.249,1.4464307,1.3374703,1.5017623,1.1226704,0.38310468,0.820837,0.7472286,0.45820135,0.28411707,0.5375446,0.23553827,0.35934412,0.14662766,-0.15297711,-0.034873646,-0.12627979,-0.41728905,-0.6801636,-0.5097217,-0.07701852,797.8022,795.78754,806.26373,796.1905,826.0073,-0.05706787109375,0.092529296875,1.0,0.8673095703125,-14.774169921875,-2.310333251953125,1,2.0,1.0,1.0,2.0,75.00
2021-04-28 12:01:15.760,1.4464307,0.6121575,1.1133152,1.1226704,0.38310468,0.1634781,0.46931604,0.45820135,0.28411707,0.023692673,-0.023978973,0.35934412,0.14662766,-0.027280957,-0.002620279,-0.12627979,-0.41728905,-0.47231534,-0.5792982,-0.07701852,784.90845,796.1905,801.4286,784.5055,755.89746,0.028564453125,0.05657958984375,0.998779296875,5.4132080078125,-6.766510009765625,-1.233673095703125,1,2.0,1.0,1.0,2.0,75.00
2021-04-28 12:01:16.271,1.4464307,0.55946827,0.8744334,1.1226704,0.38310468,0.057105243,0.31896678,0.45820135,0.28411707,0.045683023,0.060194608,0.35934412,0.14662766,-0.028054286,-0.03482834,-0.12627979,-0.41728905,-0.48545465,-0.76154816,-0.07701852,844.94507,801.8315,797.3993,843.3333,745.0183,0.00286865234375,0.081298828125,0.99322509765625,5.899200439453125,-5.390777587890625,-3.671112060546875,1,2.0,1.0,1.0,2.0,75.00
2021-04-28 12:01:16.802,1.4464307,0.6363766,0.6544652,1.1226704,0.38310468,0.13652067,0.17093375,0.45820135,0.28411707,-0.005428826,0.13838463,0.35934412,0.14662766,-0.04711833,0.013395077,-0.12627979,-0.41728905,-0.48691943,-0.8497386,-0.07701852,763.1502,803.0403,804.65204,774.83514,877.1795,0.0714111328125,0.1143798828125,1.0196533203125,3.715972900390625,-0.351409912109375,1.876678466796875,1,2.0,1.0,1.0,2.0,75.00
2021-04-28 12:01:17.313,1.4464307,0.49980402,0.5442076,1.1226704,0.38310468,0.12072747,0.23189095,0.45820135,0.28411707,-0.080776006,0.31762698,0.35934412,0.14662766,-0.10814136,-0.06954061,-0.12627979,-0.41728905,-0.6167321,-0.62782925,-0.07701852,788.1319,804.2491,811.0989,796.99634,757.50916,-0.0318603515625,0.0252685546875,1.00396728515625,-3.21502685546875,-11.43951416015625,5.443115234375,1,2.0,1.0,1.0,2.0,75.00
2021-04-28 12:01:17.837,1.4464307,0.47331524,0.48819888,1.1226704,0.38310468,0.21657957,0.18892106,0.45820135,0.28411707,0.13556929,0.328573,0.35934412,0.14662766,-0.13580985,-0.080802456,-0.12627979,-0.41728905,-0.6387765,-0.295266,-0.07701852,801.02563,804.2491,790.54944,801.02563,682.96704,-0.0577392578125,0.06427001953125,0.99932861328125,9.40582275390625,-3.4393310546875,-2.549591064453125,1,2.0,1.0,1.0,2.0,75.00
2021-04-28 12:01:18.362,1.4464307,0.39311525,0.21546371,1.1226704,0.38310468,0.03865377,0.07546091,0.45820135,0.28411707,0.11192392,0.30629817,0.35934412,0.14662766,-0.09827499,-0.17068787,-0.12627979,-0.41728905,-0.6254677,-0.17511852,-0.07701852,797.3993,807.0696,796.1905,794.57874,736.9597,0.00225830078125,0.06134033203125,1.0076904296875,8.620758056640625,-1.248626708984375,-0.97198486328125,1,2.0,1.0,1.0,2.0,75.00
2021-04-28 12:01:18.887,1.4464307,0.53274506,0.24299912,1.1226704,0.38310468,0.1654874,0.10373009,0.45820135,0.28411707,0.48453337,0.24503577,0.35934412,0.14662766,-0.06950027,-0.05519916,-0.12627979,-0.41728905,-0.67110133,-0.21703342,-0.07701852,827.619,805.05493,798.60803,826.8132,768.7912,-0.08740234375,0.0799560546875,0.991455078125,8.097381591796875,-5.704803466796875,-2.19818115234375,1,2.0,1.0,1.0,2.0,75.00
2021-04-28 12:01:19.414,1.4464307,0.7230622,0.24677974,1.1226704,0.38310468,0.46355304,0.3761479,0.45820135,0.28411707,0.6412351,0.25453156,0.35934412,0.14662766,-0.12248514,-0.097587004,-0.12627979,-0.41728905,-0.71238285,-0.37550715,-0.07701852,781.685,805.8608,810.293,774.83514,695.8608,0.0380859375,0.121337890625,1.00103759765625,1.00189208984375,-7.050628662109375,-2.848663330078125,1,2.0,1.0,1.0,2.0,75.00
2021-04-28 12:01:19.924,1.4464307,0.64242876,0.2037192,1.1226704,0.38310468,0.46632516,0.39266995,0.45820135,0.28411707,0.6412351,0.2203308,0.35934412,0.14662766,-0.2464212,-0.1621564,-0.12627979,-0.41728905,-0.69717646,-0.36337355,-0.07701852,812.71063,807.0696,801.8315,816.7399,691.4286,-0.06640625,0.089599609375,0.9921875,1.861724853515625,2.893524169921875,-1.016845703125,1,2.0,1.0,1.0,2.0,75.00
2021-04-28 12:01:20.438,1.4464307,0.4645923,0.2492835,1.1226704,0.38310468,0.26276037,0.22216138,0.45820135,0.28411707,0.62083995,0.11115544,0.35934412,0.14662766,-0.25592583,-0.17203926,-0.12627979,-0.41728905,-0.6636164,-0.2842779,-0.07701852,812.71063,802.6374,802.23444,803.0403,670.87915,-0.07452392578125,0.11602783203125,0.99462890625,10.00396728515625,-11.544189453125,-0.67291259765625,1,2.0,1.0,1.0,2.0,75.00
2021-04-28 12:01:20.958,1.4464307,0.13211268,0.19883457,1.1226704,0.38310468,-0.23351727,-0.14514396,0.45820135,0.28411707,0.21402065,-0.1602678,0.35934412,0.14662766,-0.20814429,-0.11133324,-0.12627979,-0.41728905,-0.66862947,-0.33097824,-0.07701852,812.71063,799.81683,798.60803,810.293,709.15753,0.06634521484375,0.12969970703125,1.00164794921875,5.405731201171875,-4.127197265625,2.818756103515625,1,2.0,1.0,1.0,2.0,80.00
2021-04-28 12:01:21.484,0.8232819,0.09814663,0.18373924,0.85208976,0.16404097,-0.21269138,-0.24440306,0.13954756,0.27572596,0.17953856,-0.19302538,0.31217417,0.17577912,-0.1745047,-0.05752673,0.15078118,-0.29881093,-0.66156876,-0.47934538,-0.4955379,803.0403,781.28204,834.4689,815.5311,704.3223,-0.043701171875,0.12713623046875,0.993408203125,1.9140625,6.59454345703125,6.57958984375,1,1.0,1.0,1.0,1.0,80.00
2021-04-28 12:01:21.992,0.6325222,0.41032654,0.48930535,0.71714395,0.020588338,0.11011942,0.08348656,0.06796076,0.27572596,0.18899333,0.2225071,0.3650189,0.12169949,-0.19519885,-0.10944586,0.07176213,-0.3068682,-0.6327834,-0.47872683,-0.46143472,772.8205,807.0696,816.7399,780.07324,816.7399,-0.11370849609375,0.07183837890625,0.99139404296875,1.80938720703125,-3.46923828125,-0.396270751953125,1,1.0,1.0,1.0,1.0,80.00
2021-04-28 12:01:22.523,0.6325222,0.6621805,0.7955011,0.60907,0.020588338,0.34704795,0.34717157,0.03621049,0.27572596,0.24238151,0.25785688,0.3443337,0.12169949,-0.17590982,-0.019911444,0.019594219,-0.3068682,-0.6815566,-0.4640085,-0.46724233,802.6374,802.6374,802.23444,815.9341,917.8755,-0.0797119140625,0.08050537109375,0.9898681640625,2.51220703125,-2.64678955078125,6.1907958984375,1,1.0,1.0,1.0,1.0,80.00
2021-04-28 12:01:23.025,0.2842576,0.73582584,0.95855606,0.33721665,-0.19508114,0.39170277,0.42053545,-0.078777425,0.045280468,0.35706586,0.24812385,0.2792057,0.059914898,-0.06448491,0.06903205,-0.09527135,-0.31507778,-0.6666549,-0.44229156,-0.41189328,813.91943,801.4286,803.0403,796.99634,810.293,-0.09356689453125,0.07257080078125,1.0067138671875,2.205657958984375,-3.529052734375,3.955230712890625,1,1.0,1.0,1.0,1.0,80.00
2021-04-28 12:01:23.533,0.15538846,1.2349147,0.87733686,0.25878805,-0.29131073,1.0660608,0.30893496,-0.078489594,-0.06915325,1.2284272,0.25349867,0.25664106,0.054541845,0.07304927,0.06818656,-0.14122108,-0.31925127,-0.6279657,-0.4484938,-0.37640348,878.7912,803.8461,792.96704,878.7912,860.2564,-0.1011962890625,0.04364013671875,0.9940185546875,2.564544677734375,-6.482391357421875,3.48419189453125,1,1.0,1.0,1.0,1.0,80.00
2021-04-28 12:01:24.044,0.15538846,1.3573593,0.8529242,0.25878805,-0.29131073,1.2128109,0.3299398,-0.078489594,-0.06915325,1.2284272,0.5722847,0.25664106,0.054541845,0.16039455,0.04688765,-0.14122108,-0.31925127,-0.5606764,-0.4522487,-0.37640348,811.9048,807.8755,801.8315,818.7546,797.3993,-0.05535888671875,-0.021728515625,0.987060546875,0.897216796875,-4.53094482421875,6.80389404296875,1,1.0,1.0,1.0,1.0,80.00
2021-04-28 12:01:24.561,0.15538846,1.5354574,0.9147651,0.25878805,-0.29131073,1.3404409,0.64895934,-0.078489594,-0.06915325,1.2284272,0.7085282,0.25664106,0.054541845,0.083512366,0.062383715,-0.14122108,-0.31925127,-0.5963881,-0.460395,-0.37640348,780.07324,802.6374,807.0696,784.90845,595.5311,0.00146484375,0.0347900390625,1.01226806640625,7.28240966796875,-19.3798828125,-3.327178955078125,1,1.0,1.0,1.0,1.0,80.00
2021-04-28 12:01:25.072,0.15538846,1.1777778,0.9809775,0.25878805,-0.29131073,0.8264839,0.7297859,-0.078489594,-0.06915325,0.8451089,0.7085282,0.25664106,0.054541845,-0.14443138,0.0729201,-0.14122108,-0.31925127,-0.5797992,-0.47796914,-0.37640348,852.1978,819.5604,807.47253,854.61536,888.46155,-0.05303955078125,0.04742431640625,0.98846435546875,12.51617431640625,2.43743896484375,-11.484375,1,2.0,1.0,1.0,2.0,80.00
2021-04-28 12:01:25.586,0.15538846,1.0761629,0.8890259,0.25878805,-0.29131073,0.69075334,0.72464794,-0.078489594,-0.06915325,0.83315164,0.6901752,0.25664106,0.054541845,-0.12184831,0.043923784,-0.14122108,-0.31925127,-0.5446197,-0.46423957,-0.37640348,800.6227,802.6374,811.50183,804.2491,804.65204,-0.030517578125,0.1029052734375,0.985107421875,1.981353759765625,14.1162109375,-0.142059326171875,1,2.0,1.0,1.0,2.0,80.00
2021-04-28 12:01:26.100,0.15538846,0.55852675,0.47322524,0.25878805,-0.29131073,0.044729862,0.25765806,-0.078489594,-0.06915325,0.06510802,0.20584284,0.25664106,0.054541845,-0.06870347,-0.107144095,-0.14122108,-0.31925127,-0.4141782,-0.4277054,-0.37640348,796.5934,806.6667,808.2784,792.1612,722.8571,0.0079345703125,0.1300048828125,1.022705078125,3.790740966796875,-3.45428466796875,1.158905029296875,1,2.0,1.0,1.0,2.0,80.00
2021-04-28 12:01:26.608,0.15538846,0.35366434,0.18636739,0.25878805,-0.29131073,-0.06782138,-0.38085055,-0.078489594,-0.06915325,0.14117342,-0.14185402,0.25664106,0.054541845,-0.0086452095,-0.11135927,-0.14122108,-0.31925127,-0.3583843,-0.47668377,-0.37640348,798.20514,802.6374,804.2491,795.38464,863.0769,-0.09478759765625,0.1103515625,0.9873046875,7.76092529296875,-19.821014404296875,0.31402587890625,1,2.0,1.0,1.0,2.0,80.00
2021-04-28 12:01:27.117,0.15538846,0.27571344,0.067124665,1.3482137,-0.29131073,-0.14854762,-0.32783118,-0.011058833,-0.06915325,0.14582603,-0.09153156,0.40009424,0.054541845,-0.031947166,-0.119377665,0.11827724,-0.31925127,-0.39219368,-0.537066,-0.46372697,799.011,809.0842,806.6667,800.6227,778.86444,-0.05560302734375,0.11651611328125,0.992431640625,3.970184326171875,1.98883056640625,7.274932861328125,1,2.0,1.0,1.0,2.0,80.00
2021-04-28 12:01:27.619,0.15538846,0.4968927,0.0903824,1.3320147,-0.29131073,-0.25027928,-0.2666824,0.046549417,-0.06915325,0.11710545,-0.11297154,0.4064472,0.054541845,-0.093838915,-0.1329744,0.1148968,-0.31925127,-0.45680302,-0.5778684,-0.4355843,801.02563,799.011,800.2198,807.8755,679.7436,0.03411865234375,0.1280517578125,1.00421142578125,0.500946044921875,2.8411865234375,6.527252197265625,1,1.0,1.0,1.0,1.0,80.00
2021-04-28 12:01:28.122,0.15538846,0.9878971,-0.013250661,1.3141713,-0.29131073,0.03370927,-0.13758789,0.072502054,-0.06915325,0.054434247,-0.35366008,0.39809048,0.054541845,-0.16797999,-0.15496123,0.043946944,-0.31925127,-0.5358148,-0.68233234,-0.4569171,799.81683,822.7839,795.78754,776.8498,730.9158,-0.09051513671875,0.08819580078125,1.0057373046875,4.71038818359375,-11.895599365234375,1.173858642578125,1,1.0,1.0,1.0,1.0,80.00
2021-04-28 12:01:28.632,0.15538846,1.0435377,0.52400166,1.3141713,-0.29131073,0.1429552,0.35352114,0.072502054,-0.06915325,0.007845743,0.007284751,0.39809048,0.054541845,-0.100280926,0.021011682,0.043946944,-0.31925127,-0.55046004,-0.5458776,-0.4569171,836.8865,802.6374,813.91943,835.6777,890.4762,-0.13275146484375,0.0775146484375,0.98651123046875,5.256195068359375,-8.194580078125,0.695343017578125,1,1.0,1.0,1.0,1.0,80.00
2021-04-28 12:01:29.145,0.15538846,1.0191516,0.7076248,1.3141713,-0.29131073,0.33257827,0.3064811,0.072502054,-0.06915325,0.31946078,0.14061031,0.39809048,0.054541845,-0.06100365,-0.044707768,0.043946944,-0.31925127,-0.57154113,-0.62147814,-0.4569171,783.69965,805.05493,794.17584,782.0879,809.0842,-0.1160888671875,0.09002685546875,0.980224609375,4.299163818359375,5.30853271484375,2.58697509765625,1,1.0,1.0,1.0,1.0,80.00
2021-04-28 12:01:29.649,1.7275927,0.7158425,0.66660196,1.886166,0.8338185,0.43415725,0.24550986,1.1431621,0.6495067,0.43171877,0.21187903,0.6597907,0.44180557,0.0063212737,-0.071783416,0.48636127,-0.15203957,-0.5839089,-0.5931833,-0.31541654,804.65204,788.93774,809.0842,809.4872,799.41394,-0.009521484375,0.10198974609375,1.0103759765625,3.529052734375,2.49725341796875,4.97955322265625,1,1.0,1.0,1.0,1.0,80.00
2021-04-28 12:01:30.163,1.7032613,0.6903094,0.58146536,1.8360113,0.7064113,0.46334904,0.14224023,1.0422937,0.6724174,0.46304446,0.2321088,0.68687695,0.35212472,-0.06758933,-0.10876169,0.3697139,-0.19824286,-0.5089117,-0.60575205,-0.3088261,722.4542,817.1429,801.4286,719.6337,784.5055,-0.05517578125,0.11688232421875,1.00408935546875,7.873077392578125,-13.316192626953125,-0.46356201171875,1,1.0,1.0,1.0,1.0,80.00
2021-04-28 12:01:30.694,1.7415086,0.6127945,0.33621025,1.8360113,0.69618076,0.37256587,0.072982445,1.0422937,0.6659523,0.46304446,0.19496316,0.68687695,0.3270358,-0.18617389,-0.18419456,0.3697139,-0.20681985,-0.49182102,-0.48963717,-0.3088261,808.2784,803.8461,810.293,822.381,690.6227,-0.19622802734375,0.09210205078125,0.9683837890625,4.897308349609375,-10.3179931640625,1.547698974609375,1,1.0,1.0,1.0,1.0,80.00
2021-04-28 12:01:31.218,1.6509317,0.6687198,0.15559207,1.7427068,0.4351034,0.38466874,0.06511951,0.83740044,0.4242421,0.29865783,0.16210924,0.53947884,0.195463,-0.24374875,0.01376116,0.20056328,-0.2601567,-0.49163285,-0.4067591,-0.3187452,805.05493,800.2198,791.3553,798.60803,703.1135,-0.11761474609375,0.11163330078125,0.9754638671875,0.37384033203125,8.321685791015625,1.734619140625,1,1.0,1.0,1.0,1.0,75.00
2021-04-28 12:01:31.746,1.6509317,0.6363202,0.3383318,1.7427068,0.4351034,0.3910213,0.017625134,0.83740044,0.4242421,0.28304318,-0.019584103,0.53947884,0.195463,-0.15623395,0.13593572,0.20056328,-0.2601567,-0.45495367,-0.35642976,-0.3187452,801.4286,806.26373,805.05493,803.8461,802.6374,-0.06341552734375,0.08428955078125,1.013427734375,3.536529541015625,0.79254150390625,0.785064697265625,1,1.0,1.0,1.0,1.0,75.00
2021-04-28 12:01:32.272,1.6509317,0.51510227,0.42943853,1.7427068,0.4351034,0.3939951,-0.07291725,0.83740044,0.4242421,0.27525514,-0.029883446,0.53947884,0.195463,-0.052639548,0.14273022,0.20056328,-0.2601567,-0.38308677,-0.39273503,-0.3187452,817.1429,802.23444,794.9817,809.89014,664.43225,-0.0841064453125,0.08953857421875,0.999755859375,7.170257568359375,-16.007843017578125,4.000091552734375,1,1.0,1.0,1.0,1.0,75.00
2021-04-28 12:01:32.774,1.6509317,0.32292137,0.38040808,1.7427068,0.4351034,0.2561603,-0.14879769,0.83740044,0.4242421,0.24770887,0.016729401,0.53947884,0.195463,-0.0654085,0.052704655,0.20056328,-0.2601567,-0.3795458,-0.48155534,-0.3187452,741.39197,805.8608,811.50183,752.674,752.674,-0.116943359375,0.1094970703125,1.005615234375,1.21124267578125,-6.048736572265625,0.5084228515625,1,2.0,1.0,1.0,2.0,75.00
2021-04-28 12:01:33.282,1.6509317,0.87932956,0.8171612,1.7427068,0.4351034,0.46638852,0.06537429,0.83740044,0.4242421,0.34712687,0.25416502,0.53947884,0.195463,-0.07238237,0.016356116,0.20056328,-0.2601567,-0.45130056,-0.60203356,-0.3187452,824.7985,804.65204,803.8461,820.7692,661.6117,-0.160888671875,0.0911865234375,0.97314453125,5.435638427734375,-10.6768798828125,0.58319091796875,1,2.0,1.0,1.0,2.0,75.00
2021-04-28 12:01:33.792,1.6509317,1.0790949,1.0347675,1.7427068,0.4351034,0.59031206,0.17679892,0.83740044,0.4242421,0.27812773,0.26037598,0.53947884,0.195463,-0.061950445,0.06749121,0.20056328,-0.2601567,-0.51046586,-0.68527436,-0.3187452,816.7399,814.3223,794.9817,814.7253,814.7253,-0.14520263671875,0.0977783203125,0.99163818359375,4.867401123046875,-0.85235595703125,0.082244873046875,1,2.0,1.0,1.0,2.0,75.00
2021-04-28 12:01:34.293,1.6509317,1.1602364,1.1177894,1.7427068,0.4351034,0.6202315,0.45049202,0.83740044,0.4242421,0.36263362,0.6091454,0.53947884,0.195463,-0.013931305,0.08269404,0.20056328,-0.2601567,-0.504372,-0.6094075,-0.3187452,818.7546,803.8461,805.4579,820.7692,862.674,-0.12579345703125,0.1170654296875,1.01251220703125,5.570220947265625,-4.000091552734375,8.531036376953125,1,2.0,1.0,1.0,2.0,75.00
2021-04-28 12:01:34.821,1.6509317,1.061489,1.106462,1.7427068,0.4351034,0.4716227,0.50982773,0.83740044,0.4242421,0.5418823,0.6091454,0.53947884,0.195463,0.09949579,0.049437985,0.20056328,-0.2601567,-0.5252865,-0.5659246,-0.3187452,787.326,807.8755,791.75824,774.0293,682.96704,-0.07757568359375,0.12542724609375,1.0040283203125,6.811370849609375,-7.29736328125,-5.38330078125,1,2.0,1.0,1.0,2.0,75.00
2021-04-28 12:01:35.341,1.6509317,0.85417217,0.8487473,1.7427068,0.4351034,0.30806178,0.46563518,0.83740044,0.4242421,0.51743424,0.6091454,0.53947884,0.195463,0.095979065,0.024894467,0.20056328,-0.2601567,-0.5730929,-0.5114452,-0.3187452,801.8315,796.5934,802.23444,807.0696,807.47253,-0.06719970703125,0.15087890625,0.99261474609375,4.91973876953125,-9.308624267578125,-3.42437744140625,1,2.0,1.0,1.0,2.0,75.00
2021-04-28 12:01:35.874,1.6509317,0.6453623,0.6124487,1.7427068,0.4351034,0.25258645,0.13973315,0.83740044,0.4242421,0.52067924,0.26895812,0.53947884,0.195463,0.08927401,-0.008449658,0.20056328,-0.2601567,-0.6531249,-0.4436337,-0.3187452,788.5348,793.36993,810.293,797.3993,730.10986,-0.0552978515625,0.12872314453125,0.9716796875,1.86920166015625,-4.314117431640625,4.94964599609375,1,2.0,1.0,1.0,2.0,75.00
2021-04-28 12:01:36.381,1.6509317,0.32342765,0.34947473,1.7427068,0.4351034,0.28525057,0.055268846,0.83740044,0.4242421,0.4433945,0.2895834,0.53947884,0.195463,0.01390701,4.176935E-4,0.20056328,-0.2601567,-0.63854825,-0.37632847,-0.3187452,838.9011,813.1135,811.0989,843.73627,734.1392,-0.1446533203125,0.057373046875,0.9793701171875,3.192596435546875,-0.52337646484375,8.68804931640625,1,2.0,1.0,1.0,2.0,75.00
2021-04-28 12:01:36.888,1.6012468,0.27304882,0.1888122,1.5916919,1.1334958,0.21211505,0.11089659,1.0837816,0.08237751,0.45227575,0.28697085,0.33221397,0.21599214,-0.0605136,-0.017573813,0.19289888,-0.41200492,-0.5445169,-0.28134236,-0.33973733,846.9597,814.3223,803.8461,837.6923,802.23444,-0.137939453125,0.02685546875,1.00640869140625,4.044952392578125,-4.6356201171875,4.77020263671875,1,1.0,1.0,1.0,1.0,75.00
2021-04-28 12:01:37.421,1.5046345,0.2750775,0.15184875,1.5539286,0.9854656,0.08696025,0.11568569,1.0212865,0.29128486,0.45227575,0.22429013,0.33587003,0.13765936,-0.1518868,-0.09037758,0.18611404,-0.45544264,-0.517507,-0.2914987,-0.34419954,846.9597,811.50183,802.6374,851.79486,716.4103,-0.09991455078125,0.0611572265625,0.99658203125,11.940460205078125,-11.2451171875,-9.203948974609375,1,1.0,1.0,1.0,1.0,75.00
2021-04-28 12:01:37.927,1.5046345,0.33143649,1.2887639,1.5539286,0.9854656,-0.23673779,0.68264663,1.0212865,0.29128486,0.27162555,0.6686158,0.33587003,0.13765936,-0.33031523,-0.1770088,0.18611404,-0.45544264,-0.5489577,-0.3786117,-0.34419954,809.89014,803.44324,803.8461,803.8461,726.4835,-0.07373046875,0.1014404296875,0.99481201171875,7.91046142578125,-10.295562744140625,6.02630615234375,1,1.0,1.0,1.0,1.0,75.00
2021-04-28 12:01:38.437,1.4209683,0.53327984,1.4972514,1.5514419,0.7657236,-0.39742532,0.85776263,0.9128337,0.2775889,-0.20387731,0.65799475,0.29867232,0.052179053,-0.35360932,-0.23671868,0.18086195,-0.51522166,-0.6516642,-0.47532734,-0.3877039,769.19415,811.9048,810.293,779.2674,810.696,-0.042236328125,0.11956787109375,1.0001220703125,6.437530517578125,-3.790740966796875,7.469329833984375,1,1.0,1.0,1.0,1.0,75.00
2021-04-28 12:01:38.939,1.4209683,1.081326,1.7745411,1.5514419,0.7657236,0.29156238,1.1069143,0.9128337,0.2775889,0.0278125,0.6526081,0.29867232,0.052179053,-0.24344276,-0.19965109,0.18086195,-0.51522166,-0.6815,-0.55152935,-0.3877039,884.0293,812.71063,788.1319,878.3883,702.71063,-0.065185546875,0.1092529296875,0.982421875,6.990814208984375,-7.574005126953125,-3.327178955078125,1,1.0,1.0,1.0,1.0,75.00
2021-04-28 12:01:39.454,1.4209683,0.983765,1.1957633,1.5514419,0.7657236,0.3499636,0.502489,0.9128337,0.2775889,0.2903526,0.17605075,0.29867232,0.052179053,0.007661871,-0.19966869,0.18086195,-0.51522166,-0.63164425,-0.40245715,-0.3877039,801.02563,807.0696,801.8315,810.293,717.2161,-0.0234375,0.21173095703125,0.99005126953125,8.01513671875,-5.75714111328125,1.2261962890625,1,1.0,1.0,1.0,1.0,75.00
2021-04-28 12:01:39.975,1.4209683,1.2147616,1.2350608,1.5514419,0.7657236,0.92359376,0.67669857,0.9128337,0.2775889,0.9916667,0.7326165,0.29867232,0.052179053,0.0278009,0.17276548,0.18086195,-0.51522166,-0.63660073,-0.44142318,-0.3877039,797.3993,805.05493,802.23444,796.5934,958.97437,-0.0159912109375,0.19769287109375,0.975341796875,7.177734375,-4.32159423828125,4.08233642578125,1,2.0,1.0,1.0,2.0,75.00
2021-04-28 12:01:40.495,1.4209683,1.0273697,1.0288295,1.5514419,0.7657236,0.79846174,0.48560917,0.9128337,0.2775889,0.9916667,0.7326165,0.29867232,0.052179053,0.026322432,0.08448964,0.18086195,-0.51522166,-0.6004056,-0.52182436,-0.3877039,816.7399,805.8608,805.8608,813.91943,740.18317,-0.1044921875,0.1556396484375,0.98345947265625,0.55328369140625,2.325286865234375,3.529052734375,1,2.0,1.0,1.0,2.0,75.00
2021-04-28 12:01:41.004,0.10446473,0.96627927,0.89955294,0.04851618,0.29107514,0.7740402,0.44462726,0.10191973,0.30067968,0.9916667,0.7326165,0.23843093,0.33736566,0.053853236,0.02168579,0.18736698,-0.33431327,-0.5990727,-0.6334278,-0.18285717,823.9927,805.05493,799.81683,819.9634,774.0293,-0.1485595703125,0.05731201171875,0.9903564453125,-1.016845703125,-4.0673828125,-10.878753662109375,1,1.0,1.0,1.0,1.0,75.00
2021-04-28 12:01:41.512,0.10446473,0.28082323,0.009779037,0.04851618,0.29107514,-0.0058577387,-0.10864574,0.10191973,0.30067968,0.37624153,0.19745013,0.23843093,0.33736566,-0.0067103887,-0.259118,0.18736698,-0.33431327,-0.6163425,-0.6917126,-0.18285717,801.8315,799.011,812.3077,807.8755,753.47986,-0.146240234375,0.089599609375,0.995849609375,8.65814208984375,-3.147735595703125,-15.38726806640625,1,1.0,1.0,1.0,1.0,75.00
2021-04-28 12:01:42.023,0.10446473,0.38752985,-0.02160143,0.04851618,0.29107514,0.014254849,0.033456236,0.10191973,0.30067968,0.33410338,0.0570932,0.23843093,0.33736566,-0.07655033,-0.24041927,0.18736698,-0.33431327,-0.63558155,-0.71406835,-0.18285717,791.3553,803.44324,803.0403,788.1319,701.50183,-0.1578369140625,0.08447265625,0.97869873046875,1.712188720703125,-9.79461669921875,15.56671142578125,1,1.0,1.0,1.0,1.0,75.00
2021-04-28 12:01:42.546,0.10446473,0.87388045,0.5629097,0.04851618,0.29107514,0.5519658,0.4264944,0.10191973,0.30067968,0.54788566,0.22451119,0.23843093,0.33736566,-0.189506,-0.05056941,0.18736698,-0.33431327,-0.64610296,-0.58612865,-0.18285717,795.78754,803.8461,798.20514,792.96704,772.4176,-0.1341552734375,0.06414794921875,0.999755859375,-2.87109375,-7.835693359375,21.555633544921875,1,1.0,1.0,1.0,1.0,75.00
2021-04-28 12:01:43.059,0.10446473,0.8420523,0.54711014,0.04851618,0.29107514,0.53769416,0.40205604,0.10191973,0.30067968,0.54788566,0.37327224,0.23843093,0.33736566,-0.14113685,0.010736387,0.18736698,-0.33431327,-0.5477962,-0.4118482,-0.18285717,821.1722,817.5458,803.8461,811.9048,704.7253,-0.13031005859375,0.0244140625,0.9989013671875,5.555267333984375,-4.94964599609375,15.290069580078125,1,1.0,1.0,1.0,1.0,75.00
2021-04-28 12:01:43.560,0.2721902,0.771504,0.49940732,0.026699938,0.7805499,0.50742275,0.32927474,0.64795166,0.53446984,0.54788566,0.37584215,0.13837604,-0.0017471823,-0.040275287,-0.051170614,0.21695329,-0.42580137,-0.5597378,-0.39295572,-0.46136302,773.6264,797.8022,807.0696,774.83514,684.9817,-0.11279296875,0.0489501953125,1.00408935546875,4.673004150390625,-0.695343017578125,-2.908477783203125,1,1.0,1.0,1.0,1.0,75.00
2021-04-28 12:01:44.064,0.4830681,0.14871754,-0.21620502,0.29961902,0.798743,0.06681257,-0.38045353,0.61815757,0.57498485,0.33397,0.2266513,0.4707604,0.057334837,0.027458081,-0.11212294,0.22731015,-0.2908203,-0.5758242,-0.47066593,-0.17430514,805.4579,798.20514,807.0696,799.41394,848.5714,-0.12310791015625,0.03656005859375,0.9912109375,4.80010986328125,-2.340240478515625,0.590667724609375,1,1.0,1.0,1.0,1.0,75.00
2021-04-28 12:01:44.577,0.7997913,0.09955664,-0.2660912,0.8538481,0.81779027,0.17877658,-0.37560514,0.6248106,0.46953374,0.23644984,-0.06942893,0.5909453,0.0995844,-0.02903035,0.015969703,0.24856208,-0.13835011,-0.6640712,-0.6192999,0.07757797,810.293,812.3077,807.8755,813.91943,680.54944,-0.11492919921875,0.0472412109375,0.9951171875,5.495452880859375,-4.972076416015625,-3.1103515625,1,1.0,1.0,1.0,1.0,75.00
2021-04-28 12:01:45.096,0.8714022,0.08145489,-0.15848869,0.90280706,0.795861,0.19531499,-0.37346098,0.53795004,0.56056124,0.2159822,0.16234063,0.59761035,0.10168969,-0.058789723,0.0848337,0.23795775,-0.14038326,-0.58047247,-0.5522462,0.0816543,798.60803,798.20514,805.4579,796.1905,670.87915,-0.06982421875,0.095703125,0.9986572265625,7.259979248046875,-8.082427978515625,-1.128997802734375,1,1.0,1.0,1.0,1.0,75.00
2021-04-28 12:01:45.598,1.1057696,0.17387474,-0.010604661,1.0050386,0.87549615,0.43462464,-0.21807739,0.48057473,0.7420083,0.20852178,0.41179106,0.6169084,0.09832024,-0.05180317,0.09524375,0.32310128,-0.18742493,-0.4775088,-0.49491072,0.037332907,693.44324,809.89014,816.337,673.69965,767.98535,-0.08978271484375,0.05242919921875,0.99310302734375,2.73651123046875,-5.016937255859375,2.01873779296875,1,1.0,1.0,1.0,1.0,75.00
2021-04-28 12:01:46.109,1.1177557,0.33455786,0.31605697,0.8302658,0.8963853,0.47060093,0.054811817,0.408774,0.7278984,0.1915696,0.41179106,0.42284006,0.026687033,-0.04189834,0.04912874,0.3470434,-0.4115956,-0.43002737,-0.50759226,-0.289933,799.41394,803.44324,806.6667,805.05493,708.3516,-0.1090087890625,0.0491943359375,0.99334716796875,4.762725830078125,2.235565185546875,3.90289306640625,1,1.0,1.0,1.0,1.0,75.00
2021-04-28 12:01:46.644,1.3486772,0.37992898,0.39879677,0.96918344,1.044977,0.48232862,0.08397708,0.37823015,0.7278984,0.2105293,0.41179106,0.18117683,0.111928776,-0.114366844,0.009262516,0.4840318,-0.39363948,-0.3874304,-0.5192194,-0.2140347,797.8022,802.6374,801.4286,808.68134,830.0366,-0.0789794921875,0.05224609375,0.99761962890625,4.882354736328125,-0.231781005859375,-0.04486083984375,1,1.0,1.0,1.0,1.0,75.00
2021-04-28 12:01:47.156,1.3486772,0.32942268,0.3979046,0.96918344,1.044977,0.2419956,0.010486967,0.37823015,0.7278984,0.06968016,0.014993722,0.18117683,0.111928776,-0.15389818,0.0682848,0.4840318,-0.39363948,-0.37332776,-0.4720489,-0.2140347,762.74725,793.7729,811.0989,762.3443,680.54944,-0.110107421875,0.05438232421875,1.005859375,3.75335693359375,-10.534820556640625,-4.059906005859375,1,1.0,1.0,1.0,1.0,75.00
2021-04-28 12:01:47.671,1.3486772,0.60589534,0.5709697,0.96918344,1.044977,0.1344211,-0.16292766,0.37823015,0.7278984,-0.09649755,0.1019755,0.18117683,0.111928776,-0.15163153,0.09627701,0.4840318,-0.39363948,-0.32892054,-0.39763623,-0.2140347,902.5641,801.8315,788.5348,898.1319,748.6447,-0.07373046875,0.06890869140625,0.99072265625,11.6339111328125,-13.20404052734375,-21.779937744140625,1,1.0,1.0,1.0,1.0,75.00
2021-04-28 12:01:48.189,1.3486772,0.7648112,0.7067483,0.96918344,1.044977,0.092801414,-0.03928865,0.37823015,0.7278984,-0.20127758,0.1019755,0.18117683,0.111928776,-0.08438218,0.11803403,0.4840318,-0.39363948,-0.31020725,-0.40697643,-0.2140347,803.0403,803.44324,801.4286,801.4286,830.84247,-0.12109375,0.09027099609375,0.9859619140625,5.719757080078125,-5.81695556640625,3.21502685546875,1,2.0,1.0,1.0,2.0,75.00
2021-04-28 12:01:48.714,1.3486772,0.9427416,0.9421979,0.96918344,1.044977,-0.0055407025,0.18410228,0.37823015,0.7278984,-0.20914781,0.10048883,0.18117683,0.111928776,-0.22492515,0.012742822,0.4840318,-0.39363948,-0.27183315,-0.42366004,-0.2140347,774.83514,801.8315,806.6667,788.5348,772.4176,-0.04766845703125,0.1455078125,0.99517822265625,3.48419189453125,2.572021484375,5.18890380859375,1,2.0,1.0,1.0,2.0,75.00
2021-04-28 12:01:49.222,1.3486772,0.9427416,0.9421979,0.96918344,1.044977,-0.0055407025,0.18410228,0.37823015,0.7278984,-0.20914781,0.10048883,0.18117683,0.111928776,-0.22492515,0.012742822,0.4840318,-0.39363948,-0.27183315,-0.42366004,-0.2140347,792.1612,807.47253,799.81683,795.38464,656.77655,-0.09765625,0.0843505859375,1.00445556640625,-0.897216796875,-2.280426025390625,0.246734619140625,1,2.0,1.0,1.0,2.0,75.00
2021-04-28 12:01:49.752,1.3486772,0.7283856,0.9421979,0.96918344,1.044977,0.16088642,0.18410228,0.37823015,0.7278984,-0.02349422,0.10048883,0.18117683,0.111928776,0.16323112,0.012742822,0.4840318,-0.39363948,-0.42135876,-0.42366004,-0.2140347,782.49084,807.0696,800.6227,787.326,1005.31134,-0.16015625,0.058349609375,0.98046875,5.48797607421875,-12.00775146484375,4.74029541015625,1,2.0,1.0,1.0,2.0,75.00
2021-04-28 12:01:50.256,1.3486772,0.66449046,0.7489404,0.96918344,1.044977,0.3041134,0.09260344,0.37823015,0.7278984,0.085075065,0.2962302,0.18117683,0.111928776,0.105793156,0.024118375,0.4840318,-0.39363948,-0.48843294,-0.6208904,-0.2140347,833.663,807.8755,805.05493,828.4249,734.1392,-0.20465087890625,0.05157470703125,0.9700927734375,2.0037841796875,-8.03009033203125,10.146026611328125,1,2.0,1.0,1.0,2.0,75.00
2021-04-28 12:01:50.784,1.3486772,0.7459524,0.843073,0.96918344,1.044977,0.31667957,0.2196821,0.37823015,0.7278984,0.1521778,0.2962302,0.18117683,0.111928776,0.031809032,-0.057662953,0.4840318,-0.39363948,-0.5622244,-0.6393005,-0.2140347,819.15753,816.337,788.93774,808.2784,728.49817,-0.13958740234375,0.0806884765625,0.982421875,5.031890869140625,15.215301513671875,6.183319091796875,1,2.0,1.0,1.0,2.0,75.00
2021-04-28 12:01:51.287,1.3486772,0.6217848,0.7749209,1.4664038,1.044977,0.24811482,0.14060701,0.32117116,0.7278984,0.12876149,0.28924325,0.4420096,0.111928776,-0.081069104,0.019518021,0.46108553,-0.39363948,-0.5824837,-0.5671181,-0.20888753,766.3736,794.57874,804.65204,761.53845,707.1429,-0.08447265625,0.08154296875,0.9996337890625,4.3963623046875,1.55517578125,-6.59454345703125,1,1.0,1.0,1.0,1.0,75.00
2021-04-28 12:01:51.788,1.3486772,0.55627906,0.81113577,1.4664038,1.044977,0.1254688,0.13749604,0.32117116,0.7278984,0.14652963,0.041839723,0.4420096,0.111928776,-0.14201997,0.035532184,0.46108553,-0.39363948,-0.497936,-0.4826172,-0.20888753,765.16486,807.0696,813.1135,759.5238,730.9158,-0.06976318359375,0.0987548828125,1.02410888671875,5.1739501953125,-14.07135009765625,-3.0804443359375,1,1.0,1.0,1.0,1.0,75.00
2021-04-28 12:01:52.295,1.3486772,0.6218011,0.82113796,1.4664038,1.044977,0.06243208,0.1841,0.32117116,0.7278984,0.15510216,0.08187262,0.4420096,0.111928776,-0.13783777,0.06963405,0.46108553,-0.39363948,-0.4249927,-0.38845965,-0.20888753,834.4689,806.26373,806.6667,825.6044,841.7216,-0.1802978515625,0.0899658203125,0.98260498046875,4.987030029296875,-17.5555419921875,-0.231781005859375,1,1.0,1.0,1.0,1.0,75.00
2021-04-28 12:01:52.822,1.3486772,0.92145085,0.8806411,1.4664038,1.044977,0.24515729,0.2216561,0.32117116,0.7278984,0.19319141,0.052159607,0.4420096,0.111928776,-0.08295123,0.015237719,0.46108553,-0.39363948,-0.44389528,-0.36921778,-0.20888753,859.0476,807.0696,809.89014,857.4359,667.6557,-0.21795654296875,0.08538818359375,0.98046875,5.226287841796875,1.12152099609375,0.874786376953125,1,1.0,1.0,1.0,1.0,75.00
2021-04-28 12:01:53.348,1.3486772,1.0667889,0.7300717,1.4664038,1.044977,0.5824275,0.2612411,0.32117116,0.7278984,0.7039161,0.029775944,0.4420096,0.111928776,0.43503642,-0.051658478,0.46108553,-0.39363948,-0.1767841,-0.34247163,-0.20888753,794.17584,799.81683,801.4286,796.5934,634.21246,-0.0816650390625,0.07025146484375,0.9945068359375,7.020721435546875,8.41888427734375,0.112152099609375,1,2.0,1.0,1.0,2.0,75.00
2021-04-28 12:01:53.864,1.3486772,0.9887951,0.28327075,1.4664038,1.044977,0.6835467,0.058397826,0.32117116,0.7278984,0.7039161,-0.12200162,0.4420096,0.111928776,0.5174424,-0.17418106,0.46108553,-0.39363948,-0.12831083,-0.42587027,-0.20888753,823.1868,786.52014,788.93774,828.4249,626.55676,-0.22119140625,0.088623046875,0.9515380859375,-11.2152099609375,-2.729034423828125,21.630401611328125,1,2.0,1.0,1.0,2.0,75.00
2021-04-28 12:01:54.379,1.3486772,0.97519827,0.36220145,1.4664038,1.044977,0.80727446,0.11469725,0.32117116,0.7278984,0.7039161,-0.1834038,0.4420096,0.111928776,0.6399907,-0.20025946,0.46108553,-0.39363948,-0.021612128,-0.3814893,-0.20888753,801.02563,800.6227,804.65204,798.60803,740.18317,-0.16998291015625,0.058837890625,1.00982666015625,-0.79254150390625,5.630035400390625,-2.34771728515625,1,2.0,1.0,1.0,2.0,75.00
2021-04-28 12:01:54.885,1.3486772,0.520235,0.77429444,1.4664038,1.044977,0.48508587,0.3021337,0.32117116,0.7278984,0.23926535,0.30678675,0.4420096,0.111928776,0.11761067,-0.22803204,0.46108553,-0.39363948,-0.3966663,-0.38189417,-0.20888753,831.2454,805.4579,806.6667,824.3956,915.05493,-0.165771484375,0.09527587890625,0.984619140625,8.68804931640625,-9.091796875,4.074859619140625,1,2.0,1.0,1.0,2.0,75.00
2021-04-28 12:01:55.394,1.3486772,0.9699433,1.0558143,1.4664038,1.044977,0.56734264,0.5420694,0.32117116,0.7278984,0.3994715,0.34457752,0.4420096,0.111928776,0.07313371,-0.1810712,0.46108553,-0.39363948,-0.5925079,-0.2711058,-0.20888753,821.978,809.0842,810.696,832.4542,693.44324,-0.1761474609375,0.08978271484375,0.98388671875,2.071075439453125,-4.164581298828125,3.386993408203125,1,2.0,1.0,1.0,2.0,75.00
2021-04-28 12:01:55.898,1.3486772,1.1612864,1.1084955,1.4664038,1.044977,0.73197323,0.60663116,0.32117116,0.7278984,0.5300786,0.33811402,0.4420096,0.111928776,0.15474883,-0.1907904,0.46108553,-0.39363948,-0.5085516,-0.29377452,-0.20888753,797.8022,809.89014,794.57874,794.57874,525.82416,-0.1221923828125,0.080078125,0.99114990234375,1.742095947265625,3.3795166015625,5.00946044921875,1,2.0,1.0,1.0,2.0,75.00
2021-04-28 12:01:56.412,1.3486772,0.9827952,0.8348417,1.4664038,1.044977,0.5685874,0.36518914,0.32117116,0.7278984,0.5300786,0.22843285,0.4420096,0.111928776,0.1221772,-0.06414641,0.46108553,-0.39363948,-0.38590023,-0.38077968,-0.20888753,806.26373,811.9048,806.6667,804.65204,773.22345,-0.18280029296875,0.09161376953125,0.97857666015625,5.1141357421875,-11.387176513671875,1.614990234375,1,2.0,1.0,1.0,2.0,75.00
2021-04-28 12:01:56.934,1.3486772,0.8204631,-0.103529744,1.4664038,1.044977,0.42609277,-0.16687861,0.32117116,0.7278984,0.5270904,0.14003947,0.4420096,0.111928776,0.0979363,0.07468204,0.46108553,-0.39363948,-0.41090328,-0.61844903,-0.20888753,817.1429,804.65204,808.68134,809.0842,740.989,-0.15478515625,0.02410888671875,0.98590087890625,2.130889892578125,-4.882354736328125,-17.398529052734375,1,2.0,1.0,1.0,2.0,75.00
2021-04-28 12:01:57.439,1.3486772,-0.14143097,-0.081560105,1.4664038,1.044977,-0.23190047,-0.19565398,0.32117116,0.7278984,0.12900025,0.15607637,0.4420096,0.111928776,-0.013729915,0.018571023,0.46108553,-0.39363948,-0.41502702,-0.645884,-0.20888753,667.6557,793.7729,819.5604,675.7143,711.978,-0.1400146484375,0.0718994140625,0.99774169921875,6.86370849609375,-4.777679443359375,-11.910552978515625,1,2.0,1.0,1.0,2.0,75.00
2021-04-28 12:01:57.943,1.3486772,0.2325924,0.008340585,1.4664038,1.044977,-0.0730254,-0.17951638,0.32117116,0.7278984,0.073598534,-0.016379187,0.4420096,0.111928776,-0.105146684,-0.024559937,0.46108553,-0.39363948,-0.5301028,-0.6938912,-0.20888753,815.12823,812.71063,788.5348,805.4579,741.79486,-0.13970947265625,0.044921875,0.98577880859375,-1.413116455078125,-5.151519775390625,25.922088623046875,1,2.0,1.0,1.0,2.0,75.00
2021-04-28 12:01:58.465,1.3486772,0.38709202,0.09651306,1.4664038,1.044977,-0.004996081,-0.22802556,0.32117116,0.7278984,-0.024765186,-0.17784092,0.4420096,0.111928776,-0.17537163,-0.09329701,0.46108553,-0.39363948,-0.47103435,-0.6765389,-0.20888753,818.3516,813.5165,800.6227,818.7546,733.73627,-0.1290283203125,0.00189208984375,0.99395751953125,2.190704345703125,-4.35150146484375,10.81146240234375,1,2.0,1.0,1.0,2.0,75.00
2021-04-28 12:01:58.979,1.3486772,0.40132225,0.08942091,1.4664038,1.044977,0.015727844,-0.1670196,0.32117116,0.7278984,-0.015105692,-0.3454004,0.4420096,0.111928776,-0.24566244,-0.08084858,0.46108553,-0.39363948,-0.58563113,-0.6515627,-0.20888753,807.8755,807.47253,811.0989,808.68134,770.0,-0.13800048828125,0.04925537109375,0.99609375,9.966583251953125,-4.299163818359375,-3.39447021484375,1,2.0,1.0,1.0,2.0,75.00
2021-04-28 12:01:59.481,-0.28075495,-0.24108985,-0.01813563,0.116446376,0.2856099,-0.48771647,-0.3376879,0.2876473,0.13899484,0.03184053,-0.059802376,0.30206385,0.088387765,-0.18758455,-0.22145107,0.13276964,-0.77321404,-0.72588176,-0.690852,-0.34655008,794.17584,807.8755,805.4579,800.6227,691.8315,-0.16339111328125,0.0631103515625,0.987548828125,5.84686279296875,-7.1478271484375,0.10467529296875,1,1.0,1.0,1.0,1.0,75.00
2021-04-28 12:02:00.004,-0.11094249,-0.26087412,0.020424543,0.15600464,0.316149,-0.46069208,-0.44436318,0.17476566,0.15183869,0.13538256,0.14185204,0.50154084,0.02228419,-0.14325911,-0.23243676,0.049308524,-0.66959566,-0.7373525,-0.62350476,-0.28696537,787.72894,807.0696,798.60803,781.685,737.3626,-0.2060546875,0.07171630859375,0.9818115234375,7.0880126953125,-12.7703857421875,0.01495361328125,1,1.0,1.0,1.0,1.0,75.00
2021-04-28 12:02:00.516,-0.079136916,-0.09305504,0.29359758,0.17859627,0.4217036,-0.38326058,-0.45411912,0.31496635,0.51515883,0.18938604,0.17630564,0.64576656,0.092141524,-0.093283355,-0.24124892,0.1503882,-0.6530326,-0.67630917,-0.5971451,-0.30425203,850.18317,806.26373,800.2198,846.9597,896.9231,-0.20355224609375,0.08544921875,0.98065185546875,4.553375244140625,-0.291595458984375,1.256103515625,1,1.0,1.0,1.0,1.0,75.00
2021-04-28 12:02:01.032,0.05790793,0.29369518,1.1605456,0.22447897,0.5298502,-0.08771025,0.21088001,0.37030518,0.5126625,0.18330513,0.15945439,0.6216761,0.12130048,-0.036077417,-0.22864857,0.19945289,-0.5597907,-0.5648153,-0.54360265,-0.28107253,839.707,803.8461,801.02563,845.34796,756.7033,-0.04608154296875,0.08245849609375,1.00048828125,12.747955322265625,2.848663330078125,-29.316558837890625,1,1.0,1.0,1.0,1.0,75.00
2021-04-28 12:02:01.554,0.07892432,0.45438516,1.486681,0.19779857,0.6089298,0.011952248,0.7687612,0.49554187,0.5126625,0.1585198,0.37896696,0.61660516,0.19555013,-0.018693035,-0.22645447,0.29906875,-0.54634243,-0.47718555,-0.5971385,-0.33100745,491.5751,767.1795,844.1392,502.45422,665.2381,-0.03143310546875,0.1324462890625,1.01654052734375,-0.299072265625,1.62994384765625,28.69598388671875,1,1.0,1.0,1.0,1.0,75.00
2021-04-28 12:02:02.074,0.07892432,0.60286313,1.6841192,0.19779857,0.6089298,0.14276986,0.97558224,0.49554187,0.5126625,-0.24491875,0.377071,0.61660516,0.19555013,0.0022546407,-0.21422368,0.29906875,-0.54634243,-0.42497855,-0.62918764,-0.33100745,822.381,803.8461,801.8315,805.05493,773.22345,-0.123291015625,0.10699462890625,0.9793701171875,5.585174560546875,-11.775970458984375,1.457977294921875,1,1.0,1.0,1.0,1.0,70.00
2021-04-28 12:02:02.579,0.07892432,0.60286313,1.7487574,0.19779857,0.6089298,0.14276986,1.08666,0.49554187,0.5126625,-0.24491875,0.37474898,0.61660516,0.19555013,0.0022546407,-0.13455735,0.29906875,-0.54634243,-0.42497855,-0.7241069,-0.33100745,813.5165,808.68134,803.8461,816.7399,666.8498,-0.1422119140625,0.09820556640625,0.9754638671875,1.15142822265625,4.5458984375,0.0897216796875,1,1.0,1.0,1.0,1.0,70.00
2021-04-28 12:02:03.082,0.07892432,0.60286313,1.7487574,0.19779857,0.6089298,0.14276986,1.08666,0.49554187,0.5126625,-0.24491875,0.37474898,0.61660516,0.19555013,0.0022546407,-0.13455735,0.29906875,-0.54634243,-0.42497855,-0.7241069,-0.33100745,811.0989,807.0696,804.65204,815.9341,716.8132,-0.14825439453125,0.0931396484375,0.98516845703125,3.790740966796875,8.77777099609375,2.70660400390625,1,2.0,1.0,1.0,2.0,70.00
2021-04-28 12:02:03.590,1.051369,-0.23613337,-0.1581638,1.2530026,0.32777202,0.33608887,-0.1239316,0.37858945,0.4749333,0.040774513,0.086013384,0.22278464,0.37937537,-0.032048415,-0.10019726,0.082078256,-0.3870548,-0.5779072,-0.53261006,-0.58283883,796.1905,802.6374,796.1905,800.6227,713.1868,-0.06707763671875,0.09405517578125,1.00341796875,5.21881103515625,3.46923828125,2.893524169921875,1,1.0,1.0,1.0,1.0,70.00
2021-04-28 12:02:04.095,1.051369,-0.13792513,-0.09859033,1.2506055,0.32777202,0.17432465,-0.06275353,0.43987203,0.4749333,0.17442979,0.106845506,0.27403232,0.37937537,-0.082549475,-0.104349986,0.06555659,-0.3870548,-0.6078423,-0.5155586,-0.5512327,808.2784,801.8315,801.02563,807.8755,743.8095,-0.06561279296875,0.12066650390625,1.005859375,1.727142333984375,-8.635711669921875,-0.276641845703125,1,1.0,1.0,1.0,1.0,70.00
2021-04-28 12:02:04.609,0.91467047,-0.10567148,-0.12961003,1.0775808,0.33197668,0.06618108,-0.045994252,0.44749835,0.5020636,0.24658075,0.104697146,0.28723687,0.2711088,-0.1550002,-0.06665505,-0.011700867,-0.41426128,-0.611085,-0.5397271,-0.4141694,808.2784,805.8608,808.2784,805.05493,868.315,-0.11798095703125,0.12841796875,0.98211669921875,6.05621337890625,-12.33673095703125,0.590667724609375,1,1.0,1.0,1.0,1.0,70.00
2021-04-28 12:02:05.134,0.898433,-0.027316332,-0.30286628,0.8858506,0.3031053,-0.0066588186,-0.09205762,0.42046818,0.5091989,0.2482577,0.16759764,0.23526576,0.1896596,-0.13617769,-0.026995707,0.021873888,-0.34661794,-0.5294722,-0.5489114,-0.31997254,805.05493,803.0403,791.3553,802.6374,724.4689,-0.21038818359375,0.10821533203125,0.9713134765625,1.831817626953125,3.192596435546875,-1.293487548828125,1,1.0,1.0,1.0,1.0,70.00
2021-04-28 12:02:05.642,0.9336499,-0.0039010788,-0.22637223,0.9007584,0.27928236,-0.04450769,-0.12119317,0.37637508,0.51842606,0.24834028,0.21934666,0.2625199,0.22062911,-0.061063003,-0.06730415,0.114328094,-0.30658525,-0.49816313,-0.60455394,-0.32040164,900.54944,803.8461,790.14655,896.9231,752.27106,-0.1240234375,0.15167236328125,0.97802734375,3.551483154296875,5.7720947265625,4.927215576171875,1,1.0,1.0,1.0,1.0,70.00
2021-04-28 12:02:06.170,1.0032842,0.2469136,0.52619135,0.8973649,0.17938484,-0.05762027,0.13404413,0.11374953,0.41435388,0.047515485,0.3283083,0.22967514,0.24921867,0.013558494,-0.11024204,0.30440253,-0.23494868,-0.4684238,-0.70706046,-0.30656567,810.696,811.50183,804.65204,809.4872,972.674,-0.099853515625,0.1025390625,1.01702880859375,1.03179931640625,-6.05621337890625,-4.02252197265625,1,1.0,1.0,1.0,1.0,70.00
2021-04-28 12:02:06.698,1.0313478,0.2852541,0.7191579,0.8973649,0.10470326,-0.19440168,0.29396263,0.11374953,0.2521178,-0.06827378,0.25216305,0.22967514,0.31085092,-0.004698158,-0.17173569,0.30440253,-0.19352415,-0.51592106,-0.7186028,-0.30656567,809.4872,808.68134,800.2198,803.0403,675.7143,-0.0755615234375,0.14215087890625,0.99884033203125,6.29547119140625,-18.06396484375,0.396270751953125,1,1.0,1.0,1.0,1.0,70.00
2021-04-28 12:02:07.211,1.0313478,0.25778368,0.5948264,0.8973649,0.10470326,-0.16817683,0.18261325,0.11374953,0.2521178,0.015993316,0.1139625,0.22967514,0.31085092,-0.051345613,-0.11408802,0.30440253,-0.19352415,-0.5037243,-0.4997938,-0.30656567,821.978,808.68134,801.4286,826.0073,969.45056,-0.058349609375,0.1287841796875,0.989990234375,3.521575927734375,-2.75146484375,-0.680389404296875,1,1.0,1.0,1.0,1.0,70.00
2021-04-28 12:02:07.714,0.8008138,0.3020762,0.11616523,0.7865809,0.51360357,-0.010122714,-0.032515954,0.29271907,0.58317417,0.40651962,0.03680136,0.4517863,0.1870071,-0.031322297,-0.22795583,0.17924449,-0.3811276,-0.49369487,-0.4514432,-0.42210245,813.1135,812.71063,801.4286,807.8755,800.6227,-0.0572509765625,0.13836669921875,0.98699951171875,4.8748779296875,-4.05242919921875,1.24114990234375,1,1.0,1.0,1.0,1.0,70.00
2021-04-28 12:02:08.244,0.71381783,0.25242993,0.22192694,0.7184714,0.43441907,0.014314906,0.24013197,0.40560773,0.6264937,0.4865736,0.09212401,0.54125637,0.19219793,-0.030180858,-0.22059767,0.30888376,-0.3341738,-0.5067962,-0.5119315,-0.3898285,803.0403,803.0403,805.05493,799.011,765.16486,-0.07196044921875,0.12872314453125,0.9932861328125,4.329071044921875,-7.01324462890625,0.889739990234375,1,1.0,1.0,1.0,1.0,70.00
2021-04-28 12:02:08.770,0.624021,0.34042373,0.240743,0.6164488,0.30381733,0.02918484,0.2625445,0.41366532,0.7489181,0.4865733,0.09212401,0.60968083,0.17420182,0.010663966,-0.19497417,0.29960385,-0.31538263,-0.53233004,-0.59775877,-0.3580086,822.7839,801.8315,803.8461,821.5751,811.9048,-0.1380615234375,0.11773681640625,0.99005126953125,4.164581298828125,-3.730926513671875,0.478515625,1,1.0,1.0,1.0,1.0,70.00
2021-04-28 12:02:09.291,0.3927198,0.07498337,0.20676106,0.47179538,0.35319775,-0.174284,0.16910341,0.41172823,0.7197204,0.2508343,0.0743482,0.5991124,0.2055164,0.033599377,-0.109517604,0.25187862,-0.36590725,-0.48517433,-0.60475296,-0.27753186,798.20514,809.0842,805.05493,797.8022,765.9707,-0.1243896484375,0.1224365234375,0.9840087890625,2.743988037109375,-3.36456298828125,1.428070068359375,1,1.0,1.0,1.0,1.0,70.00
2021-04-28 12:02:09.824,0.25494114,0.029923901,0.53068495,0.38237625,0.3967579,-0.17350474,-0.025966203,0.338772,0.70713747,0.1411454,0.16450651,0.46067312,0.2211831,0.08520866,-0.04621016,0.07408037,-0.46086714,-0.45139486,-0.40178633,-0.23079722,807.0696,819.5604,801.8315,811.9048,757.9121,-0.12213134765625,0.0926513671875,0.991943359375,0.904693603515625,2.85614013671875,-2.61688232421875,1,1.0,1.0,1.0,1.0,70.00
2021-04-28 12:02:10.339,0.1955831,0.20348175,1.0467054,0.45537648,0.3339848,-0.20110053,0.35249615,0.32335818,0.6635226,0.11745046,0.29742947,0.34898132,0.32030734,0.1028388,0.0079600755,0.036104053,-0.51214236,-0.398126,-0.3577779,-0.17384268,792.5641,806.6667,800.6227,799.81683,716.8132,-0.07684326171875,0.0953369140625,1.0078125,0.97198486328125,1.375732421875,9.2413330078125,1,1.0,1.0,1.0,1.0,70.00
2021-04-28 12:02:10.854,0.23548445,0.3603787,1.1122956,0.43532827,0.24580643,-0.114324994,0.45408547,0.3750167,0.48040745,0.10302351,0.2926652,0.32804453,0.25682724,0.0737716,0.016074909,0.07983479,-0.51759,-0.42811167,-0.38788718,-0.17623752,801.02563,803.44324,801.02563,799.81683,665.64105,-0.0899658203125,0.062255859375,1.00823974609375,2.811279296875,-10.011444091796875,0.082244873046875,1,1.0,1.0,1.0,1.0,70.00
2021-04-28 12:02:11.356,0.72420937,0.33507973,0.9783919,0.7444975,0.1689974,-0.15790775,0.3472804,0.26761737,0.36355618,-7.6590595E-4,0.3189936,0.33513,0.14400166,0.016491944,-0.07211036,0.29845846,-0.41185036,-0.39494687,-0.5063638,-0.15815511,816.7399,813.5165,799.41394,800.2198,832.8571,-0.12030029296875,0.05950927734375,0.99395751953125,6.930999755859375,-15.5816650390625,-7.9852294921875,1,1.0,1.0,1.0,1.0,70.00
2021-04-28 12:02:11.873,0.84617716,0.25654727,0.0330218,0.82286215,0.37537834,-0.057029445,0.07629447,0.3288484,0.8569408,0.1755946,0.42308578,0.7760347,0.13992345,0.01985203,-0.02475017,0.3417487,-0.32613185,-0.31567186,-0.40926537,-0.044401444,805.4579,792.96704,814.7253,808.2784,748.24176,-0.08935546875,0.09747314453125,0.988037109375,11.84326171875,-11.7535400390625,-14.37042236328125,1,1.0,1.0,1.0,1.0,70.00
2021-04-28 12:02:12.388,0.8389693,0.6593059,0.6671967,0.8038951,0.5353761,0.45656607,0.3672166,0.4344282,0.8602009,0.56291527,0.6501807,0.7994328,0.12795685,0.08102293,0.017262481,0.34024554,-0.32269362,-0.32077584,-0.45930573,-0.031384904,800.2198,810.696,808.68134,796.5934,658.3883,-0.11090087890625,0.1239013671875,0.9842529296875,2.175750732421875,1.069183349609375,6.23565673828125,1,1.0,1.0,1.0,1.0,80.00
2021-04-28 12:02:12.909,0.91579604,0.7232199,0.7670184,0.80693865,0.70413095,0.49273863,0.42157212,0.5262385,0.8602009,0.5612853,0.6549081,0.7994328,0.11411794,0.1343553,-0.0073415693,0.36809275,-0.26024023,-0.3058996,-0.4184997,0.04522603,805.8608,807.8755,809.89014,809.89014,734.94507,-0.09356689453125,0.10687255859375,0.98907470703125,5.443115234375,-6.57958984375,4.523468017578125,1,1.0,1.0,1.0,1.0,80.00
2021-04-28 12:02:13.415,0.7894983,0.72634876,0.8526254,0.5949212,0.746862,0.46513692,0.40843323,0.67545164,0.80929637,0.615432,0.6549081,0.7773781,0.11831051,0.12588707,-0.13047057,0.3909828,-0.22735731,-0.34550583,-0.3749676,0.060272604,793.36993,805.05493,811.9048,799.011,785.31134,-0.095947265625,0.1170654296875,0.9888916015625,3.529052734375,2.519683837890625,2.452392578125,1,1.0,1.0,1.0,1.0,80.00
2021-04-28 12:02:13.931,0.868799,0.29996,0.7008906,1.5724477,0.65087587,0.02997664,0.15945034,0.8917367,0.74792445,0.30801955,0.3262602,0.6324257,0.10448456,0.022762934,-0.13645639,0.3019959,-0.23061115,-0.30415726,-0.3425046,-0.16171636,821.5751,803.44324,805.4579,819.9634,670.07324,-0.1219482421875,0.12225341796875,0.99005126953125,3.745880126953125,-4.194488525390625,-0.740203857421875,1,1.0,1.0,1.0,1.0,80.00
2021-04-28 12:02:14.455,0.868799,0.24463195,0.6195268,1.5724477,0.65087587,0.1294403,0.10409548,0.8917367,0.74792445,0.245825,0.18713757,0.6324257,0.10448456,-0.05861742,-0.05848225,0.3019959,-0.23061115,-0.3226949,-0.33891484,-0.16171636,777.6557,810.293,809.0842,782.49084,784.5055,-0.1441650390625,0.1156005859375,0.9813232421875,4.119720458984375,-5.38330078125,2.220611572265625,1,1.0,1.0,1.0,1.0,80.00
2021-04-28 12:02:14.963,0.868799,0.14438799,0.5465986,1.6619682,0.65087587,0.130845,-0.02827789,0.9701349,0.74792445,0.095831595,0.068255045,0.6324257,0.10448456,-0.11267638,-0.092041984,0.3098798,-0.23061115,-0.42923814,-0.4485658,-0.17028283,806.26373,812.3077,798.60803,801.02563,622.52747,-0.11920166015625,0.09869384765625,0.98077392578125,4.59075927734375,-4.523468017578125,2.130889892578125,1,1.0,1.0,1.0,1.0,80.00
2021-04-28 12:02:15.467,0.868799,0.16540852,0.52754587,1.6619682,0.65087587,0.052053228,-0.038165517,0.9701349,0.74792445,0.0477841,9.918382E-4,0.6324257,0.10448456,-0.035034772,-0.17269458,0.3098798,-0.23061115,-0.47197035,-0.44263124,-0.17028283,808.2784,802.23444,800.2198,804.2491,735.7509,-0.1114501953125,0.10430908203125,0.99713134765625,4.029998779296875,-4.65057373046875,1.256103515625,1,1.0,1.0,1.0,1.0,80.00
2021-04-28 12:02:15.969,0.868799,-0.0937299,0.48406312,1.6619682,0.65087587,-0.1628939,-0.10225581,0.9701349,0.74792445,-0.058859974,0.04584623,0.6324257,0.10448456,-0.01611829,-0.1692734,0.3098798,-0.23061115,-0.4494931,-0.5003072,-0.17028283,819.5604,803.44324,799.011,816.337,910.6227,-0.11572265625,0.1060791015625,0.99652099609375,4.388885498046875,-5.854339599609375,2.01873779296875,1,1.0,1.0,1.0,1.0,80.00
2021-04-28 12:02:16.495,0.868799,-0.09471169,0.4432645,1.6619682,0.65087587,-0.2518341,-0.10620562,0.9701349,0.74792445,0.013130663,0.011568261,0.6324257,0.10448456,0.046100717,-0.0725552,0.3098798,-0.23061115,-0.4158491,-0.48519486,-0.17028283,820.7692,806.26373,806.26373,815.5311,715.6044,-0.11798095703125,0.0950927734375,0.98785400390625,4.725341796875,-5.615081787109375,0.471038818359375,1,1.0,1.0,1.0,1.0,80.00
2021-04-28 12:02:16.999,0.868799,0.29210442,0.7000537,1.6619682,0.65087587,-0.051797003,0.33449823,0.9701349,0.74792445,0.30697832,0.52017176,0.6324257,0.10448456,0.04925842,-0.036839362,0.3098798,-0.23061115,-0.4542097,-0.44634634,-0.17028283,806.26373,800.6227,808.2784,813.5165,782.49084,-0.04058837890625,0.17303466796875,1.0064697265625,15.4022216796875,-7.3272705078125,-4.000091552734375,1,2.0,1.0,1.0,2.0,80.00
2021-04-28 12:02:17.509,0.868799,0.5033379,1.1571065,1.6619682,0.65087587,0.095524415,0.68920213,0.9701349,0.74792445,0.30697832,0.5379173,0.6324257,0.10448456,0.105821356,-0.041378096,0.3098798,-0.23061115,-0.5589597,-0.4169328,-0.17028283,762.74725,793.7729,812.71063,765.9707,711.1722,-0.0579833984375,0.16845703125,0.98583984375,2.026214599609375,-1.973876953125,6.53472900390625,1,2.0,1.0,1.0,2.0,80.00
2021-04-28 12:02:18.017,0.868799,0.6975843,1.3703312,1.6619682,0.65087587,0.30017787,0.9070574,0.9701349,0.74792445,0.30227786,0.5379173,0.6324257,0.10448456,0.073828906,-0.038147878,0.3098798,-0.23061115,-0.72382057,-0.3689672,-0.17028283,776.8498,806.6667,803.44324,786.9231,584.65204,-0.0367431640625,0.151123046875,0.99017333984375,4.1571044921875,-6.1907958984375,-2.011260986328125,1,2.0,1.0,1.0,2.0,80.00
2021-04-28 12:02:18.533,0.868799,0.86984146,1.212576,1.6619682,0.65087587,0.20260072,0.6300386,0.9701349,0.74792445,0.449521,0.39259437,0.6324257,0.10448456,-0.12319468,-0.0013868265,0.3098798,-0.23061115,-0.6252173,-0.55335355,-0.17028283,811.9048,810.293,795.78754,809.89014,745.42126,-0.05517578125,0.14263916015625,0.992431640625,4.41131591796875,-5.510406494140625,-0.157012939453125,1,2.0,1.0,1.0,2.0,80.00
2021-04-28 12:02:19.057,0.868799,0.6323889,0.30336937,1.0092639,0.65087587,0.12437123,0.07339992,0.58936846,0.74792445,0.45354846,-0.24080694,0.14484568,0.10448456,-0.17577276,-0.012135367,0.020625826,-0.23061115,-0.59762615,-0.6239163,-0.36257175,805.05493,787.326,829.2308,806.26373,749.85345,-0.01953125,0.1383056640625,0.9835205078125,3.2598876953125,-5.03936767578125,-2.280426025390625,1,2.0,1.0,1.0,2.0,80.00
2021-04-28 12:02:19.586,0.868799,0.49801028,0.59694606,1.1119033,0.65087587,0.15008631,0.106967926,0.5842921,0.74792445,0.4347057,-0.14941695,0.5001153,0.10448456,-0.15164341,-0.042948715,0.06237118,-0.23061115,-0.6573753,-0.52559143,-0.40701768,796.5934,804.2491,801.8315,793.7729,803.8461,-0.00823974609375,0.14581298828125,0.9912109375,6.041259765625,-8.172149658203125,0.082244873046875,1,1.0,1.0,1.0,1.0,80.00
2021-04-28 12:02:20.095,1.28484,0.6193072,0.78007704,1.0894837,0.79997224,0.288416,0.2512039,0.59403604,0.73051053,0.1925936,0.23221326,0.586011,0.25352782,-0.18129084,-0.11250613,0.04710954,-0.38983303,-0.7349789,-0.4658117,-0.33516312,805.8608,804.2491,801.4286,810.293,1035.5311,-0.059326171875,0.15020751953125,0.9893798828125,4.568328857421875,-3.09539794921875,0.35888671875,1,1.0,1.0,1.0,1.0,80.00
2021-04-28 12:02:20.623,1.2782959,0.82864034,0.8700118,1.1208756,0.8381964,0.40684977,0.5006033,0.5960945,0.73051053,0.25859714,0.46166658,0.5767415,0.3320583,-0.14918162,-0.1292,0.05838084,-0.39164877,-0.68390423,-0.30661115,-0.32351553,794.17584,804.65204,808.68134,792.1612,699.4872,-0.04656982421875,0.16839599609375,0.9853515625,5.99639892578125,-4.673004150390625,3.386993408203125,1,1.0,1.0,1.0,1.0,80.00
2021-04-28 12:02:21.149,1.1732975,0.71506375,0.7432138,0.96677697,0.8122694,0.3329232,0.48085523,0.5648641,0.75416714,0.25143462,0.46085858,0.5574718,0.27870196,-0.17542943,-0.20800182,0.003745265,-0.319412,-0.64923775,-0.26545978,-0.2284065,820.3663,805.05493,806.26373,806.6667,853.8095,-0.0537109375,0.14776611328125,0.9931640625,-0.994415283203125,-2.213134765625,0.25421142578125,1,1.0,1.0,1.0,1.0,80.00
2021-04-28 12:02:21.660,1.0622835,0.5896676,0.67032915,0.93220216,0.7942706,0.22100677,0.32006687,0.5456202,0.6702224,0.28320616,0.46830085,0.47233605,0.24232557,-0.16460827,-0.15874794,0.0049612196,-0.32512143,-0.5464188,-0.24173105,-0.23673622,818.3516,811.0989,801.4286,802.23444,772.4176,-0.11297607421875,0.09686279296875,0.98760986328125,5.45806884765625,-9.084320068359375,4.91973876953125,1,1.0,1.0,1.0,1.0,80.00
2021-04-28 12:02:22.166,1.0622835,0.26318756,0.5424003,0.93220216,0.7942706,0.0096953185,-0.1016306,0.5456202,0.6702224,0.30053425,0.23929513,0.47233605,0.24232557,-0.1507471,-0.17063315,0.0049612196,-0.32512143,-0.6075105,-0.36032638,-0.23673622,809.89014,810.293,805.05493,814.7253,691.02563,-0.0562744140625,0.12310791015625,0.9981689453125,7.79083251953125,-3.4991455078125,15.170440673828125,1,1.0,1.0,1.0,1.0,80.00
2021-04-28 12:02:22.667,1.0622835,0.29304945,0.5062693,1.2383565,0.7942706,-0.1090887,-0.23425625,0.6739953,0.6702224,0.313228,0.23408648,0.67770755,0.24232557,-0.16248198,-0.08451072,-0.0015532249,-0.32512143,-0.60511976,-0.45924157,-0.13226356,775.2381,805.05493,807.47253,786.52014,774.43225,-0.03656005859375,0.0970458984375,1.0062255859375,-0.785064697265625,0.2093505859375,4.85992431640625,1,1.0,1.0,1.0,1.0,75.00
2021-04-28 12:02:23.181,1.0622835,0.22878703,0.25522605,1.3109883,0.7942706,-0.6933237,-0.25948423,0.63461196,0.6702224,0.21386552,0.21710451,0.7771933,0.24232557,-0.0723775,-0.06702107,0.14667164,-0.32512143,-0.6003865,-0.5795856,-0.18646581,802.23444,799.41394,801.8315,800.2198,900.54944,-0.0714111328125,0.0841064453125,1.00531005859375,4.3365478515625,-5.0244140625,-1.084136962890625,1,1.0,1.0,1.0,1.0,75.00
2021-04-28 12:02:23.713,1.0622835,0.3153727,0.10915641,1.3109883,0.7942706,-0.35345426,-0.25419608,0.63461196,0.6702224,0.19828546,0.052316155,0.7771933,0.24232557,-0.057745185,-0.07430074,0.14667164,-0.32512143,-0.5781378,-0.5260848,-0.18646581,841.31866,802.23444,801.8315,843.3333,894.90845,-0.09759521484375,0.07568359375,0.99224853515625,5.899200439453125,-1.472930908203125,-2.803802490234375,1,1.0,1.0,1.0,1.0,75.00
2021-04-28 12:02:24.215,1.0622835,0.6988789,0.46667305,1.3755751,0.7942706,0.29258,0.1747872,0.65602,0.6702224,0.54246855,0.04285568,0.738504,0.24232557,0.07866987,-0.07890773,0.19461213,-0.32512143,-0.5888883,-0.3016525,-0.21400174,771.6117,809.4872,799.81683,771.2088,702.3077,-0.04302978515625,0.11260986328125,0.98980712890625,-0.067291259765625,-6.153411865234375,-1.233673095703125,1,1.0,1.0,1.0,1.0,75.00
2021-04-28 12:02:24.729,1.0622835,0.702467,0.6055765,1.3755751,0.7942706,0.3704585,0.22927925,0.65602,0.6702224,0.55735236,0.08422535,0.738504,0.24232557,0.052422233,-0.075037844,0.19461213,-0.32512143,-0.5044668,-0.23617776,-0.21400174,875.16486,801.02563,789.34064,877.1795,612.4542,-0.02252197265625,0.055908203125,0.9853515625,8.067474365234375,-9.79461669921875,-13.53302001953125,1,1.0,1.0,1.0,1.0,75.00
2021-04-28 12:02:25.247,1.0622835,1.1312985,0.812416,1.3755751,0.7942706,0.6483009,0.34857225,0.65602,0.6702224,0.5654963,0.2133955,0.738504,0.24232557,0.026741464,-0.07327643,0.19461213,-0.32512143,-0.42101857,-0.1866027,-0.21400174,794.17584,800.2198,808.68134,798.60803,737.76556,-0.0145263671875,0.11669921875,1.00390625,5.66741943359375,-2.6318359375,4.179534912109375,1,1.0,1.0,1.0,1.0,75.00
2021-04-28 12:02:25.760,1.0622835,1.1836219,0.85618883,1.3755751,0.7942706,0.5896926,0.25864092,0.65602,0.6702224,0.46538618,0.20969114,0.738504,0.24232557,-0.0978718,-0.08856883,0.19461213,-0.32512143,-0.40253186,-0.25110048,-0.21400174,788.1319,805.8608,808.2784,796.5934,809.89014,-0.0020751953125,0.11358642578125,0.9964599609375,4.1571044921875,-5.263671875,-0.897216796875,1,2.0,1.0,1.0,2.0,75.00
2021-04-28 12:02:26.285,1.0622835,1.1564598,0.57085633,1.3755751,0.7942706,0.59825975,0.22985816,0.65602,0.6702224,0.20802201,0.2589031,0.738504,0.24232557,-0.08165859,-0.103346586,0.19461213,-0.32512143,-0.51161665,-0.57909554,-0.21400174,699.0842,763.95605,856.2271,725.2747,716.8132,0.0032958984375,0.11767578125,1.00439453125,-0.321502685546875,-0.336456298828125,10.355377197265625,1,2.0,1.0,1.0,2.0,75.00
2021-04-28 12:02:26.795,1.0622835,0.8384048,-0.03321863,1.3755751,0.7942706,0.3165276,-0.031157978,0.65602,0.6702224,-0.015544712,-0.037450887,0.738504,0.24232557,-0.052796945,-0.09805932,0.19461213,-0.32512143,-0.61118066,-0.611526,-0.21400174,801.4286,805.4579,801.02563,797.3993,814.3223,-0.02374267578125,0.0416259765625,0.9881591796875,0.949554443359375,-9.278717041015625,3.895416259765625,1,2.0,1.0,1.0,2.0,75.00
2021-04-28 12:02:27.305,1.0622835,0.08529236,0.007672138,1.3755751,0.7942706,0.26961997,5.9592543E-4,0.65602,0.6702224,-0.28710583,-0.15084068,0.738504,0.24232557,0.09882661,-0.09618822,0.19461213,-0.32512143,-0.5921246,-0.6056859,-0.21400174,816.7399,809.0842,795.78754,809.89014,755.89746,-0.01153564453125,0.056884765625,1.0164794921875,5.38330078125,-2.743988037109375,1.039276123046875,1,2.0,1.0,1.0,2.0,75.00
2021-04-28 12:02:27.823,1.0622835,0.13756567,0.084161155,1.3755751,0.7942706,0.29198998,0.02498263,0.65602,0.6702224,-0.32329604,-0.27656865,0.738504,0.24232557,0.14363572,-0.069800615,0.19461213,-0.32512143,-0.58468765,-0.60702556,-0.21400174,806.26373,803.44324,803.0403,795.78754,641.4652,0.0260009765625,0.13714599609375,0.99261474609375,10.21331787109375,-13.1591796875,-0.04486083984375,1,2.0,1.0,1.0,2.0,75.00
2021-04-28 12:02:28.331,1.0622835,0.13756567,0.084161155,1.3755751,0.7942706,0.29198998,0.02498263,0.65602,0.6702224,-0.32329604,-0.27656865,0.738504,0.24232557,0.14363572,-0.069800615,0.19461213,-0.32512143,-0.58468765,-0.60702556,-0.21400174,861.06226,813.1135,792.5641,851.39197,841.7216,-0.022705078125,0.08660888671875,0.9898681640625,-1.6448974609375,3.09539794921875,7.4169921875,1,2.0,1.0,1.0,2.0,75.00
2021-04-28 12:02:28.836,1.0622835,0.13756567,0.084161155,1.3755751,0.7942706,0.29198998,0.02498263,0.65602,0.6702224,-0.32329604,-0.27656865,0.738504,0.24232557,0.14363572,-0.069800615,0.19461213,-0.32512143,-0.58468765,-0.60702556,-0.21400174,794.57874,799.011,798.60803,805.4579,664.0293,-0.0130615234375,0.04217529296875,1.00262451171875,1.12152099609375,-2.758941650390625,1.1065673828125,1,2.0,1.0,1.0,2.0,75.00
2021-04-28 12:02:29.344,1.0622835,0.13756567,0.084161155,1.3755751,0.7942706,0.29198998,0.02498263,0.65602,0.6702224,-0.32329604,-0.27656865,0.738504,0.24232557,0.14363572,-0.069800615,0.19461213,-0.32512143,-0.58468765,-0.60702556,-0.21400174,789.34064,802.6374,798.60803,787.72894,710.3663,0.00189208984375,0.0653076171875,1.00439453125,4.284210205078125,-8.785247802734375,0.059814453125,1,2.0,1.0,1.0,2.0,75.00
2021-04-28 12:02:29.864,1.0622835,-0.12825921,0.16284792,1.3755751,0.7942706,-0.3055725,-0.37575096,0.65602,0.6702224,0.07059589,-0.41124043,0.738504,0.24232557,-0.21844578,-0.2584474,0.19461213,-0.32512143,-0.5546564,-0.5364889,-0.21400174,852.1978,805.8608,795.78754,855.82416,776.04395,0.04266357421875,0.05767822265625,0.99273681640625,3.357086181640625,-7.977752685546875,-2.564544677734375,1,2.0,1.0,1.0,2.0,75.00
2021-04-28 12:02:30.379,1.0622835,0.41784906,0.3308393,1.3755751,0.7942706,-0.14065506,-0.33063933,0.65602,0.6702224,0.09422059,-0.21520926,0.738504,0.24232557,-0.26445293,-0.22041874,0.19461213,-0.32512143,-0.6152834,-0.58510685,-0.21400174,790.14655,798.60803,799.81683,792.5641,709.15753,0.0859375,0.072509765625,0.99224853515625,8.20953369140625,-5.510406494140625,8.366546630859375,1,2.0,1.0,1.0,2.0,75.00
2021-04-28 12:02:30.900,1.0622835,0.8088182,0.5079145,1.3755751,0.7942706,-0.01971423,-0.18281597,0.65602,0.6702224,0.087178685,-0.076815724,0.738504,0.24232557,-0.28510988,-0.2076392,0.19461213,-0.32512143,-0.6299081,-0.5180074,-0.21400174,674.10254,788.5348,830.0366,677.326,808.2784,0.03729248046875,0.08905029296875,0.9976806640625,3.476715087890625,3.48419189453125,2.6617431640625,1,2.0,1.0,1.0,2.0,75.00
2021-04-28 12:02:31.406,1.0622835,1.1211287,0.6181714,1.3755751,0.7942706,0.37270397,-0.057737127,0.65602,0.6702224,0.15473247,-0.079722136,0.738504,0.24232557,-0.14894283,-0.18659566,0.19461213,-0.32512143,-0.59725684,-0.5050785,-0.21400174,817.5458,811.9048,803.44324,809.4872,747.8388,0.01904296875,0.07366943359375,1.00433349609375,2.213134765625,-3.132781982421875,-5.14404296875,1,2.0,1.0,1.0,2.0,75.00
2021-04-28 12:02:31.910,1.0622835,1.1884295,0.72639596,1.3755751,0.7942706,0.3694016,-0.05676398,0.65602,0.6702224,0.17334509,0.02625803,0.738504,0.24232557,-0.10095345,-0.21970497,0.19461213,-0.32512143,-0.53948843,-0.4637263,-0.21400174,800.2198,799.011,800.6227,810.293,759.92676,0.00897216796875,0.065673828125,1.000244140625,3.9178466796875,-4.239349365234375,-0.755157470703125,1,2.0,1.0,1.0,2.0,75.00
2021-04-28 12:02:32.420,1.0622835,0.98853123,0.49341685,1.3755751,0.7942706,0.35358587,0.09915804,0.65602,0.6702224,0.30684748,0.027732791,0.738504,0.24232557,-0.03918496,-0.059761338,0.19461213,-0.32512143,-0.42911914,-0.34912518,-0.21400174,807.8755,803.8461,807.0696,808.68134,747.4359,0.04241943359375,0.04974365234375,0.9962158203125,4.83001708984375,-5.38330078125,1.016845703125,1,2.0,1.0,1.0,2.0,75.00
2021-04-28 12:02:32.935,1.0622835,0.7341581,0.6703532,1.3755751,0.7942706,0.1647069,0.14940023,0.65602,0.6702224,0.17780703,0.043246612,0.738504,0.24232557,-0.08000675,-0.058918845,0.19461213,-0.32512143,-0.39185643,-0.37407115,-0.21400174,789.34064,799.81683,808.68134,794.17584,752.27106,0.0958251953125,0.10137939453125,1.00494384765625,11.835784912109375,-12.24700927734375,1.71966552734375,1,2.0,1.0,1.0,2.0,75.00
2021-04-28 12:02:33.462,1.0622835,0.44593298,1.0608633,1.3755751,0.7942706,0.119696766,0.4416346,0.65602,0.6702224,0.058446307,0.19084163,0.738504,0.24232557,0.032131236,-0.006074053,0.19461213,-0.32512143,-0.35173422,-0.4040892,-0.21400174,818.3516,804.65204,797.3993,820.3663,819.5604,0.1361083984375,0.1678466796875,0.99066162109375,8.44879150390625,-7.902984619140625,2.0037841796875,1,2.0,1.0,1.0,2.0,75.00
2021-04-28 12:02:33.983,1.0622835,0.42113855,1.0547519,1.3755751,0.7942706,0.068080135,0.35267073,0.65602,0.6702224,0.2754147,0.19321233,0.738504,0.24232557,-0.007845749,-0.0036279669,0.19461213,-0.32512143,-0.4435059,-0.5390901,-0.21400174,807.0696,804.65204,804.2491,812.3077,749.85345,0.12255859375,0.1617431640625,0.97796630859375,5.271148681640625,-3.8580322265625,-0.22430419921875,1,2.0,1.0,1.0,2.0,75.00
2021-04-28 12:02:34.492,1.0622835,0.48387375,0.9426389,1.3755751,0.7942706,0.13677137,0.28831053,0.65602,0.6702224,0.4808997,0.2574515,0.738504,0.24232557,0.0029559596,0.016431227,0.19461213,-0.32512143,-0.5100508,-0.5723412,-0.21400174,793.7729,795.38464,811.50183,791.75824,662.01465,0.11578369140625,0.1845703125,0.98199462890625,6.9085693359375,-4.882354736328125,-24.71832275390625,1,2.0,1.0,1.0,2.0,75.00
2021-04-28 12:02:34.998,1.0622835,0.9781919,0.9066898,1.3755751,0.7942706,0.3431214,0.31963614,0.65602,0.6702224,0.5546932,0.33658233,0.738504,0.24232557,-0.05093848,-0.0522576,0.19461213,-0.32512143,-0.5610201,-0.6000168,-0.21400174,800.2198,805.8608,809.0842,798.20514,813.5165,0.10260009765625,0.19305419921875,0.962646484375,1.5850830078125,-8.665618896484375,2.923431396484375,1,2.0,1.0,1.0,2.0,75.00
2021-04-28 12:02:35.515,1.0622835,0.99345374,0.9146055,1.3755751,0.7942706,0.26667678,0.3117525,0.65602,0.6702224,0.5546932,0.35789093,0.738504,0.24232557,-0.1115952,-0.08988453,0.19461213,-0.32512143,-0.5591922,-0.6777778,-0.21400174,827.2161,801.02563,808.2784,817.5458,844.94507,0.0826416015625,0.21356201171875,0.95465087890625,9.054412841796875,-3.75335693359375,9.0020751953125,1,2.0,1.0,1.0,2.0,75.00
2021-04-28 12:02:36.019,0.76374847,0.9451581,0.83809745,1.000509,0.30496296,0.15124705,0.24256098,0.5122765,0.22618088,0.5549844,0.35190707,0.17611903,0.2826504,-0.07761457,-0.12689511,0.18531325,-0.08017856,-0.58693075,-0.68288875,-0.22875564,798.60803,804.65204,796.5934,799.011,624.94507,0.137451171875,0.2232666015625,0.96466064453125,5.704803466796875,-4.3963623046875,7.648773193359375,1,1.0,1.0,1.0,1.0,75.00
2021-04-28 12:02:36.550,0.86188954,0.42069358,0.24719164,1.138648,0.4545136,-0.15693046,-0.2625801,0.69344777,0.84756243,0.33745742,0.17149237,0.7183452,0.44313446,-0.04938068,-0.12648508,0.36285928,-0.1231989,-0.5982289,-0.6319339,-0.1999206,786.52014,800.6227,797.3993,793.36993,746.63007,0.1480712890625,0.23211669921875,0.96429443359375,5.9814453125,-1.83929443359375,0.157012939453125,1,1.0,1.0,1.0,1.0,75.00
2021-04-28 12:02:37.076,1.0492848,0.48934788,0.4305248,1.3156513,0.62004,0.15807195,-0.07686319,0.82654643,0.8775771,0.38904855,0.12873456,0.8357269,0.67235976,0.16715272,-0.008712137,0.52528423,-0.1974564,-0.4875368,-0.5599745,-0.23887536,790.54944,799.011,799.41394,796.5934,769.59705,0.149169921875,0.2264404296875,0.96783447265625,4.269256591796875,-4.957122802734375,5.38330078125,1,1.0,1.0,1.0,1.0,75.00
2021-04-28 12:02:37.603,0.94251037,0.517906,0.47179073,1.1694425,0.6078223,0.31786415,-0.027280806,0.74164045,0.8775771,0.6178361,0.3172305,0.8357269,0.8003496,0.18268986,0.010137921,0.52931213,-0.32951033,-0.44541013,-0.62313044,-0.28842643,624.1392,756.7033,859.85345,650.7326,756.30035,0.19610595703125,0.2069091796875,0.97650146484375,-6.168365478515625,2.930908203125,14.0264892578125,1,1.0,1.0,1.0,1.0,75.00
2021-04-28 12:02:38.128,0.8020902,1.0799364,0.5652106,1.0382278,0.47707224,0.61966115,0.093292326,0.60529274,0.73204124,0.70130837,0.41735652,0.79939246,0.75138545,0.14733079,0.052569438,0.46905208,-0.27680996,-0.4601655,-0.66444206,-0.33909446,965.82416,835.2747,782.8938,956.1539,733.3333,0.11761474609375,0.083251953125,0.9791259765625,4.089813232421875,-9.10675048828125,-11.94793701171875,1,1.0,1.0,1.0,1.0,75.00
2021-04-28 12:02:38.653,0.40852013,1.2262586,0.5791817,0.23706652,0.24769452,0.72966826,0.16598095,0.3185369,0.45187125,0.68734497,0.36440364,0.0497146,0.7786317,0.04947654,-0.07201386,0.3676704,-0.2272941,-0.5831791,-0.7933679,-0.2861551,789.7436,801.02563,799.011,800.2198,689.41394,0.15863037109375,0.17205810546875,0.9698486328125,6.482391357421875,-3.715972900390625,3.401947021484375,1,1.0,1.0,1.0,1.0,75.00
2021-04-28 12:02:39.158,0.40852013,1.466062,1.1055532,0.23706652,0.24769452,0.7963771,0.40884116,0.3185369,0.45187125,0.64122534,0.36574486,0.0497146,0.7786317,-0.042790476,-0.00133745,0.3676704,-0.2272941,-0.62059534,-0.6321499,-0.2861551,798.20514,802.6374,803.0403,793.36993,709.9634,0.07244873046875,0.094482421875,0.96136474609375,-1.158905029296875,0.97198486328125,-6.26556396484375,1,1.0,1.0,1.0,1.0,75.00
2021-04-28 12:02:39.666,0.40852013,1.5438102,1.1055532,0.23706652,0.24769452,0.74496007,0.40884116,0.3185369,0.45187125,0.59293437,0.36574486,0.0497146,0.7786317,-0.15025699,-0.00133745,0.3676704,-0.2272941,-0.63298357,-0.6321499,-0.2861551,796.5934,800.6227,796.1905,792.96704,683.7729,0.0302734375,0.06988525390625,0.99468994140625,4.164581298828125,1.3458251953125,0.2093505859375,1,1.0,1.0,1.0,1.0,75.00
2021-04-28 12:02:40.175,0.40852013,0.82657874,0.77103776,0.23706652,0.24769452,-0.064481765,-0.10930554,0.3185369,0.45187125,0.087446414,-0.25969326,0.0497146,0.7786317,-0.03289366,-0.114734106,0.3676704,-0.2272941,-0.70176506,-0.48149705,-0.2861551,811.50183,798.60803,803.44324,794.9817,784.5055,0.07177734375,0.0733642578125,0.99993896484375,3.1103515625,-6.198272705078125,0.97198486328125,1,1.0,1.0,1.0,1.0,75.00
2021-04-28 12:02:40.690,0.40852013,0.29795915,0.46255356,0.23706652,0.24769452,0.014679442,-0.41704416,0.3185369,0.45187125,0.050198533,-0.24036579,0.0497146,0.7786317,-0.09491032,-0.15350772,0.3676704,-0.2272941,-0.56903803,-0.27376223,-0.2861551,832.8571,801.8315,795.38464,843.73627,928.3516,0.1361083984375,0.0771484375,0.97052001953125,13.884429931640625,-9.218902587890625,11.1553955078125,1,2.0,1.0,1.0,2.0,75.00
2021-04-28 12:02:41.197,0.40852013,0.49648434,0.6882263,0.23706652,0.24769452,0.039315414,-0.22906761,0.3185369,0.45187125,0.10171854,-0.24036579,0.0497146,0.7786317,-0.16347902,-0.15093869,0.3676704,-0.2272941,-0.5737089,-0.26105812,-0.2861551,778.86444,800.6227,796.1905,795.78754,735.7509,0.17999267578125,0.16357421875,0.9915771484375,8.44879150390625,-9.174041748046875,8.86749267578125,1,2.0,1.0,1.0,2.0,75.00
2021-04-28 12:02:41.710,0.40852013,0.5316858,0.76891655,0.23706652,0.24769452,-0.0057826214,0.032753516,0.3185369,0.45187125,0.14938411,0.24776466,0.0497146,0.7786317,-0.26186848,-0.10386892,0.3676704,-0.2272941,-0.5199107,-0.27339494,-0.2861551,795.38464,801.02563,802.23444,801.4286,714.3956,0.1165771484375,0.12744140625,0.9813232421875,3.1402587890625,-2.7215576171875,-3.18511962890625,1,2.0,1.0,1.0,2.0,75.00
2021-04-28 12:02:42.216,0.40852013,0.51694924,0.6610039,0.23706652,0.24769452,-0.17578888,0.030328738,0.3185369,0.45187125,0.12618084,0.305236,0.0497146,0.7786317,-0.2573194,-0.034767248,0.3676704,-0.2272941,-0.6363565,-0.5019123,-0.2861551,652.3443,796.1905,807.8755,653.1502,797.8022,0.05267333984375,0.12933349609375,0.99554443359375,2.519683837890625,0.216827392578125,-1.727142333984375,1,2.0,1.0,1.0,2.0,75.00
2021-04-28 12:02:42.737,0.40852013,0.83793265,0.8009352,0.23706652,0.24769452,0.39642403,0.33129954,0.3185369,0.45187125,0.27074105,0.4353419,0.0497146,0.7786317,-0.23210426,-0.024250578,0.3676704,-0.2272941,-0.6164866,-0.5831601,-0.2861551,786.52014,804.65204,799.41394,784.5055,676.52014,0.0450439453125,0.1055908203125,1.00103759765625,-1.114044189453125,-1.816864013671875,-11.252593994140625,1,2.0,1.0,1.0,2.0,75.00
2021-04-28 12:02:43.262,0.40852013,0.97047365,0.8445716,0.23706652,0.24769452,0.540724,0.44028363,0.3185369,0.45187125,0.2055554,0.45695484,0.0497146,0.7786317,-0.1785168,-0.036676947,0.3676704,-0.2272941,-0.50760365,-0.56707054,-0.2861551,1090.3297,825.2015,772.4176,1086.7032,787.72894,0.05401611328125,0.0999755859375,0.9842529296875,10.250701904296875,-8.545989990234375,9.37591552734375,1,2.0,1.0,1.0,2.0,70.00
2021-04-28 12:02:43.763,0.40852013,1.0504081,1.2832419,0.23706652,0.24769452,0.5908192,0.66112125,0.3185369,0.45187125,0.23503308,0.42058805,0.0497146,0.7786317,-0.07236473,-0.12870939,0.3676704,-0.2272941,-0.38441187,-0.43546605,-0.2861551,799.41394,803.0403,803.0403,805.8608,733.3333,0.132568359375,0.17578125,0.974609375,9.46563720703125,-4.822540283203125,4.373931884765625,1,2.0,1.0,1.0,2.0,70.00
2021-04-28 12:02:44.271,0.40852013,0.7712992,1.2300433,0.23706652,0.24769452,0.31083888,0.537114,0.3185369,0.45187125,0.12951106,0.34813294,0.0497146,0.7786317,-0.015143289,-0.12628745,0.3676704,-0.2272941,-0.39635092,-0.42086935,-0.2861551,817.9487,815.5311,795.38464,816.337,813.1135,0.1588134765625,0.20709228515625,0.9693603515625,5.6524658203125,-4.000091552734375,3.57391357421875,1,2.0,1.0,1.0,2.0,70.00
2021-04-28 12:02:44.791,0.40852013,0.4620858,1.1437546,0.23706652,0.24769452,0.04576296,0.41082805,0.3185369,0.45187125,0.060938988,0.20517734,0.0497146,0.7786317,-0.02865085,-0.014383247,0.3676704,-0.2272941,-0.51461273,-0.43820024,-0.2861551,759.92676,831.2454,784.10254,742.1978,798.20514,0.14215087890625,0.22052001953125,0.94354248046875,7.873077392578125,-5.495452880859375,-12.912445068359375,1,2.0,1.0,1.0,2.0,70.00
2021-04-28 12:02:45.300,0.40852013,0.72955,0.973746,0.23706652,0.24769452,0.38474098,0.36211208,0.3185369,0.45187125,0.5416419,0.60044664,0.0497146,0.7786317,0.01779337,-0.009636001,0.3676704,-0.2272941,-0.6311364,-0.3936984,-0.2861551,793.36993,802.6374,807.0696,793.7729,671.28204,0.13507080078125,0.3009033203125,0.95721435546875,5.682373046875,-2.22808837890625,-0.934600830078125,1,2.0,1.0,1.0,2.0,70.00
2021-04-28 12:02:45.803,0.40852013,0.90238327,0.9078095,0.23706652,0.24769452,0.43506503,0.27923828,0.3185369,0.45187125,0.5416419,0.6026684,0.0497146,0.7786317,-0.021334933,-0.024902496,0.3676704,-0.2272941,-0.62452084,-0.40644816,-0.2861551,827.2161,790.14655,815.12823,824.3956,712.7839,0.12774658203125,0.24749755859375,0.96337890625,4.366455078125,-5.48797607421875,3.42437744140625,1,2.0,1.0,1.0,2.0,70.00
2021-04-28 12:02:46.311,0.62411743,0.9163041,0.8962894,0.23706652,0.33145902,0.44061998,0.28528985,0.3185369,0.21699898,0.5416419,0.6026684,0.0497146,0.3156418,0.0013573497,-0.07038682,0.3676704,-0.20155418,-0.63335407,-0.44766414,-0.2861551,802.6374,802.23444,803.44324,808.2784,695.8608,0.1824951171875,0.25714111328125,0.92315673828125,6.512298583984375,-6.81884765625,10.131072998046875,1,2.0,1.0,1.0,2.0,70.00
2021-04-28 12:02:46.826,0.80438477,0.68007946,0.6098169,0.9772625,0.43789095,0.30597967,0.058513284,0.6153684,0.27487382,0.39392254,0.46003008,0.7139404,0.32720008,-0.10266599,-0.05680042,0.44532624,-0.15077147,-0.57067186,-0.59081674,-0.083434954,805.4579,796.1905,799.41394,797.3993,736.55676,0.1976318359375,0.260986328125,0.9549560546875,0.9271240234375,3.461761474609375,3.880462646484375,1,1.0,1.0,1.0,1.0,70.00
2021-04-28 12:02:47.353,0.80438477,0.4178596,0.30687043,0.948689,0.43789095,0.4355616,0.018225482,0.57903594,0.27487382,0.25225866,0.14541712,0.7337057,0.32720008,-0.13832009,-0.07696502,0.46802172,-0.15077147,-0.6133887,-0.5541178,-0.055548143,851.39197,816.7399,794.9817,837.28937,748.6447,0.13104248046875,0.22772216796875,0.947998046875,4.628143310546875,-9.92919921875,-2.64678955078125,1,1.0,1.0,1.0,1.0,70.00
2021-04-28 12:02:47.859,0.94387835,0.8192586,0.44663787,0.83002603,0.5574953,0.80144626,0.097054444,0.42634478,0.27459806,0.4355641,0.13320607,0.72797287,0.32986513,-0.20008709,-0.12250849,0.553676,-0.11229263,-0.6372274,-0.52493244,0.011845754,792.5641,804.65204,805.05493,791.75824,724.0659,0.16571044921875,0.2752685546875,0.946533203125,7.85064697265625,-4.583282470703125,-4.5758056640625,1,1.0,1.0,1.0,1.0,70.00
2021-04-28 12:02:48.371,0.94387835,0.9477792,0.6500892,0.68733954,0.5574953,0.84485793,0.31978756,0.2870058,0.27459806,0.4112959,0.16340753,0.67712176,0.32986513,-0.15287538,-0.14876789,0.5810769,-0.11229263,-0.6219165,-0.5130604,0.03224556,815.5311,815.5311,805.4579,807.47253,797.8022,0.214111328125,0.29364013671875,0.938232421875,6.80389404296875,-7.140350341796875,3.521575927734375,1,1.0,1.0,1.0,1.0,70.00
2021-04-28 12:02:48.900,0.94387835,0.91852635,0.4915255,0.68733954,0.5574953,0.71252346,0.20285985,0.2870058,0.27459806,0.4009704,0.10424691,0.67712176,0.32986513,-0.024945045,-0.12277198,0.5810769,-0.11229263,-0.7034019,-0.6331802,0.03224556,877.98535,806.6667,789.7436,874.7619,652.3443,0.16845703125,0.26617431640625,0.952392578125,-3.386993408203125,7.170257568359375,0.844879150390625,1,1.0,1.0,1.0,1.0,70.00
2021-04-28 12:02:49.420,0.94387835,1.2264324,1.0512536,0.68733954,0.5574953,0.5791741,0.6177609,0.2870058,0.27459806,0.53749615,0.5016406,0.67712176,0.32986513,-0.0014134712,-0.09325188,0.5810769,-0.11229263,-0.5392834,-0.5608081,0.03224556,787.326,801.02563,806.6667,798.20514,728.0952,0.078125,0.20941162109375,0.9632568359375,3.446807861328125,-8.695526123046875,-2.9608154296875,1,1.0,1.0,1.0,1.0,70.00
2021-04-28 12:02:49.937,0.94387835,1.2804296,1.2058223,0.68733954,0.5574953,0.62859905,0.713125,0.2870058,0.27459806,0.5360892,0.5168175,0.67712176,0.32986513,0.017713422,-0.083851196,0.5810769,-0.11229263,-0.5202714,-0.55584186,0.03224556,804.65204,801.8315,807.0696,800.6227,668.46155,0.10577392578125,0.2340087890625,0.94830322265625,7.88055419921875,-0.351409912109375,0.530853271484375,1,2.0,1.0,1.0,2.0,70.00
2021-04-28 12:02:50.441,0.94387835,1.5087885,1.434613,0.68733954,0.5574953,0.835555,0.8406112,0.2870058,0.27459806,0.5360892,0.5188479,0.67712176,0.32986513,0.016166704,-0.03373575,0.5810769,-0.11229263,-0.3560608,-0.44445872,0.03224556,541.13556,755.4945,850.18317,542.74725,805.8608,0.10498046875,0.24493408203125,0.97406005859375,2.908477783203125,-0.07476806640625,6.123504638671875,1,2.0,1.0,1.0,2.0,70.00
2021-04-28 12:02:50.958,0.94387835,1.5600625,1.3268541,0.68733954,0.5574953,0.822877,0.5627371,0.2870058,0.27459806,0.51741225,-0.005866965,0.67712176,0.32986513,0.029517833,-0.04335004,0.5810769,-0.11229263,-0.31400022,-0.48207387,0.03224556,789.34064,803.44324,801.4286,797.3993,692.23444,0.1031494140625,0.22576904296875,0.97210693359375,4.553375244140625,-1.1663818359375,4.91973876953125,1,2.0,1.0,1.0,2.0,70.00
2021-04-28 12:02:51.461,0.94387835,1.5600625,1.341199,0.68733954,0.5574953,0.822877,0.54816216,0.2870058,0.27459806,0.51741225,-0.0066582724,0.67712176,0.32986513,0.029517833,-0.043005604,0.5810769,-0.11229263,-0.31400022,-0.47251794,0.03224556,798.20514,809.89014,803.44324,795.78754,703.91943,0.07098388671875,0.20123291015625,0.9815673828125,4.127197265625,-3.955230712890625,3.177642822265625,1,2.0,1.0,1.0,2.0,70.00
2021-04-28 12:02:51.969,0.94387835,-0.25677955,-0.26187125,0.68733954,0.5574953,-0.5449707,-0.07163013,0.2870058,0.27459806,-0.1454985,0.006338882,0.67712176,0.32986513,-0.13752216,0.16263483,0.5810769,-0.11229263,-0.58596563,-0.89194036,0.03224556,818.7546,805.4579,799.011,801.8315,994.83514,0.06585693359375,0.19036865234375,0.98114013671875,1.951446533203125,-2.6019287109375,1.95892333984375,1,2.0,1.0,1.0,2.0,70.00
2021-04-28 12:02:52.476,0.01665488,-0.08404667,0.023599109,0.19219103,0.2332197,-0.40090418,-0.12897584,0.29128066,0.5770449,-0.009990519,0.087122306,0.6157923,0.4152675,-0.098492585,0.10530805,0.4459575,-0.30193385,-0.53100634,-0.6683624,-0.24932604,808.68134,806.6667,802.6374,806.26373,718.022,0.06689453125,0.18658447265625,0.9918212890625,4.015045166015625,-6.392669677734375,2.61688232421875,1,1.0,1.0,1.0,1.0,70.00
2021-04-28 12:02:52.984,-0.0014875082,0.3734295,0.3053073,0.1919586,0.27853227,-0.24242152,0.004610712,0.29396152,0.6496633,0.26249772,0.2410585,0.6172212,0.37780198,-0.09637296,0.03433849,0.4235216,-0.3034197,-0.5498138,-0.49917975,-0.27569774,790.14655,801.4286,801.8315,797.8022,702.3077,0.1060791015625,0.239990234375,1.0,9.091796875,-9.0618896484375,2.280426025390625,1,1.0,1.0,1.0,1.0,70.00
2021-04-28 12:02:53.508,-0.10828709,0.514203,0.92750496,0.1873971,0.33147946,-0.14520831,0.26538327,0.31607226,0.6484235,0.26249772,0.27381673,0.575203,0.40029186,-0.07717371,-0.07203071,0.4279971,-0.28026855,-0.5328072,-0.463127,-0.25535262,800.6227,806.26373,799.81683,794.57874,798.60803,0.06402587890625,0.2078857421875,0.9765625,1.973876953125,-3.66363525390625,-1.114044189453125,1,1.0,1.0,1.0,1.0,75.00
2021-04-28 12:02:54.029,-0.16060007,0.65976334,0.9219964,0.21741986,0.37918323,-0.05665426,0.26898375,0.28228712,0.63745636,0.2603298,0.23951748,0.37220126,0.304868,-0.102537856,-0.15957603,0.3774595,-0.29376847,-0.5369299,-0.47249496,-0.33723775,807.47253,809.4872,807.8755,803.8461,702.71063,0.06634521484375,0.19171142578125,0.98126220703125,4.643096923828125,-3.760833740234375,2.99072265625,1,1.0,1.0,1.0,1.0,75.00
2021-04-28 12:02:54.535,-0.16060007,0.8739427,0.9530115,0.21741986,0.37918323,0.27884272,0.24082758,0.28228712,0.63745636,0.37132713,0.2286583,0.37220126,0.304868,-0.04911973,-0.1954486,0.3774595,-0.29376847,-0.5207736,-0.5519535,-0.33723775,804.65204,806.26373,805.8608,789.34064,697.47253,0.06378173828125,0.18646240234375,0.97454833984375,3.043060302734375,-3.3795166015625,1.62994384765625,1,1.0,1.0,1.0,1.0,75.00
2021-04-28 12:02:55.043,-0.16060007,1.2736194,0.29605907,0.21741986,0.37918323,0.5616763,-0.14295642,0.28228712,0.63745636,0.4201032,0.011491219,0.37220126,0.304868,-0.00980858,-0.21145311,0.3774595,-0.29376847,-0.5722991,-0.5217455,-0.33723775,807.0696,803.8461,796.1905,821.5751,673.2967,0.07586669921875,0.1802978515625,0.98388671875,3.940277099609375,-5.001983642578125,3.431854248046875,1,1.0,1.0,1.0,1.0,75.00
2021-04-28 12:02:55.546,-0.16060007,1.287248,0.6564308,0.21741986,0.37918323,0.63083816,0.23698074,0.28228712,0.63745636,0.49473602,0.104407206,0.37220126,0.304868,0.08411015,-0.2457752,0.3774595,-0.29376847,-0.49158597,-0.45633855,-0.33723775,943.2601,842.9304,780.4762,910.2198,772.8205,0.0421142578125,0.1527099609375,0.9781494140625,4.987030029296875,-7.947845458984375,-6.960906982421875,1,2.0,1.0,1.0,2.0,75.00
2021-04-28 12:02:56.049,-0.16060007,1.3374534,0.99131167,0.21741986,0.37918323,0.6731189,0.5464424,0.28228712,0.63745636,0.4891284,0.061126713,0.37220126,0.304868,0.107148096,-0.29181433,0.3774595,-0.29376847,-0.45896488,-0.46075392,-0.33723775,803.8461,801.8315,802.23444,803.0403,749.85345,0.08978271484375,0.21771240234375,0.9852294921875,6.9085693359375,-4.882354736328125,-0.0897216796875,1,2.0,1.0,1.0,2.0,75.00
2021-04-28 12:02:56.565,-0.16060007,0.7324368,0.9693007,0.21741986,0.37918323,0.43010893,0.4139235,0.28228712,0.63745636,0.36484817,0.069142915,0.37220126,0.304868,0.14320046,-0.24736731,0.3774595,-0.29376847,-0.32762522,-0.44605142,-0.33723775,587.47253,764.35895,842.1245,601.978,705.5311,0.06842041015625,0.17352294921875,0.99127197265625,1.472930908203125,-3.282318115234375,8.41888427734375,1,2.0,1.0,1.0,2.0,75.00
2021-04-28 12:02:57.068,-0.16060007,0.70419407,1.0400375,0.21741986,0.37918323,0.5294277,0.45415795,0.28228712,0.63745636,0.36484817,0.40616652,0.37220126,0.304868,0.123427555,-0.22364943,0.3774595,-0.29376847,-0.28397262,-0.42597336,-0.33723775,823.1868,812.3077,801.02563,805.8608,661.6117,0.04730224609375,0.140625,0.99658203125,-0.755157470703125,0.11962890625,-3.536529541015625,1,2.0,1.0,1.0,2.0,75.00
2021-04-28 12:02:57.587,-0.16060007,0.70419407,1.0623513,0.21741986,0.37918323,0.5294277,0.40296146,0.28228712,0.63745636,0.36484817,0.3997782,0.37220126,0.304868,0.123427555,-0.16442312,0.3774595,-0.29376847,-0.28397262,-0.40992308,-0.33723775,824.7985,806.6667,801.4286,821.5751,951.31866,-0.006103515625,0.08282470703125,0.98687744140625,1.188812255859375,-0.2093505859375,-8.845062255859375,1,2.0,1.0,1.0,2.0,75.00
2021-04-28 12:02:58.090,-0.16060007,0.23919116,0.8306485,0.21741986,0.37918323,0.009866249,0.36173153,0.28228712,0.63745636,0.17146598,0.4279871,0.37220126,0.304868,0.034530986,-0.03095624,0.3774595,-0.29376847,-0.42112735,-0.4713017,-0.33723775,811.9048,808.68134,802.6374,817.1429,789.34064,-0.02777099609375,0.081298828125,0.99786376953125,3.282318115234375,-6.4599609375,2.85614013671875,1,2.0,1.0,1.0,2.0,75.00
2021-04-28 12:02:58.606,-0.16060007,0.67759174,0.3943247,0.21741986,0.37918323,0.35134035,0.21065685,0.28228712,0.63745636,0.3049732,0.07644227,0.37220126,0.304868,-0.057293773,-0.19634017,0.3774595,-0.29376847,-0.43563226,-0.5200421,-0.33723775,791.75824,807.8755,812.3077,796.5934,687.8022,-0.05267333984375,0.065673828125,1.0032958984375,5.226287841796875,-0.0,0.201873779296875,1,2.0,1.0,1.0,2.0,75.00
2021-04-28 12:02:59.111,-0.16060007,0.5125048,0.2663457,0.21741986,0.37918323,0.18095891,0.10461589,0.28228712,0.63745636,0.3080728,0.07674708,0.37220126,0.304868,-0.09863096,-0.25521916,0.3774595,-0.29376847,-0.5168333,-0.59919626,-0.33723775,796.5934,808.68134,811.50183,793.36993,732.9304,-0.0318603515625,0.06536865234375,1.00347900390625,5.345916748046875,-3.446807861328125,2.6617431640625,1,2.0,1.0,1.0,2.0,75.00
2021-04-28 12:02:59.624,0.712648,0.461079,0.38955918,0.59336114,0.39886332,0.18728353,0.22067265,-0.11159608,0.045798182,0.29697084,0.39556572,0.04198842,-0.10369854,-0.15808631,-0.22193062,0.29662108,-0.4841521,-0.57102,-0.59774643,-0.43072447,793.7729,805.8608,805.4579,796.5934,724.0659,-0.061279296875,0.07666015625,0.99224853515625,5.196380615234375,-6.20574951171875,0.979461669921875,1,1.0,1.0,1.0,1.0,75.00
2021-04-28 12:03:00.152,0.7360862,0.12918103,0.63441074,0.5643054,0.3909264,-0.035906475,0.177128,-0.0974679,0.048527937,0.1515255,0.4506159,0.11763346,-0.11486041,-0.16007203,0.08996427,0.28328097,-0.4615379,-0.6424187,-0.6134087,-0.39691496,798.20514,798.20514,803.8461,794.17584,673.2967,0.08642578125,0.17431640625,0.99365234375,5.734710693359375,-3.641204833984375,23.46221923828125,1,1.0,1.0,1.0,1.0,75.00
2021-04-28 12:03:00.663,0.8062426,0.31703606,1.0008551,0.6048547,0.47644657,0.1820428,0.36775714,-0.027159268,-0.20344788,0.13505515,0.4506159,0.10934937,-0.1480202,-0.13425036,0.22524084,0.27633867,-0.4107899,-0.58452785,-0.5640062,-0.39023182,807.0696,808.68134,803.8461,808.68134,740.989,0.03704833984375,0.06805419921875,0.98443603515625,0.381317138671875,2.280426025390625,5.061798095703125,1,1.0,1.0,1.0,1.0,75.00
2021-04-28 12:03:01.183,0.82435197,0.47469875,1.1620076,0.586474,0.48293185,0.24689966,0.37852672,-0.0101105245,-0.31078646,0.13048622,0.4287902,0.09246865,-0.1703117,-0.13404167,0.30345812,0.25428805,-0.39256507,-0.5953615,-0.57850116,-0.37565017,893.2967,821.978,801.8315,878.3883,766.3736,0.07940673828125,0.08331298828125,1.0045166015625,5.38330078125,-4.8748779296875,-0.336456298828125,1,1.0,1.0,1.0,1.0,75.00
2021-04-28 12:03:01.711,0.82435197,0.47469875,1.3136404,0.586474,0.48293185,0.24689966,0.4728034,-0.0101105245,-0.31078646,0.13048622,0.27701202,0.09246865,-0.1703117,-0.13404167,0.2183147,0.25428805,-0.39256507,-0.5953615,-0.6908732,-0.37565017,809.89014,806.6667,804.65204,804.2491,823.1868,0.11529541015625,0.07818603515625,0.99456787109375,2.609405517578125,-6.5496826171875,0.545806884765625,1,1.0,1.0,1.0,1.0,75.00
2021-04-28 12:03:02.237,0.82435197,0.835861,0.5520936,0.586474,0.48293185,0.0529564,-0.26941016,-0.0101105245,-0.31078646,-0.29211804,-0.40693957,0.09246865,-0.1703117,-0.12180456,-0.16180585,0.25428805,-0.39256507,-0.5495081,-0.47520202,-0.37565017,570.9524,778.0586,850.58606,584.65204,779.2674,0.1168212890625,0.0758056640625,0.99444580078125,1.95892333984375,-2.452392578125,-1.323394775390625,1,1.0,1.0,1.0,1.0,75.00
2021-04-28 12:03:02.754,0.82435197,0.9701325,0.5520936,0.586474,0.48293185,0.31647798,-0.26941016,-0.0101105245,-0.31078646,-0.16648173,-0.40693957,0.09246865,-0.1703117,-0.11274283,-0.16180585,0.25428805,-0.39256507,-0.59147334,-0.47520202,-0.37565017,800.2198,808.2784,804.2491,801.8315,667.25275,0.05731201171875,0.07708740234375,0.99713134765625,6.452484130859375,-1.577606201171875,3.626251220703125,1,2.0,1.0,1.0,2.0,75.00
2021-04-28 12:03:03.259,0.82435197,0.9009017,0.37938046,0.586474,0.48293185,0.33968338,-0.5499346,-0.0101105245,-0.31078646,-0.18047933,-0.6734165,0.09246865,-0.1703117,-0.1150283,-0.16955917,0.25428805,-0.39256507,-0.53676534,-0.5852961,-0.37565017,836.8865,812.3077,784.90845,829.6337,717.619,0.05291748046875,0.07220458984375,0.99554443359375,2.79632568359375,-5.211334228515625,1.443023681640625,1,2.0,1.0,1.0,2.0,75.00
2021-04-28 12:03:03.785,0.82435197,0.8250947,0.40379852,0.586474,0.48293185,0.30531222,0.089007355,-0.0101105245,-0.31078646,0.0036506555,-0.0094747655,0.09246865,-0.1703117,-0.08020307,-0.41223526,0.25428805,-0.39256507,-0.4338208,-0.24224669,-0.37565017,883.22345,811.50183,795.78754,887.6557,781.685,0.046142578125,0.0755615234375,0.99749755859375,5.00946044921875,-5.12908935546875,-3.820648193359375,1,2.0,1.0,1.0,2.0,75.00
2021-04-28 12:03:04.292,0.82435197,0.54032457,1.1047053,0.586474,0.48293185,-0.26935253,0.38694832,-0.0101105245,-0.31078646,0.010305021,0.020308152,0.09246865,-0.1703117,-0.031967398,-0.30559778,0.25428805,-0.39256507,-0.4121323,-0.2799284,-0.37565017,816.337,805.05493,805.4579,804.2491,896.1172,0.08514404296875,0.08148193359375,0.98736572265625,9.630126953125,-11.31988525390625,3.671112060546875,1,2.0,1.0,1.0,2.0,75.00
2021-04-28 12:03:04.794,0.82435197,0.48480833,0.99264127,0.586474,0.48293185,-0.27104294,0.2566683,-0.0101105245,-0.31078646,0.10159246,0.04214722,0.09246865,-0.1703117,-0.08701797,-0.30594954,0.25428805,-0.39256507,-0.4422913,-0.2868192,-0.37565017,801.8315,803.8461,802.6374,799.81683,772.4176,0.0853271484375,0.1197509765625,0.99981689453125,6.467437744140625,-0.979461669921875,3.087921142578125,1,2.0,1.0,1.0,2.0,75.00
2021-04-28 12:03:05.296,0.82435197,0.48154423,0.9286362,0.586474,0.48293185,-0.123662435,0.18960507,-0.0101105245,-0.31078646,0.057006113,0.18219483,0.09246865,-0.1703117,-0.08081674,-0.2739286,0.25428805,-0.39256507,-0.49438673,-0.2515282,-0.37565017,797.8022,805.05493,799.011,792.1612,630.58606,0.13262939453125,0.13909912109375,0.99090576171875,5.45806884765625,-5.54779052734375,0.88226318359375,1,2.0,1.0,1.0,2.0,75.00
2021-04-28 12:03:05.799,0.82435197,0.50954026,0.4070042,0.586474,0.48293185,0.06008944,-0.06956362,-0.0101105245,-0.31078646,0.1520711,0.15217182,0.09246865,-0.1703117,-0.049037345,-0.20633873,0.25428805,-0.39256507,-0.4595426,-0.31085193,-0.37565017,978.71796,858.24176,762.74725,944.0659,792.1612,0.0419921875,0.1253662109375,0.969970703125,5.09918212890625,-7.873077392578125,-25.55572509765625,1,2.0,1.0,1.0,2.0,75.00
2021-04-28 12:03:06.302,0.82435197,0.5726824,0.37612265,0.586474,0.48293185,0.16340072,0.01089451,-0.0101105245,-0.31078646,0.10515081,0.15217182,0.09246865,-0.1703117,0.017547818,-0.1774338,0.25428805,-0.39256507,-0.43646938,-0.31338638,-0.37565017,808.2784,804.2491,807.8755,808.68134,716.0073,0.06951904296875,0.16424560546875,0.9866943359375,3.887939453125,-6.50482177734375,-1.338348388671875,1,2.0,1.0,1.0,2.0,75.00
2021-04-28 12:03:06.826,0.82435197,0.80774194,0.6087941,0.586474,0.48293185,0.25147763,0.12671833,-0.0101105245,-0.31078646,0.09872524,0.15061772,0.09246865,-0.1703117,0.081079364,-0.055169873,0.25428805,-0.39256507,-0.42316177,-0.56615967,-0.37565017,790.14655,802.23444,800.6227,795.78754,620.5128,0.1290283203125,0.1737060546875,0.98089599609375,5.166473388671875,-7.514190673828125,1.487884521484375,1,2.0,1.0,1.0,2.0,75.00
2021-04-28 12:03:07.327,0.82435197,0.30646628,0.20729984,0.586474,0.48293185,-0.1923244,-0.06064594,-0.0101105245,-0.31078646,0.21692842,-0.18094571,0.09246865,-0.1703117,-0.34538606,-0.22946481,0.25428805,-0.39256507,-0.59831804,-0.7426543,-0.37565017,803.44324,801.4286,798.20514,796.1905,885.2381,0.13079833984375,0.2095947265625,0.9630126953125,8.381500244140625,-9.04693603515625,9.951629638671875,1,2.0,1.0,1.0,2.0,75.00
2021-04-28 12:03:07.845,1.101026,0.5493598,0.35122192,1.3141569,0.7861454,0.08364213,0.1553214,1.0246677,0.7688785,0.45071357,-0.08866924,0.51688325,0.13086683,-0.16516575,-0.0752237,0.18235576,-0.10060804,-0.44603214,-0.62967765,-0.20102085,822.7839,810.696,792.5641,805.4579,785.31134,0.180419921875,0.1629638671875,0.96026611328125,-0.52337646484375,-2.056121826171875,-7.5067138671875,1,1.0,1.0,1.0,1.0,75.00
2021-04-28 12:03:08.370,0.95663303,0.6610406,0.4328493,1.1890484,0.5813958,0.16092049,0.14421536,0.89447033,0.7688785,0.5838956,0.09824444,0.51688325,0.18060313,-0.06971261,-0.050464317,0.20800282,-0.11815948,-0.5014341,-0.6557009,-0.1890948,813.5165,801.02563,796.5934,809.0842,691.02563,0.13116455078125,0.180908203125,0.96417236328125,8.246917724609375,-3.461761474609375,4.246826171875,1,1.0,1.0,1.0,1.0,75.00
2021-04-28 12:03:08.882,0.84469825,0.6723869,0.46155852,1.000563,0.45183587,0.22906679,0.13516109,0.71111894,0.70916796,0.5883343,0.23081012,0.77199554,0.26412144,0.023495747,-0.022475561,0.28438038,-0.12704284,-0.41723076,-0.61879694,-0.18121645,796.5934,796.1905,804.2491,808.68134,733.3333,0.1175537109375,0.220458984375,0.97235107421875,4.3963623046875,-3.21502685546875,2.13836669921875,1,1.0,1.0,1.0,1.0,75.00
2021-04-28 12:03:09.407,0.5842253,0.71147835,0.48273218,0.5185545,0.31449854,0.23076923,0.064595476,0.35566583,0.477163,0.597872,0.21536374,0.75779045,0.29976094,0.038807217,-0.060925487,0.33570695,-0.15127526,-0.46962678,-0.6345893,-0.20379554,824.3956,808.2784,787.72894,816.337,741.79486,0.05865478515625,0.15863037109375,0.9794921875,-2.91595458984375,2.983245849609375,4.5458984375,1,1.0,1.0,1.0,1.0,75.00
2021-04-28 12:03:09.913,0.51164746,0.8852585,0.41451585,0.5855462,0.50992095,0.31399804,0.014669088,0.48271754,0.477163,0.3600291,0.15267327,0.75779045,0.35272107,0.016081315,-0.097694136,0.38597697,-0.15149787,-0.4275816,-0.5936124,-0.24384065,823.9927,804.2491,801.4286,820.7692,859.45056,0.032470703125,0.07830810546875,0.99407958984375,-1.039276123046875,-5.286102294921875,-13.99658203125,1,1.0,1.0,1.0,1.0,75.00
2021-04-28 12:03:10.419,0.5115317,0.9510398,0.5002393,0.60762745,0.5747254,0.28240782,0.104500234,0.5346852,0.477163,0.30813494,0.08975933,0.75779045,0.37006614,-0.024981312,-0.036043502,0.4201026,-0.13668898,-0.5754496,-0.5294767,-0.26741624,820.3663,802.23444,809.89014,815.12823,799.41394,-0.00799560546875,0.083251953125,1.00982666015625,4.35150146484375,1.517791748046875,-7.319793701171875,1,1.0,1.0,1.0,1.0,75.00
2021-04-28 12:03:10.939,0.5115317,0.33110112,0.21918358,0.60762745,0.5747254,0.16754657,-0.04554785,0.5346852,0.477163,0.23731945,-0.036095843,0.75779045,0.37006614,-0.14145787,-0.084762886,0.4201026,-0.13668898,-0.6675124,-0.50170255,-0.26741624,792.96704,807.8755,804.2491,796.1905,652.3443,0.0283203125,0.0919189453125,0.99505615234375,3.805694580078125,-3.51409912109375,6.10107421875,1,1.0,1.0,1.0,1.0,75.00
2021-04-28 12:03:11.449,0.5115317,0.4701169,0.3371268,0.60762745,0.5747254,0.4139274,0.053579856,0.5346852,0.477163,0.4021993,0.15997066,0.75779045,0.37006614,-0.17298667,-0.07240925,0.4201026,-0.13668898,-0.6654874,-0.53275436,-0.26741624,797.8022,809.0842,798.60803,791.3553,768.3883,0.005859375,0.05572509765625,0.99359130859375,3.3197021484375,-3.96270751953125,13.7872314453125,1,1.0,1.0,1.0,1.0,75.00
2021-04-28 12:03:11.950,0.5115317,0.36219618,0.26271024,0.60762745,0.5747254,0.3908197,-0.0060149576,0.5346852,0.477163,0.47692087,0.13073109,0.75779045,0.37006614,-0.24507764,-0.11932312,0.4201026,-0.13668898,-0.6380945,-0.5575673,-0.26741624,801.4286,809.4872,803.44324,801.02563,671.685,-0.0196533203125,0.03936767578125,0.99261474609375,3.955230712890625,-11.611480712890625,8.336639404296875,1,2.0,1.0,1.0,2.0,75.00
2021-04-28 12:03:12.462,0.63302326,0.40948364,0.31045264,0.8328531,0.48907036,0.41489616,-0.0085398005,0.2680825,0.447551,0.53331494,0.14915632,0.08800629,0.36857924,-0.26159653,-0.10068848,0.27019534,-0.4434304,-0.622972,-0.6122801,-0.40591085,811.0989,805.05493,803.0403,811.50183,728.49817,0.034423828125,0.02532958984375,1.005126953125,2.9608154296875,-1.592559814453125,-1.4056396484375,1,1.0,1.0,1.0,1.0,75.00
2021-04-28 12:03:12.972,0.8642968,0.00915981,-0.0063956683,0.8213522,0.4779443,-0.031434298,-0.29704565,0.31115496,0.5386033,0.38004047,0.016659044,0.24610159,0.26755247,-0.23334457,-0.19044532,0.18639588,-0.5234912,-0.5723861,-0.7159755,-0.3667088,807.8755,805.8608,793.36993,806.6667,893.2967,0.07122802734375,0.08477783203125,0.99560546875,7.596435546875,-3.09539794921875,1.727142333984375,1,1.0,1.0,1.0,1.0,75.00
2021-04-28 12:03:13.474,0.7819321,-0.03227446,-0.053969268,0.71445996,0.4768337,-0.09012445,-0.28934577,0.43319988,0.5349131,0.344664,0.022990674,0.31506047,0.15736939,-0.1701258,-0.17733903,0.1377318,-0.54025555,-0.5582895,-0.7389096,-0.3407079,821.978,807.0696,805.8608,819.15753,786.1172,0.0404052734375,0.07025146484375,0.999267578125,6.497344970703125,3.446807861328125,1.60003662109375,1,1.0,1.0,1.0,1.0,75.00
2021-04-28 12:03:13.989,0.6015151,-0.27813858,-0.17584144,0.4632759,0.36380804,-0.14222303,-0.3068463,0.48022267,0.48859718,0.0036795598,0.07836793,0.38182262,0.050730623,-0.1801602,-0.17395808,0.09905578,-0.55092216,-0.54249537,-0.7440307,-0.35912332,811.50183,802.6374,803.0403,810.293,716.0073,1.8310546875E-4,0.09552001953125,0.999267578125,4.882354736328125,-1.547698974609375,2.071075439453125,1,1.0,1.0,1.0,1.0,65.00
