TimeStamp,Delta_TP9,Delta_AF7,Delta_AF8,Delta_TP10,Theta_TP9,Theta_AF7,Theta_AF8,Theta_TP10,Alpha_TP9,Alpha_AF7,Alpha_AF8,Alpha_TP10,Beta_TP9,Beta_AF7,Beta_AF8,Beta_TP10,Gamma_TP9,Gamma_AF7,Gamma_AF8,Gamma_TP10,RAW_TP9,RAW_AF7,RAW_AF8,RAW_TP10,AUX_RIGHT,Accelerometer_X,Accelerometer_Y,Accelerometer_Z,Gyro_X,Gyro_Y,Gyro_Z,HeadBandOn,HSI_TP9,HSI_AF7,HSI_AF8,HSI_TP10,Battery,Elements
2021-04-17 11:46:58.054,1.5312132,0.4080625,0.2888259,1.0795192,0.9268837,0.47337294,0.007957687,0.80632436,1.1076789,0.7105589,0.24015158,1.0838914,1.3285967,0.66209114,0.7255763,1.3770919,0.8245857,0.3494663,0.3216265,1.0099694,698.68134,807.0696,828.4249,683.36993,983.1502,-0.18798828125,0.01239013671875,0.9757080078125,0.657958984375,-5.2337646484375,10.826416015625,1,1.0,1.0,1.0,1.0,55.00
2021-04-17 11:46:58.200,,,,,,,,,,,,,,,,,,,,,,,,,,,,,,,,,,,,,,/muse/elements/blink
2021-04-17 11:46:58.562,,,,,,,,,,,,,,,,,,,,,,,,,,,,,,,,,,,,,,/muse/elements/blink
2021-04-17 11:46:58.563,1.5312132,0.38861004,0.38844603,1.0795192,0.9268837,0.52843654,0.08273723,0.80632436,1.1076789,0.9618424,0.26761755,1.0838914,1.3285967,0.6191793,0.6729109,1.3770919,0.8245857,0.3129639,0.34535098,1.0099694,646.30035,849.3773,792.96704,632.1978,865.09155,-0.15869140625,-0.03131103515625,0.9906005859375,-6.407623291015625,-10.504913330078125,18.5125732421875,1,1.0,1.0,1.0,1.0,55.00
2021-04-17 11:46:59.070,1.6047486,0.5781477,0.5418014,1.0795192,0.98697495,0.72284067,0.047723085,0.80632436,1.1076789,1.0155351,0.2537777,1.0838914,1.3557559,0.6405554,0.54155505,1.3770919,0.86179775,0.30426657,0.43268088,1.0099694,747.4359,833.2601,826.4103,735.7509,882.4176,-0.17059326171875,-0.04534912109375,0.9827880859375,5.211334228515625,-3.446807861328125,10.99090576171875,1,1.0,1.0,1.0,1.0,55.00
2021-04-17 11:46:59.416,,,,,,,,,,,,,,,,,,,,,,,,,,,,,,,,,,,,,,/muse/elements/blink
2021-04-17 11:46:59.577,1.6047486,0.6615929,0.52540725,1.0795192,0.98697495,0.74507374,0.07305398,0.80632436,1.1076789,1.0106977,0.14663032,1.0838914,1.3557559,0.65871227,0.5008327,1.3770919,0.86179775,0.18763039,0.4347349,1.0099694,786.1172,864.68866,817.9487,804.2491,900.9524,-0.1192626953125,-0.001220703125,0.98980712890625,7.49176025390625,-9.85443115234375,1.51031494140625,1,1.0,1.0,1.0,1.0,55.00
2021-04-17 11:47:00.086,1.6047486,0.8246805,0.52540725,1.0795192,0.98697495,0.8846358,0.07305398,0.80632436,1.1076789,0.9525435,0.14663032,1.0838914,1.3557559,0.71326584,0.5008327,1.3770919,0.86179775,0.23107667,0.4347349,1.0099694,739.3773,832.4542,810.293,696.26373,833.2601,-0.0574951171875,0.02130126953125,1.00482177734375,4.568328857421875,-8.172149658203125,2.385101318359375,1,1.0,1.0,1.0,1.0,55.00
2021-04-17 11:47:00.605,1.6047486,0.87648314,0.8750392,1.0795192,0.98697495,0.8891905,1.0700127,0.80632436,1.1076789,0.8830659,0.62802136,1.0838914,1.3557559,0.7091816,0.7373668,1.3770919,0.86179775,0.24944617,0.20507474,1.0099694,719.6337,817.1429,774.83514,683.7729,826.8132,-0.05621337890625,0.04443359375,1.014892578125,7.25250244140625,-7.140350341796875,-1.757049560546875,1,1.0,1.0,1.0,1.0,55.00
2021-04-17 11:47:00.674,,,,,,,,,,,,,,,,,,,,,,,,,,,,,,,,,,,,,,/muse/elements/blink
2021-04-17 11:47:01.114,0.4196514,0.4614339,0.64629555,1.0795192,0.77972525,0.39726436,0.7691621,0.80632436,0.7575031,0.464437,0.7109123,1.0838914,1.2896073,0.33600652,0.6900555,1.3770919,0.951013,0.4191075,0.27501035,1.0099694,749.0476,849.7802,801.02563,773.6264,919.4872,0.0372314453125,0.068603515625,1.04962158203125,4.91973876953125,-6.930999755859375,10.639495849609375,1,1.0,1.0,1.0,1.0,55.00
2021-04-17 11:47:01.635,0.4196514,0.69988054,0.4571592,1.0795192,0.77972525,0.39924133,0.023071878,0.80632436,0.7575031,0.565513,0.31111374,1.0838914,1.2896073,0.47886533,0.62973225,1.3770919,0.951013,0.25058737,0.22374862,1.0099694,572.1612,855.0183,751.8681,564.10254,890.87915,-0.0084228515625,0.0333251953125,0.9879150390625,9.308624267578125,-15.83587646484375,-23.70147705078125,1,1.0,1.0,1.0,1.0,55.00
2021-04-17 11:47:01.864,,,,,,,,,,,,,,,,,,,,,,,,,,,,,,,,,,,,,,/muse/elements/blink
2021-04-17 11:47:02.146,0.4196514,0.84334165,0.44712153,1.0795192,0.77972525,0.6548615,-0.0060405093,0.80632436,0.7575031,0.73441637,0.36249578,1.0838914,1.2896073,0.51917404,0.63536674,1.3770919,0.951013,0.1798275,0.17104396,1.0099694,864.2857,860.65936,802.23444,803.0403,882.4176,-0.08056640625,0.0557861328125,0.99945068359375,13.6077880859375,0.91217041015625,-17.353668212890625,1,1.0,1.0,1.0,1.0,55.00
2021-04-17 11:47:02.652,0.4196514,1.0632246,0.53030187,1.0795192,0.77972525,1.0091122,-0.0714765,0.80632436,0.7575031,0.834521,0.27578157,1.0838914,1.2896073,0.59890956,0.62603325,1.3770919,0.951013,0.039337818,0.015411097,1.0099694,899.34064,844.5421,829.6337,864.68866,896.1172,-0.107421875,0.023193359375,1.0052490234375,2.250518798828125,-4.11224365234375,-3.536529541015625,1,1.0,1.0,1.0,1.0,55.00
2021-04-17 11:47:03.080,,,,,,,,,,,,,,,,,,,,,,,,,,,,,,,,,,,,,,/muse/elements/blink
2021-04-17 11:47:03.161,0.4196514,1.0874515,0.7229556,1.0795192,0.77972525,1.0564795,0.6963057,0.80632436,0.7575031,0.8597186,0.6628053,1.0838914,1.2896073,0.5660334,0.5377185,1.3770919,0.951013,0.1494949,0.10970285,1.0099694,845.7509,829.2308,813.5165,826.4103,1024.249,-0.09222412109375,0.099853515625,1.00555419921875,8.291778564453125,-0.59814453125,1.173858642578125,1,1.0,1.0,1.0,1.0,55.00
2021-04-17 11:47:03.674,0.4196514,1.0004003,0.6263649,1.0795192,0.77972525,1.006601,0.5965638,0.80632436,0.7575031,0.85796964,0.66331816,1.0838914,1.2896073,0.4933789,0.47697577,1.3770919,0.951013,0.13379934,0.079590164,1.0099694,863.0769,821.5751,793.36993,876.77655,1209.1941,-0.16632080078125,0.07080078125,0.99224853515625,2.28790283203125,-1.12152099609375,4.41131591796875,1,2.0,1.0,1.0,2.0,55.00
2021-04-17 11:47:03.938,,,,,,,,,,,,,,,,,,,,,,,,,,,,,,,,,,,,,,/muse/elements/blink
2021-04-17 11:47:04.187,0.4196514,0.8307449,0.47465894,1.0795192,0.77972525,0.7114721,0.46173242,0.80632436,0.7575031,0.6481808,0.6836127,1.0838914,1.2896073,0.45847479,0.51352656,1.3770919,0.951013,0.056361523,0.060973484,1.0099694,740.18317,858.24176,811.50183,759.5238,777.6557,-0.180419921875,0.0555419921875,0.9908447265625,3.96270751953125,-8.314208984375,3.626251220703125,1,2.0,1.0,1.0,2.0,55.00
2021-04-17 11:47:04.698,0.4196514,0.74948025,0.4290383,1.0795192,0.77972525,0.6907025,0.17161228,0.80632436,0.7575031,0.37593514,0.36302024,1.0838914,1.2896073,0.43874547,0.57255054,1.3770919,0.951013,-0.10003478,0.04418822,1.0099694,772.8205,823.9927,797.8022,752.674,952.9304,-0.18682861328125,0.05133056640625,0.9754638671875,3.267364501953125,-2.4224853515625,-0.70281982421875,1,2.0,1.0,1.0,2.0,55.00
2021-04-17 11:47:04.910,,,,,,,,,,,,,,,,,,,,,,,,,,,,,,,,,,,,,,/muse/elements/blink
2021-04-17 11:47:05.209,0.4196514,0.72043157,0.37702686,1.0795192,0.77972525,0.5722274,0.14819327,0.80632436,0.7575031,0.3739,0.4378203,1.0838914,1.2896073,0.41619414,0.549202,1.3770919,0.951013,-0.050669797,0.10689993,1.0099694,842.9304,861.8681,792.1612,783.2967,911.8315,-0.21185302734375,0.0374755859375,0.9798583984375,3.768310546875,-2.788848876953125,-1.263580322265625,1,2.0,1.0,1.0,2.0,55.00
2021-04-17 11:47:05.714,0.4196514,0.85480964,0.56547254,1.0795192,0.77972525,0.62033653,0.30563,0.80632436,0.7575031,0.86119854,0.61719644,1.0838914,1.2896073,0.2552254,0.5065339,1.3770919,0.951013,0.17935267,0.1390622,1.0099694,791.75824,852.6007,836.8865,782.8938,820.7692,-0.241943359375,0.01416015625,0.96832275390625,4.373931884765625,-4.05242919921875,-0.418701171875,1,2.0,1.0,1.0,2.0,55.00
2021-04-17 11:47:06.236,0.4196514,0.83322096,0.6022908,1.0795192,0.77972525,0.67633957,0.26629117,0.80632436,0.7575031,0.8729189,0.570663,1.0838914,1.2896073,0.33848497,0.46482465,1.3770919,0.951013,0.07626562,0.07353052,1.0099694,823.5897,835.2747,782.49084,782.0879,827.619,-0.2255859375,0.02545166015625,0.9737548828125,4.702911376953125,-6.587066650390625,-0.07476806640625,1,2.0,1.0,1.0,2.0,55.00
2021-04-17 11:47:06.763,0.4196514,0.91374916,0.7246936,1.0795192,0.77972525,0.6162432,0.36819336,0.80632436,0.7575031,0.8975046,0.5839661,1.0838914,1.2896073,0.40231636,0.5274756,1.3770919,0.951013,0.08998996,0.07131198,1.0099694,796.1905,836.08057,808.2784,758.315,842.9304,-0.218994140625,0.01287841796875,0.98480224609375,5.36834716796875,-6.34033203125,2.13836669921875,1,2.0,1.0,1.0,2.0,55.00
2021-04-17 11:47:07.270,0.4196514,0.83779603,0.66153365,1.0795192,0.77972525,0.5620586,0.25865003,0.80632436,0.7575031,0.87450606,0.55224913,1.0838914,1.2896073,0.44875556,0.53402835,1.3770919,0.951013,0.030955512,0.06364045,1.0099694,802.23444,830.84247,824.7985,799.41394,854.61536,-0.2274169921875,0.0130615234375,0.98406982421875,5.076751708984375,-5.48797607421875,1.786956787109375,1,2.0,1.0,1.0,2.0,55.00
2021-04-17 11:47:07.772,0.4196514,0.8038778,0.4146605,1.0795192,0.77972525,0.63792634,0.31803036,0.80632436,0.7575031,0.43821838,0.5020543,1.0838914,1.2896073,0.4288045,0.48925656,1.3770919,0.951013,0.06119279,0.18359073,1.0099694,848.1685,823.1868,784.90845,819.5604,1175.751,-0.22418212890625,0.02386474609375,0.9791259765625,4.673004150390625,-4.269256591796875,1.136474609375,1,2.0,1.0,1.0,2.0,55.00
2021-04-17 11:47:08.210,,,,,,,,,,,,,,,,,,,,,,,,,,,,,,,,,,,,,,/muse/elements/jaw_clench
2021-04-17 11:47:08.285,0.4196514,0.5581326,0.12654759,1.0795192,0.77972525,0.6087779,0.3023579,0.80632436,0.7575031,0.4123684,0.5388635,1.0838914,1.2896073,0.37082684,0.4237401,1.3770919,0.951013,-0.019846175,0.1437478,1.0099694,765.56775,847.3626,802.6374,767.98535,724.0659,-0.23468017578125,0.02362060546875,0.9754638671875,3.177642822265625,-6.220703125,3.461761474609375,1,2.0,1.0,1.0,2.0,55.00
2021-04-17 11:47:08.483,,,,,,,,,,,,,,,,,,,,,,,,,,,,,,,,,,,,,,/muse/elements/jaw_clench
2021-04-17 11:47:08.712,,,,,,,,,,,,,,,,,,,,,,,,,,,,,,,,,,,,,,/muse/elements/blink
2021-04-17 11:47:08.793,0.4196514,0.39084882,-0.0113585405,0.82693267,0.77972525,0.5731668,0.35700804,0.92155963,0.7575031,0.31731838,0.6887414,1.1273024,1.2896073,0.33512634,0.4181759,1.2729498,0.951013,-0.08205702,0.15678093,0.7857579,788.5348,819.5604,793.36993,753.0769,918.68134,-0.2552490234375,-0.00384521484375,0.96160888671875,5.03936767578125,-2.968292236328125,0.1495361328125,1,1.0,1.0,1.0,1.0,55.00
2021-04-17 11:47:09.305,1.3091527,0.21960054,-0.08335733,0.701286,1.4549835,0.42574668,0.30509263,0.8864187,1.2065512,0.21329224,0.6887414,1.1228473,1.1246191,0.27988455,0.43607393,1.2736803,0.6059032,-0.14553165,0.05797793,0.8193719,770.0,819.9634,800.2198,731.7216,911.8315,-0.220947265625,0.043212890625,0.98114013671875,5.2935791015625,-6.078643798828125,3.54400634765625,1,1.0,1.0,1.0,1.0,55.00
2021-04-17 11:47:09.836,1.3535832,0.2831082,-0.15107189,0.701286,1.4835966,0.45135525,0.17334868,0.8864187,1.2065512,0.19783708,0.6060738,1.1228473,1.1222916,0.32785666,0.44195545,1.2736803,0.52097297,-0.12117544,0.008577697,0.8193719,788.1319,831.6484,821.1722,790.9524,772.8205,-0.23834228515625,0.00921630859375,0.97381591796875,5.226287841796875,-5.241241455078125,-1.31591796875,1,1.0,1.0,1.0,1.0,55.00
2021-04-17 11:47:10.125,,,,,,,,,,,,,,,,,,,,,,,,,,,,,,,,,,,,,,/muse/elements/jaw_clench
2021-04-17 11:47:10.260,,,,,,,,,,,,,,,,,,,,,,,,,,,,,,,,,,,,,,/muse/elements/blink
2021-04-17 11:47:10.346,1.3557417,0.40091437,-0.034152597,0.701286,1.4522809,0.43965134,0.003758322,0.8864187,1.1518781,0.45874688,0.42177093,1.1228473,1.1250212,0.31875739,0.4645264,1.2736803,0.48548254,-0.071836,-0.05881946,0.8193719,791.3553,831.6484,796.99634,798.60803,915.05493,-0.1451416015625,0.0318603515625,0.9754638671875,17.368621826171875,-20.277099609375,-55.2685546875,1,1.0,1.0,1.0,1.0,55.00
2021-04-17 11:47:10.570,,,,,,,,,,,,,,,,,,,,,,,,,,,,,,,,,,,,,,/muse/elements/blink
2021-04-17 11:47:10.867,1.1328715,0.647007,0.6099093,0.701286,1.1271759,0.42070487,0.038853183,0.8864187,0.81671506,0.48333922,0.34594607,1.1228473,1.1127698,0.34855324,0.4926677,1.2736803,0.48287922,-0.025203738,0.0030611935,0.8193719,893.69965,821.1722,822.381,871.9414,946.08057,-0.02069091796875,0.07415771484375,1.00091552734375,4.7552490234375,-5.00946044921875,7.020721435546875,1,1.0,1.0,1.0,1.0,55.00
2021-04-17 11:47:10.918,,,,,,,,,,,,,,,,,,,,,,,,,,,,,,,,,,,,,,/muse/elements/blink
2021-04-17 11:47:10.918,,,,,,,,,,,,,,,,,,,,,,,,,,,,,,,,,,,,,,/muse/elements/jaw_clench
2021-04-17 11:47:11.253,,,,,,,,,,,,,,,,,,,,,,,,,,,,,,,,,,,,,,/muse/elements/blink
2021-04-17 11:47:11.378,1.1328715,0.84177864,0.78014463,0.701286,1.1271759,0.52226526,0.1181758,0.8864187,0.81671506,0.4740089,0.22284982,1.1228473,1.1127698,0.3025961,0.5285696,1.2736803,0.48287922,0.022675307,0.037450675,0.8193719,763.95605,817.1429,822.7839,738.5714,734.1392,-0.07745361328125,0.024658203125,0.98956298828125,1.57012939453125,0.246734619140625,16.9873046875,1,1.0,1.0,1.0,1.0,55.00
2021-04-17 11:47:11.612,,,,,,,,,,,,,,,,,,,,,,,,,,,,,,,,,,,,,,/muse/elements/jaw_clench
2021-04-17 11:47:11.883,1.1328715,0.9682807,0.97171664,0.701286,1.1271759,0.6007571,0.271375,0.8864187,0.81671506,0.466071,0.18051587,1.1228473,1.1127698,0.28797966,0.5299679,1.2736803,0.48287922,0.028422326,0.1184317,0.8193719,665.64105,821.5751,779.67035,666.4469,744.61536,-0.15875244140625,0.0780029296875,0.99652099609375,5.084228515625,1.472930908203125,22.490234375,1,1.0,1.0,1.0,1.0,55.00
2021-04-17 11:47:11.967,,,,,,,,,,,,,,,,,,,,,,,,,,,,,,,,,,,,,,/muse/elements/jaw_clench
2021-04-17 11:47:12.131,,,,,,,,,,,,,,,,,,,,,,,,,,,,,,,,,,,,,,/muse/elements/blink
2021-04-17 11:47:12.396,1.1328715,0.9682807,1.0025253,0.701286,1.1271759,0.6007571,0.34790373,0.8864187,0.81671506,0.466071,0.067058854,1.1228473,1.1127698,0.28797966,0.48329723,1.2736803,0.48287922,0.028422326,0.17767785,0.8193719,719.2308,830.4396,794.9817,733.3333,974.2857,-0.1507568359375,0.01336669921875,0.99407958984375,2.2430419921875,-8.50860595703125,8.62823486328125,1,2.0,1.0,1.0,2.0,55.00
2021-04-17 11:47:12.469,,,,,,,,,,,,,,,,,,,,,,,,,,,,,,,,,,,,,,/muse/elements/jaw_clench
2021-04-17 11:47:12.736,,,,,,,,,,,,,,,,,,,,,,,,,,,,,,,,,,,,,,/muse/elements/jaw_clench
2021-04-17 11:47:12.902,1.1328715,0.9682807,0.024940308,0.701286,1.1271759,0.6007571,0.0453195,0.8864187,0.81671506,0.466071,0.36363673,1.1228473,1.1127698,0.28797966,0.6131604,1.2736803,0.48287922,0.028422326,-0.2353614,0.8193719,871.9414,812.3077,809.0842,855.82416,838.49817,-0.14483642578125,0.0234375,1.03515625,6.29547119140625,-5.988922119140625,12.30682373046875,1,2.0,1.0,1.0,2.0,55.00
2021-04-17 11:47:13.250,,,,,,,,,,,,,,,,,,,,,,,,,,,,,,,,,,,,,,/muse/elements/jaw_clench
2021-04-17 11:47:13.373,,,,,,,,,,,,,,,,,,,,,,,,,,,,,,,,,,,,,,/muse/elements/blink
2021-04-17 11:47:13.406,1.1328715,0.70342773,0.007094411,0.701286,1.1271759,0.13988405,-0.018845446,0.8864187,0.81671506,0.25659966,0.36363673,1.1228473,1.1127698,0.301271,0.60265017,1.2736803,0.48287922,-0.3104016,-0.28706485,0.8193719,892.8938,817.9487,811.50183,860.2564,868.71796,-0.04132080078125,0.066650390625,0.99908447265625,5.001983642578125,-4.11224365234375,14.96856689453125,1,2.0,1.0,1.0,2.0,55.00
2021-04-17 11:47:13.603,,,,,,,,,,,,,,,,,,,,,,,,,,,,,,,,,,,,,,/muse/elements/jaw_clench
2021-04-17 11:47:13.861,,,,,,,,,,,,,,,,,,,,,,,,,,,,,,,,,,,,,,/muse/elements/jaw_clench
2021-04-17 11:47:13.911,1.1328715,0.6587434,0.3298537,0.701286,1.1271759,0.32404417,-0.018736886,0.8864187,0.81671506,0.53287154,0.3515401,1.1228473,1.1127698,0.25538224,0.6098256,1.2736803,0.48287922,-0.3196061,-0.24904719,0.8193719,679.7436,829.6337,790.9524,704.3223,869.92676,-0.17041015625,0.0389404296875,0.9803466796875,2.03369140625,-2.175750732421875,16.635894775390625,1,2.0,1.0,1.0,2.0,55.00
2021-04-17 11:47:14.291,,,,,,,,,,,,,,,,,,,,,,,,,,,,,,,,,,,,,,/muse/elements/jaw_clench
2021-04-17 11:47:14.422,1.1328715,0.95143336,0.7201822,0.701286,1.1271759,0.5573088,0.1603451,0.8864187,0.81671506,0.6801249,0.31265715,1.1228473,1.1127698,0.2513332,0.5416517,1.2736803,0.48287922,-0.27189532,-0.071641535,0.8193719,866.30035,823.9927,805.05493,865.09155,952.9304,-0.16937255859375,0.03546142578125,0.99237060546875,3.5589599609375,-5.749664306640625,1.1065673828125,1,2.0,1.0,1.0,2.0,55.00
2021-04-17 11:47:14.589,,,,,,,,,,,,,,,,,,,,,,,,,,,,,,,,,,,,,,/muse/elements/blink
2021-04-17 11:47:14.589,,,,,,,,,,,,,,,,,,,,,,,,,,,,,,,,,,,,,,/muse/elements/jaw_clench
2021-04-17 11:47:14.950,0.77788407,1.0583493,0.868107,0.701286,0.9694392,0.6460976,0.29162258,0.8864187,0.6725292,0.6801249,0.61321753,1.1228473,0.992921,0.29317987,0.42060226,1.2736803,0.8694842,-0.2501885,0.01844634,0.8193719,908.60803,828.8278,815.9341,886.04395,951.31866,-0.08514404296875,0.09136962890625,0.98193359375,13.061981201171875,-6.05621337890625,-34.430694580078125,1,1.0,1.0,1.0,1.0,55.00
2021-04-17 11:47:15.411,,,,,,,,,,,,,,,,,,,,,,,,,,,,,,,,,,,,,,/muse/elements/jaw_clench
2021-04-17 11:47:15.471,0.9255953,1.4650252,1.0137854,0.701286,0.99377364,1.0003214,0.5955749,0.8864187,0.89474165,0.8149052,0.70677364,1.1228473,0.981414,0.33417135,0.35311142,1.2736803,0.82779396,-0.21432182,0.044881426,0.8193719,747.03296,818.7546,814.7253,696.26373,735.34796,-0.1182861328125,0.07562255859375,0.99273681640625,8.037567138671875,-3.581390380859375,-11.31988525390625,1,1.0,1.0,1.0,1.0,55.00
2021-04-17 11:47:15.822,,,,,,,,,,,,,,,,,,,,,,,,,,,,,,,,,,,,,,/muse/elements/jaw_clench
2021-04-17 11:47:15.883,,,,,,,,,,,,,,,,,,,,,,,,,,,,,,,,,,,,,,/muse/elements/blink
2021-04-17 11:47:15.973,0.96713537,1.4989324,0.8848724,0.701286,0.9902748,1.0570848,0.543961,0.8864187,0.8918402,0.7598952,0.6734257,1.1228473,0.9791886,0.32862872,0.28981388,1.2736803,0.8352607,-0.2684064,-0.01124933,0.8193719,886.04395,805.05493,809.4872,878.3883,881.6117,-0.0887451171875,0.0545654296875,0.998046875,6.243133544921875,-7.955322265625,-5.899200439453125,1,1.0,1.0,1.0,1.0,55.00
2021-04-17 11:47:16.010,,,,,,,,,,,,,,,,,,,,,,,,,,,,,,,,,,,,,,/muse/elements/jaw_clench
2021-04-17 11:47:16.207,,,,,,,,,,,,,,,,,,,,,,,,,,,,,,,,,,,,,,/muse/elements/jaw_clench
2021-04-17 11:47:16.486,1.102461,1.3420546,0.72683305,0.701286,1.0399247,0.9453753,0.4688967,0.8864187,0.8737273,0.76098186,0.6681892,1.1228473,0.95753884,0.3111384,0.31644994,1.2736803,0.80189,-0.2497248,-0.058498465,0.8193719,793.36993,805.05493,817.9487,824.7985,810.696,-0.09918212890625,0.06402587890625,0.9896240234375,4.373931884765625,-7.49176025390625,8.575897216796875,1,1.0,1.0,1.0,1.0,55.00
2021-04-17 11:47:16.987,1.102461,0.32967556,0.24070702,0.701286,1.0399247,0.45914337,0.19805962,0.8864187,0.8737273,0.60055965,0.4699932,1.1228473,0.95753884,0.3237028,0.30470031,1.2736803,0.80189,-0.16724065,-0.022531059,0.8193719,861.8681,817.1429,813.5165,847.3626,811.9048,-0.00433349609375,0.10064697265625,1.017822265625,8.321685791015625,-13.809661865234375,0.770111083984375,1,1.0,1.0,1.0,1.0,55.00
2021-04-17 11:47:17.021,,,,,,,,,,,,,,,,,,,,,,,,,,,,,,,,,,,,,,/muse/elements/jaw_clench
2021-04-17 11:47:17.089,,,,,,,,,,,,,,,,,,,,,,,,,,,,,,,,,,,,,,/muse/elements/blink
2021-04-17 11:47:17.350,,,,,,,,,,,,,,,,,,,,,,,,,,,,,,,,,,,,,,/muse/elements/jaw_clench
2021-04-17 11:47:17.511,1.102461,0.26381746,0.27392644,0.701286,1.0399247,0.4293308,0.2943609,0.8864187,0.8737273,0.60055965,0.4690171,1.1228473,0.95753884,0.3038694,0.2910411,1.2736803,0.80189,-0.16744103,-0.055969432,0.8193719,925.12823,816.337,811.50183,906.99634,888.0586,-0.00592041015625,0.109375,0.98931884765625,4.97955322265625,-5.42816162109375,5.181427001953125,1,1.0,1.0,1.0,1.0,55.00
2021-04-17 11:47:17.514,,,,,,,,,,,,,,,,,,,,,,,,,,,,,,,,,,,,,,/muse/elements/jaw_clench
2021-04-17 11:47:18.036,0.40293244,0.23451783,0.31805182,0.701286,0.43343204,0.3592933,0.31404585,0.8864187,0.5031362,0.60055965,0.47147918,1.1228473,0.9690084,0.24471824,0.35278994,1.2736803,0.44783252,-0.22719616,-0.063197844,0.8193719,769.19415,823.1868,800.2198,732.1245,709.5604,-0.02301025390625,0.08953857421875,0.99884033203125,0.179443359375,-4.164581298828125,8.127288818359375,1,1.0,1.0,1.0,1.0,55.00
2021-04-17 11:47:18.467,,,,,,,,,,,,,,,,,,,,,,,,,,,,,,,,,,,,,,/muse/elements/blink
2021-04-17 11:47:18.562,0.49607617,0.029067818,0.15117389,0.701286,0.6686147,0.21442796,0.14595953,0.8864187,0.7207528,0.4554036,0.3358442,1.1228473,0.99206126,0.16873929,0.30092615,1.2736803,0.410132,-0.310646,-0.17537136,0.8193719,628.1685,823.9927,805.4579,648.315,755.4945,0.043701171875,0.10107421875,0.9925537109375,5.525360107421875,-12.33673095703125,5.929107666015625,1,1.0,1.0,1.0,1.0,55.00
2021-04-17 11:47:18.566,,,,,,,,,,,,,,,,,,,,,,,,,,,,,,,,,,,,,,/muse/elements/jaw_clench
2021-04-17 11:47:18.765,,,,,,,,,,,,,,,,,,,,,,,,,,,,,,,,,,,,,,/muse/elements/jaw_clench
2021-04-17 11:47:19.090,0.67272615,0.16143738,-9.257213E-4,0.76889455,0.6874368,0.138537,-0.0023796195,0.66972184,0.8299667,0.014011308,0.12064063,0.25964686,1.0441025,0.104692765,0.33602005,1.1262151,0.4270091,-0.3750707,-0.26440737,0.5485641,790.54944,807.47253,794.9817,800.2198,1067.7656,0.08856201171875,0.109375,0.99517822265625,6.4300537109375,-9.428253173828125,7.8656005859375,1,1.0,1.0,1.0,1.0,55.00
2021-04-17 11:47:19.604,0.79534715,0.58139575,0.70698905,0.76889455,0.7781872,0.19721127,0.24658304,0.66972184,0.81574684,0.1621266,0.37496755,0.25964686,1.0868207,0.105302274,0.30946136,1.1262151,0.42196047,-0.2928913,-0.2989586,0.5485641,630.989,811.0989,807.0696,657.98535,687.8022,0.09027099609375,0.107177734375,0.9979248046875,4.78515625,-5.375823974609375,4.62066650390625,1,1.0,1.0,1.0,1.0,55.00
2021-04-17 11:47:19.701,,,,,,,,,,,,,,,,,,,,,,,,,,,,,,,,,,,,,,/muse/elements/blink
2021-04-17 11:47:19.701,,,,,,,,,,,,,,,,,,,,,,,,,,,,,,,,,,,,,,/muse/elements/jaw_clench
2021-04-17 11:47:19.964,,,,,,,,,,,,,,,,,,,,,,,,,,,,,,,,,,,,,,/muse/elements/jaw_clench
2021-04-17 11:47:20.126,0.890771,0.5974788,0.7564655,0.87532634,0.5887123,0.13969436,0.23459378,0.69750154,0.9057567,0.14733526,0.36691105,0.031681713,1.1325464,0.08320621,0.2860995,1.1368828,0.58006364,-0.22015856,-0.14668614,0.5847614,852.6007,822.7839,815.9341,844.5421,838.9011,0.08740234375,0.09197998046875,0.99371337890625,3.641204833984375,1.1962890625,3.09539794921875,1,1.0,1.0,1.0,1.0,55.00
2021-04-17 11:47:20.650,0.83288735,0.67855316,0.77736026,0.87532634,0.4147881,0.1773633,0.2832396,0.69750154,0.87602025,0.12987316,0.4673894,0.031681713,1.087463,0.0373268,0.21165578,1.1368828,0.68481237,-0.18709916,-0.027824434,0.5847614,900.14655,817.5458,819.5604,877.5824,990.0,0.08160400390625,0.07659912109375,1.00811767578125,6.228179931640625,-7.22259521484375,-4.568328857421875,1,1.0,1.0,1.0,1.0,55.00
2021-04-17 11:47:20.916,,,,,,,,,,,,,,,,,,,,,,,,,,,,,,,,,,,,,,/muse/elements/blink
2021-04-17 11:47:21.178,0.83288735,0.62156355,0.66713744,0.87532634,0.4147881,0.06129492,0.21621495,0.69750154,0.87602025,0.04371843,0.4050982,0.031681713,1.087463,-0.029497813,0.13208404,1.1368828,0.68481237,-0.22927576,-0.021408144,0.5847614,839.707,821.1722,812.71063,795.38464,769.19415,0.0478515625,0.06951904296875,0.99444580078125,6.168365478515625,-8.486175537109375,-6.317901611328125,1,1.0,1.0,1.0,1.0,55.00
2021-04-17 11:47:21.259,,,,,,,,,,,,,,,,,,,,,,,,,,,,,,,,,,,,,,/muse/elements/jaw_clench
2021-04-17 11:47:21.681,0.49298313,0.6181117,0.61318046,0.87532634,0.13878486,0.055908702,0.21165982,0.69750154,0.72219867,0.015033781,0.4012707,0.031681713,1.0967758,-0.1436108,0.06421625,1.1368828,0.7449542,-0.37456736,-0.111973055,0.5847614,655.56775,811.50183,793.36993,665.64105,784.10254,0.0826416015625,0.0919189453125,1.0111083984375,2.7215576171875,0.43365478515625,1.83929443359375,1,1.0,1.0,1.0,1.0,55.00
2021-04-17 11:47:22.183,0.4438935,0.44297427,0.5020264,0.61783147,-0.019751763,0.05662535,0.023360465,0.4797635,0.62128204,0.02421103,0.39190024,0.23237243,1.1500647,-0.052396946,0.10630196,1.1237658,0.62794554,-0.34413752,-0.17433393,0.4975418,655.56775,823.1868,813.5165,695.05493,875.16486,0.10443115234375,0.08135986328125,0.99951171875,5.136566162109375,-10.06378173828125,-2.61688232421875,1,1.0,1.0,1.0,1.0,55.00
2021-04-17 11:47:22.209,,,,,,,,,,,,,,,,,,,,,,,,,,,,,,,,,,,,,,/muse/elements/blink
2021-04-17 11:47:22.694,0.5353704,0.12375629,-0.14475563,0.60017836,0.2305626,0.06543842,-0.048295006,0.44221112,0.6712557,-0.026642697,0.07502795,0.263561,1.0995768,0.06247154,0.18613476,1.1231184,0.62999076,-0.30832455,-0.07966509,0.5214503,861.06226,804.65204,812.71063,859.85345,873.95605,0.089111328125,0.085205078125,0.9609375,8.964691162109375,-9.951629638671875,6.17584228515625,1,1.0,1.0,1.0,1.0,55.00
2021-04-17 11:47:22.861,,,,,,,,,,,,,,,,,,,,,,,,,,,,,,,,,,,,,,/muse/elements/jaw_clench
2021-04-17 11:47:23.198,0.5711582,0.24802408,0.21716794,0.48971608,0.25720513,0.11395438,0.10482089,0.28418526,0.6699464,0.15888432,0.34512255,0.263561,1.0854454,0.14549127,0.37425616,1.1115013,0.598272,-0.28950796,-0.077811256,0.5511372,683.36993,815.5311,798.20514,696.26373,809.89014,0.079345703125,0.10205078125,0.9893798828125,10.09368896484375,-2.91595458984375,4.239349365234375,1,1.0,1.0,1.0,1.0,55.00
2021-04-17 11:47:23.517,,,,,,,,,,,,,,,,,,,,,,,,,,,,,,,,,,,,,,/muse/elements/blink
2021-04-17 11:47:23.710,0.6622875,0.23399873,0.60077775,0.41471618,0.48939237,0.033970863,0.18441743,0.011305227,0.60768914,0.14819023,0.3415793,0.23460904,0.9695956,0.12773988,0.42282477,1.1123955,0.6173246,-0.26515496,-0.04019421,0.5991317,651.53845,819.15753,799.41394,661.6117,700.696,0.09918212890625,0.09051513671875,0.99957275390625,3.42437744140625,-4.29168701171875,0.261688232421875,1,1.0,1.0,1.0,1.0,55.00
2021-04-17 11:47:24.225,,,,,,,,,,,,,,,,,,,,,,,,,,,,,,,,,,,,,,/muse/elements/jaw_clench
2021-04-17 11:47:24.226,0.6622875,0.14347315,0.5914695,0.62831116,0.48939237,-0.0026153885,0.009940364,0.45044857,0.60768914,0.262637,0.32839298,0.4881889,0.9695956,0.056308553,0.39353052,1.0965817,0.6173246,-0.26396596,-0.10311085,0.7561473,673.2967,810.696,790.14655,683.7729,816.337,0.09051513671875,0.07611083984375,0.9801025390625,3.850555419921875,-3.70849609375,0.575714111328125,1,1.0,1.0,1.0,1.0,55.00
2021-04-17 11:47:24.749,0.6622875,0.09648013,0.4831471,0.62831116,0.48939237,-0.11724464,-0.047757477,0.45044857,0.60768914,0.18625931,0.21021701,0.4881889,0.9695956,-0.0060139257,0.27105966,1.0965817,0.6173246,-0.29643738,-0.13944823,0.7561473,927.1429,817.1429,815.9341,894.5055,863.8828,0.1063232421875,0.0880126953125,0.990234375,4.56085205078125,-4.02252197265625,0.7476806640625,1,1.0,1.0,1.0,1.0,55.00
2021-04-17 11:47:24.753,,,,,,,,,,,,,,,,,,,,,,,,,,,,,,,,,,,,,,/muse/elements/blink
2021-04-17 11:47:25.258,0.3396617,0.1306178,-0.10499339,0.50869197,0.2654984,-0.08735975,-0.08543158,0.33157668,0.45194444,0.26002553,0.12051351,0.67967796,0.9673815,-0.04176612,0.23039754,1.0596039,0.5067143,-0.4182054,-0.30282298,0.6773566,821.1722,815.5311,817.5458,767.1795,671.685,0.1075439453125,0.08154296875,0.995849609375,4.47113037109375,-4.209442138671875,3.536529541015625,1,1.0,1.0,1.0,1.0,55.00
2021-04-17 11:47:25.773,-0.033215012,0.006674137,-0.12358371,0.17611706,0.1336689,-0.068765365,0.054786872,0.13997272,0.20176122,0.29953533,0.1280274,0.71336687,0.95879745,0.03256394,0.18442424,1.041224,0.41605154,-0.36959007,-0.38130948,0.460368,894.10254,799.011,809.0842,863.47986,798.20514,0.10009765625,0.09716796875,0.9837646484375,6.572113037109375,-3.282318115234375,6.527252197265625,1,1.0,1.0,1.0,1.0,55.00
2021-04-17 11:47:26.068,,,,,,,,,,,,,,,,,,,,,,,,,,,,,,,,,,,,,,/muse/elements/blink
2021-04-17 11:47:26.291,0.21146691,0.19051784,-0.030602772,0.3674759,0.42738116,0.11703461,-0.0061013233,0.44426224,0.41936603,0.30684802,0.104857355,0.7292044,0.97703314,0.065216765,0.22998802,0.98770285,0.42745793,-0.2762419,-0.30342856,0.45496315,692.23444,814.3223,801.4286,714.7985,815.9341,0.1336669921875,0.09954833984375,1.00775146484375,11.11053466796875,-5.719757080078125,2.1234130859375,1,1.0,1.0,1.0,1.0,55.00
2021-04-17 11:47:26.797,0.48058873,0.37530205,-0.10873947,0.40277973,0.6212718,0.2707457,-0.08233485,0.604633,0.8935643,0.14123398,0.12294538,0.76722825,0.9665626,0.12856492,0.22356673,0.9569471,0.41915157,-0.24506249,-0.36253425,0.41786346,853.8095,821.978,819.15753,848.5714,801.4286,0.07244873046875,0.08404541015625,0.992919921875,5.435638427734375,-8.620758056640625,1.398162841796875,1,1.0,1.0,1.0,1.0,55.00
2021-04-17 11:47:27.283,,,,,,,,,,,,,,,,,,,,,,,,,,,,,,,,,,,,,,/muse/elements/blink
2021-04-17 11:47:27.304,0.53150773,0.5323083,-0.2068856,0.44177312,0.7030684,0.3287153,-0.4294464,0.68483794,0.89421844,0.12681152,0.0040030703,0.74168336,0.9187044,0.07230686,0.24834493,0.9396275,0.5383691,-0.27810764,-0.3183166,0.49594054,926.7399,801.8315,806.6667,886.8498,916.6667,0.118896484375,0.10211181640625,0.99639892578125,8.71795654296875,-2.87109375,3.132781982421875,1,1.0,1.0,1.0,1.0,55.00
2021-04-17 11:47:27.807,0.5633066,0.49535415,-0.20995763,0.34134367,0.60626876,0.35782638,-0.414403,0.5629691,0.89477706,0.105402224,-0.028729325,0.73228085,0.8377691,0.0457346,0.17794271,0.98888427,0.5195622,-0.36799908,-0.31210297,0.4959183,773.6264,820.7692,807.0696,743.4066,815.9341,0.11114501953125,0.06494140625,0.9801025390625,5.944061279296875,-7.46185302734375,6.86370849609375,1,1.0,1.0,1.0,1.0,55.00
2021-04-17 11:47:28.335,0.5052902,0.37043142,-0.22006322,0.28531116,0.40464237,0.13848737,-0.44551978,0.2919082,0.6342497,0.103857115,-0.07187631,0.68340915,0.82593274,0.051163938,0.12961434,1.0416147,0.48944786,-0.46583548,-0.26547363,0.5018197,644.68866,819.5604,804.65204,670.4762,702.71063,0.0716552734375,0.04742431640625,0.9888916015625,3.491668701171875,-10.48248291015625,6.497344970703125,1,1.0,1.0,1.0,1.0,55.00
2021-04-17 11:47:28.578,,,,,,,,,,,,,,,,,,,,,,,,,,,,,,,,,,,,,,/muse/elements/blink
2021-04-17 11:47:28.858,0.56151253,0.28021014,-0.15086722,0.3583245,0.24872452,0.062312644,-0.31473333,-0.025286099,0.69223666,0.17703685,0.03051021,0.24287699,0.8343694,0.04180282,0.13092689,1.021072,0.45544875,-0.52382356,-0.32711616,0.4067487,732.1245,809.89014,796.1905,746.63007,885.64105,0.12945556640625,0.07354736328125,0.98895263671875,9.787139892578125,-13.615264892578125,-4.777679443359375,1,1.0,1.0,1.0,1.0,55.00
2021-04-17 11:47:29.365,0.63293165,0.39591083,-0.0513391,0.5144648,0.31730294,-0.06133178,-0.40144607,-0.01882573,0.76471937,0.2452741,0.08583169,0.06814836,0.87342435,0.075158246,0.14544515,1.0155488,0.4560387,-0.43080747,-0.3438996,0.3691723,840.5128,817.1429,815.12823,815.5311,760.7326,0.1507568359375,0.10577392578125,1.02435302734375,7.364654541015625,-16.979827880859375,11.611480712890625,1,1.0,1.0,1.0,1.0,55.00
2021-04-17 11:47:29.809,,,,,,,,,,,,,,,,,,,,,,,,,,,,,,,,,,,,,,/muse/elements/blink
2021-04-17 11:47:29.872,0.72431517,0.50803703,-0.019803865,0.65489155,0.4523841,0.07837691,-0.29915124,0.30611005,0.7626101,0.2452741,0.0950367,0.1572165,0.8862933,0.09586266,0.20498672,1.0254865,0.5005637,-0.38189402,-0.3866494,0.37939766,918.68134,809.0842,807.0696,848.1685,801.8315,0.1651611328125,0.08575439453125,0.977783203125,2.594451904296875,-2.714080810546875,3.416900634765625,1,1.0,1.0,1.0,1.0,55.00
2021-04-17 11:47:30.388,0.7688022,0.50238657,0.06778698,0.7497359,0.49963108,0.1627842,-0.25432897,0.49111533,0.75728846,0.26886883,0.074277684,0.3656548,0.8921207,0.10072863,0.20972502,1.0292723,0.5660101,-0.4226485,-0.3662742,0.47681728,725.2747,809.4872,791.3553,750.2564,694.65204,0.165283203125,0.083251953125,0.9739990234375,1.30096435546875,0.40374755859375,2.9010009765625,1,1.0,1.0,1.0,1.0,55.00
2021-04-17 11:47:30.890,0.7350565,0.41144738,0.069588244,0.7590321,0.4116193,0.2575002,-0.17897622,0.5837933,0.83287185,0.31428263,0.017858615,0.49174222,0.8471596,0.076551706,0.20484336,0.9921796,0.703951,-0.46449268,-0.21805671,0.62955207,859.85345,807.47253,819.5604,842.52747,834.87177,0.18890380859375,0.0985107421875,0.99017333984375,5.27862548828125,-5.674896240234375,-5.271148681640625,1,1.0,1.0,1.0,1.0,55.00
2021-04-17 11:47:31.132,,,,,,,,,,,,,,,,,,,,,,,,,,,,,,,,,,,,,,/muse/elements/blink
2021-04-17 11:47:31.402,0.60314906,0.30721515,0.15642135,0.65509534,0.30556422,0.25639158,-0.124491446,0.47764462,0.83598036,0.22716236,-0.028402505,0.5638748,0.80657876,-0.024402095,0.16002849,0.9354221,0.74551773,-0.5398051,-0.1606673,0.74549836,825.6044,796.5934,795.38464,852.1978,1064.1392,0.139404296875,0.1060791015625,0.99249267578125,6.92352294921875,-1.9140625,1.772003173828125,1,1.0,1.0,1.0,1.0,55.00
2021-04-17 11:47:31.921,0.5694531,0.28445706,0.20782842,0.48431695,0.31021085,0.30087918,-0.069422744,0.36110517,0.8380209,0.22716236,0.017641205,0.5402461,0.8025311,-0.07077808,0.17994027,0.9445003,0.6890625,-0.49792582,-0.09933646,0.7705148,860.65936,810.293,812.3077,828.4249,1000.4762,0.13824462890625,0.09130859375,0.99407958984375,-0.95703125,3.252410888671875,0.590667724609375,1,1.0,1.0,1.0,1.0,55.00
2021-04-17 11:47:32.444,0.46809995,0.20257436,0.7855341,0.19884658,0.3292361,0.21856749,0.262654,0.16951174,0.5839234,-0.13781291,0.26138607,0.49520984,0.8060115,-0.13362838,0.27179667,0.9703012,0.65420973,-0.594357,-0.109434344,0.7672928,629.7802,806.6667,803.0403,682.1612,610.0366,0.02520751953125,0.04498291015625,1.00640869140625,2.55706787109375,0.657958984375,3.4393310546875,1,1.0,1.0,1.0,1.0,55.00
2021-04-17 11:47:32.479,,,,,,,,,,,,,,,,,,,,,,,,,,,,,,,,,,,,,,/muse/elements/blink
2021-04-17 11:47:32.962,0.43066067,0.21464236,0.9987591,0.1328255,0.28556293,0.3011704,0.33447343,0.22823532,0.4385496,-0.5762757,0.38871554,0.4387582,0.7648013,-0.18789756,0.33232364,1.0092152,0.53018713,-0.5640544,-0.025014222,0.6801759,708.7546,803.44324,802.23444,716.0073,779.2674,0.06121826171875,0.055908203125,1.0093994140625,4.35150146484375,-3.880462646484375,-1.682281494140625,1,1.0,1.0,1.0,1.0,55.00
2021-04-17 11:47:33.467,,,,,,,,,,,,,,,,,,,,,,,,,,,,,,,,,,,,,,/muse/elements/blink
2021-04-17 11:47:33.468,0.43066067,0.92243993,1.0930117,0.1328255,0.28556293,0.66696316,0.41321394,0.22823532,0.4385496,0.42547297,0.49588364,0.4387582,0.7648013,0.035142507,0.30526638,1.0092152,0.53018713,-0.30664468,-0.011068841,0.6801759,659.19415,805.8608,807.8755,693.44324,680.9524,0.1568603515625,0.04656982421875,0.9749755859375,6.901092529296875,-21.450958251953125,-13.68255615234375,1,1.0,1.0,1.0,1.0,55.00
2021-04-17 11:47:33.696,,,,,,,,,,,,,,,,,,,,,,,,,,,,,,,,,,,,,,/muse/elements/blink
2021-04-17 11:47:33.973,0.43066067,1.0913832,0.93666726,0.1328255,0.28556293,0.6996629,0.2597101,0.22823532,0.4385496,0.5178235,0.5096335,0.4387582,0.7648013,0.08346482,0.2350271,1.0092152,0.53018713,-0.24912547,-0.048835896,0.6801759,899.34064,803.8461,815.5311,844.1392,754.68866,0.1566162109375,0.0758056640625,0.9996337890625,5.87677001953125,-2.2430419921875,4.05242919921875,1,1.0,1.0,1.0,1.0,55.00
2021-04-17 11:47:34.500,0.43066067,1.1385012,0.78033274,0.1328255,0.28556293,0.56237787,0.24386455,0.22823532,0.4385496,0.5178235,0.46024096,0.4387582,0.7648013,0.082619995,0.14522088,1.0092152,0.53018713,-0.2620934,-0.17504492,0.6801759,738.1685,801.02563,804.2491,716.8132,739.3773,0.1888427734375,0.071533203125,0.97412109375,9.323577880859375,-9.129180908203125,-0.73272705078125,1,2.0,1.0,1.0,2.0,55.00
2021-04-17 11:47:34.949,,,,,,,,,,,,,,,,,,,,,,,,,,,,,,,,,,,,,,/muse/elements/blink
2021-04-17 11:47:35.012,0.43066067,1.053543,0.23353665,0.59486765,0.28556293,0.5075198,-0.035269804,0.34649262,0.4385496,0.45989794,0.34708145,0.29441226,0.7648013,0.065611504,0.151139,1.0512342,0.53018713,-0.21936187,-0.23207678,0.8467051,627.3626,800.6227,808.68134,676.9231,634.21246,0.16070556640625,0.05914306640625,0.96820068359375,6.280517578125,-4.927215576171875,2.908477783203125,1,2.0,1.0,1.0,2.0,55.00
2021-04-17 11:47:35.533,0.43336236,0.6526392,-0.12051929,0.5372054,0.5210907,0.35149524,-0.13279134,0.40927076,0.60800743,0.098824404,-0.015988765,0.68471533,0.7764195,-0.048498224,0.15253884,1.0349952,0.6535586,-0.33374992,-0.19966419,0.8261783,681.3553,806.6667,792.1612,720.0366,793.7729,0.17449951171875,0.0723876953125,1.0015869140625,3.177642822265625,-3.828125,1.18133544921875,1,1.0,1.0,1.0,1.0,50.00
2021-04-17 11:47:36.041,0.3546556,0.1794514,-0.19291948,0.4868348,0.38300344,0.41778892,-0.14755358,0.29555023,0.6243058,0.09103956,0.10750689,0.72457474,0.7998027,-0.07866504,0.17140889,1.003589,0.6168274,-0.43769065,-0.13944653,0.7821765,664.43225,803.44324,797.3993,705.5311,794.17584,0.2318115234375,0.083740234375,0.9833984375,6.751556396484375,-1.936492919921875,8.194580078125,1,1.0,1.0,1.0,1.0,50.00
2021-04-17 11:47:36.245,,,,,,,,,,,,,,,,,,,,,,,,,,,,,,,,,,,,,,/muse/elements/blink
2021-04-17 11:47:36.574,0.35244465,0.14867619,-0.16721727,0.43085328,0.34269756,0.25611472,-0.16995133,0.17398207,0.6243058,0.062384408,0.14983872,0.7297339,0.8558538,-0.024937293,0.25054318,0.9676693,0.5246493,-0.48134464,-0.14193821,0.6962405,852.1978,805.8608,817.1429,827.619,835.2747,0.25311279296875,0.08636474609375,0.96429443359375,7.603912353515625,-0.2392578125,11.0357666015625,1,1.0,1.0,1.0,1.0,50.00
2021-04-17 11:47:37.079,0.51298434,0.39877665,-0.13498563,0.6501559,0.23387967,0.24828997,-0.26426846,0.044635035,0.46983114,0.28111637,0.23353893,0.7004069,0.9543032,-0.05830719,0.25803244,0.9641278,0.44411424,-0.40890008,-0.22127296,0.5657346,897.72894,799.011,807.8755,846.1539,827.619,0.2275390625,0.0760498046875,0.97259521484375,7.2674560546875,-3.715972900390625,1.712188720703125,1,1.0,1.0,1.0,1.0,50.00
2021-04-17 11:47:37.545,,,,,,,,,,,,,,,,,,,,,,,,,,,,,,,,,,,,,,/muse/elements/blink
2021-04-17 11:47:37.607,0.6948516,0.6537199,-0.14612827,0.7119273,0.35866243,0.49558887,-0.32657304,0.30303305,0.576566,0.3008192,0.2346657,0.5165583,0.95248425,-0.03186928,0.23906061,0.9499519,0.34472933,-0.3762596,-0.30880105,0.47835577,672.8938,810.293,801.8315,693.0403,887.6557,0.22222900390625,0.0650634765625,0.98907470703125,2.1832275390625,-2.43743896484375,2.452392578125,1,1.0,1.0,1.0,1.0,50.00
2021-04-17 11:47:38.132,0.6691409,0.6647928,-0.11030937,0.66543764,0.4792916,0.5319175,-0.289957,0.4407872,0.81370354,0.25874385,0.26478422,0.56580526,0.9216811,-0.09143193,0.15342723,0.94075936,0.3566332,-0.4275104,-0.3238754,0.4329299,639.0476,806.6667,800.6227,694.65204,798.60803,0.2374267578125,0.07373046875,0.99237060546875,5.585174560546875,-5.151519775390625,3.357086181640625,1,1.0,1.0,1.0,1.0,50.00
2021-04-17 11:47:38.643,0.7895332,0.545062,-0.058577243,0.5837404,0.5256417,0.43041265,-0.33329853,0.5595049,0.7974222,0.3637276,0.19052202,0.57026064,0.84836453,-0.021890827,0.1380714,0.90827477,0.41049048,-0.48458454,-0.29672936,0.51373184,740.18317,806.6667,801.02563,749.85345,794.57874,0.30535888671875,0.07073974609375,0.928955078125,6.033782958984375,-3.596343994140625,-2.19818115234375,1,1.0,1.0,1.0,1.0,50.00
2021-04-17 11:47:38.763,,,,,,,,,,,,,,,,,,,,,,,,,,,,,,,,,,,,,,/muse/elements/blink
2021-04-17 11:47:39.147,0.76711595,0.41943076,0.023665851,0.7489714,0.5597883,0.22314683,-0.17434834,0.67960227,0.7974222,0.29371434,0.07356095,0.58867717,0.86171067,-0.088127345,0.18559489,0.91372263,0.46772358,-0.57801044,-0.24378665,0.5598192,855.42126,799.011,808.68134,830.4396,848.97437,0.26226806640625,0.0975341796875,0.96978759765625,-4.59075927734375,-12.299346923828125,-1.398162841796875,1,1.0,1.0,1.0,1.0,50.00
2021-04-17 11:47:39.657,0.8928167,0.5617729,0.44296652,0.83719116,0.3852041,0.3964462,0.07678429,0.70203495,0.64243466,0.41631922,0.06244,0.7900201,0.8259948,-0.009590952,0.19827,0.93209296,0.5344012,-0.6111778,-0.32723805,0.5750481,899.7436,803.8461,811.50183,861.8681,800.6227,0.2637939453125,0.088134765625,0.95703125,7.439422607421875,-5.525360107421875,-0.635528564453125,1,1.0,1.0,1.0,1.0,50.00
2021-04-17 11:47:39.978,,,,,,,,,,,,,,,,,,,,,,,,,,,,,,,,,,,,,,/muse/elements/blink
2021-04-17 11:47:40.177,0.8176271,0.5932687,0.4648409,0.79403496,0.7708669,0.47770506,0.21591721,0.71490663,0.7747219,0.38837677,0.12515156,1.0077094,0.9212048,-0.037992954,0.13113524,1.0158672,0.6374078,-0.48004875,-0.25591084,0.5901803,769.59705,838.0952,803.8461,727.28937,727.28937,0.22296142578125,0.069091796875,0.9610595703125,3.3795166015625,-1.31591796875,2.086029052734375,1,1.0,1.0,1.0,1.0,50.00
2021-04-17 11:47:40.701,0.8176271,0.5125854,0.50184184,0.67042696,0.7708669,0.41596726,0.23644413,0.6461996,0.7747219,0.34386274,0.26190633,1.0077094,0.9212048,-0.02348831,0.13020512,1.0566567,0.6374078,-0.3832574,-0.19499956,0.61058646,651.9414,784.90845,793.36993,684.17584,719.2308,0.24383544921875,0.07562255859375,0.96527099609375,6.542205810546875,0.814971923828125,-5.38330078125,1,1.0,1.0,1.0,1.0,50.00
2021-04-17 11:47:41.199,,,,,,,,,,,,,,,,,,,,,,,,,,,,,,,,,,,,,,/muse/elements/blink
2021-04-17 11:47:41.217,0.9124945,0.3344183,0.23580638,0.60159963,0.9759164,0.17663682,0.13847573,0.6819429,0.7747219,0.04031826,0.24808809,1.0077094,0.99993986,-0.20554666,0.105607554,1.1407284,0.71734035,-0.27399823,-0.13139538,0.67009413,794.9817,796.99634,801.4286,796.99634,890.07324,0.200927734375,0.09112548828125,0.97308349609375,0.55328369140625,0.097198486328125,0.2392578125,1,1.0,1.0,1.0,1.0,50.00
2021-04-17 11:47:41.372,,,,,,,,,,,,,,,,,,,,,,,,,,,,,,,,,,,,,,/muse/elements/blink
2021-04-17 11:47:41.737,0.9963876,0.3344183,0.20721294,0.8031864,0.8228673,0.17663682,0.11466,0.9008382,0.1291265,0.04031826,0.24963503,0.8534545,0.76367205,-0.20554666,0.12057628,1.1454569,0.47596845,-0.27399823,-0.22406188,0.8068047,885.64105,798.60803,813.5165,832.4542,805.05493,0.21051025390625,0.055908203125,0.96649169921875,3.476715087890625,-6.9384765625,-0.478515625,1,1.0,1.0,1.0,1.0,50.00
2021-04-17 11:47:42.263,0.98185515,0.2514825,0.16100061,0.8100125,0.799983,0.37161568,0.059888072,0.8125879,0.43396473,-0.15336484,-0.12675871,0.8797192,0.8224015,0.04337738,0.0652205,1.1527113,0.57235885,-0.30306745,-0.2926413,0.81800205,867.9121,803.44324,813.5165,821.1722,812.71063,0.2236328125,0.05462646484375,0.971923828125,3.790740966796875,-4.344024658203125,4.388885498046875,1,1.0,1.0,1.0,1.0,50.00
2021-04-17 11:47:42.630,,,,,,,,,,,,,,,,,,,,,,,,,,,,,,,,,,,,,,/muse/elements/blink
2021-04-17 11:47:42.791,1.0059693,0.15560605,0.20499048,0.8100125,0.7743383,0.2688115,0.040098745,0.8125879,0.56485885,0.029796796,0.07932917,0.8797192,0.90212435,-0.051225338,0.055687696,1.1527113,0.5943715,-0.36295366,-0.4114485,0.81800205,691.8315,783.69965,791.75824,722.4542,670.4762,0.198974609375,0.0361328125,0.95147705078125,2.773895263671875,-2.624359130859375,2.03369140625,1,1.0,1.0,1.0,1.0,50.00
2021-04-17 11:47:43.318,1.0097436,0.32051897,0.33460054,0.7854904,0.7532991,0.1918238,-0.014179135,0.6837308,0.56485885,0.3058994,0.22829092,0.44867715,0.9471307,-0.06614665,0.115248956,1.1647971,0.63396454,-0.4251795,-0.31731695,0.8526783,646.30035,797.8022,790.9524,682.1612,720.84247,0.1834716796875,0.04437255859375,0.98675537109375,5.443115234375,-4.777679443359375,-0.112152099609375,1,1.0,1.0,1.0,1.0,50.00
2021-04-17 11:47:43.815,,,,,,,,,,,,,,,,,,,,,,,,,,,,,,,,,,,,,,/muse/elements/blink
2021-04-17 11:47:43.843,1.0602927,0.638797,0.506223,0.7854904,0.63647324,0.14360248,0.15278822,0.6837308,0.67059135,0.33871812,0.36792898,0.44867715,0.9099983,-0.013897359,0.11362005,1.1647971,0.50901306,-0.5054844,-0.36571988,0.8526783,627.3626,798.60803,798.20514,679.7436,664.0293,0.21795654296875,0.065673828125,0.9921875,5.106658935546875,-9.293670654296875,-1.21124267578125,1,1.0,1.0,1.0,1.0,50.00
2021-04-17 11:47:44.369,0.90361214,0.6515867,0.53121674,1.1012177,0.60557795,0.15821584,0.19660601,0.5155278,0.6696728,0.3497847,0.36792898,0.7422117,0.85350716,0.02373124,0.09570058,0.98944795,0.3037861,-0.4681234,-0.29398832,0.58276576,909.81683,798.60803,820.3663,861.4652,842.1245,0.20416259765625,0.04339599609375,0.97442626953125,4.598236083984375,-6.400146484375,0.28411865234375,1,1.0,1.0,1.0,1.0,50.00
2021-04-17 11:47:44.895,0.95651376,0.49807104,0.57554793,1.0838302,0.5954396,0.11639842,0.16274396,0.5799057,0.73866665,0.25678232,0.3700656,0.80553675,0.8713776,0.049285028,-0.032397237,0.9957805,0.2871247,-0.5207132,-0.38866267,0.58740747,872.74725,794.9817,815.12823,846.1539,754.2857,0.1810302734375,0.046875,0.9925537109375,7.902984619140625,-7.16278076171875,3.4393310546875,1,1.0,1.0,1.0,1.0,50.00
2021-04-17 11:47:45.117,,,,,,,,,,,,,,,,,,,,,,,,,,,,,,,,,,,,,,/muse/elements/blink
2021-04-17 11:47:45.400,0.888149,0.69625115,0.46945116,0.9247685,0.60689694,0.20018645,-0.04803933,0.6209339,0.68794394,0.17769141,0.29881543,0.7188867,0.91412795,-0.079729505,-0.15557735,0.9783647,0.18425107,-0.6320095,-0.34333146,0.51763475,902.1612,811.50183,817.9487,854.61536,831.6484,0.15631103515625,0.05035400390625,0.9786376953125,2.953338623046875,-6.8487548828125,7.035675048828125,1,1.0,1.0,1.0,1.0,50.00
2021-04-17 11:47:45.905,0.7586893,0.7671767,0.44407937,0.917667,0.42233098,0.27386606,-0.069824524,0.76080513,0.5937298,0.3275271,0.3826572,0.77847064,0.93192756,0.0055810986,-0.14948337,1.0127155,0.25403598,-0.6539992,-0.3273366,0.34488517,745.42126,802.23444,809.4872,722.0513,693.8461,0.1988525390625,0.0731201171875,0.99658203125,8.8226318359375,-8.815155029296875,-5.39825439453125,1,1.0,1.0,1.0,1.0,55.00
2021-04-17 11:47:46.420,0.5174907,0.9110097,0.3090864,0.8051386,0.279085,0.3414741,-0.10562074,0.6560284,0.4496027,0.5665201,0.31379312,0.6689294,0.9069514,0.021025676,-0.043621026,0.99221957,0.2420735,-0.60600257,-0.35745195,0.11873055,643.47986,793.7729,788.93774,699.4872,795.78754,0.21197509765625,0.06451416015625,0.98504638671875,2.071075439453125,-4.20196533203125,-7.22259521484375,1,1.0,1.0,1.0,1.0,55.00
2021-04-17 11:47:46.495,,,,,,,,,,,,,,,,,,,,,,,,,,,,,,,,,,,,,,/muse/elements/blink
2021-04-17 11:47:46.936,0.567961,0.7803605,0.3929727,0.80561775,0.22750953,0.2075376,-0.10342024,0.5568157,0.5454752,0.5718303,0.30763838,0.63684535,0.87054986,0.011403616,0.05024542,0.96384287,0.3502847,-0.5402091,-0.3494123,0.2260033,779.67035,803.8461,808.2784,790.14655,786.1172,0.20947265625,0.055419921875,0.94732666015625,1.188812255859375,-4.486083984375,4.0374755859375,1,1.0,1.0,1.0,1.0,55.00
2021-04-17 11:47:47.463,0.6592288,1.0813301,0.9175771,0.80881655,0.1890314,0.39408562,0.31229958,0.3397462,0.50910413,0.695953,0.4958835,0.35583445,0.81204224,0.08028868,0.12048739,0.92353106,0.39426997,-0.55769354,-0.34821638,0.2532664,881.6117,800.6227,803.0403,835.2747,801.4286,0.18865966796875,0.06634521484375,0.9825439453125,4.852447509765625,-2.340240478515625,-1.069183349609375,1,1.0,1.0,1.0,1.0,55.00
2021-04-17 11:47:47.689,,,,,,,,,,,,,,,,,,,,,,,,,,,,,,,,,,,,,,/muse/elements/blink
2021-04-17 11:47:47.977,0.55725807,1.0177312,0.9146542,0.7877616,0.2400874,0.30542487,0.30820647,0.13778082,0.52939886,0.63052917,0.4958835,0.14979023,0.69262135,0.05660021,0.062792815,0.8614599,0.42474538,-0.5261293,-0.2673073,0.42642578,817.5458,790.9524,803.0403,812.71063,832.4542,0.2130126953125,0.0748291015625,0.9825439453125,5.390777587890625,-4.762725830078125,-2.99072265625,1,1.0,1.0,1.0,1.0,55.00
2021-04-17 11:47:48.483,0.54223615,0.98005044,0.8704844,0.7877616,0.1975547,0.28774554,0.3138888,0.13778082,0.51034266,0.63052917,0.4958835,0.14979023,0.67676324,0.12967025,0.0644901,0.8614599,0.291858,-0.44867224,-0.26059416,0.42642578,699.4872,800.2198,806.6667,710.3663,654.35895,0.21270751953125,0.06622314453125,0.97698974609375,5.1739501953125,-5.435638427734375,1.263580322265625,1,1.0,1.0,1.0,1.0,55.00
2021-04-17 11:47:48.988,0.46418464,0.40513954,0.18332417,0.59199965,0.24086021,-0.27801824,-0.17173862,0.18525317,0.35551175,0.19442528,0.22944655,0.1661002,0.7476437,0.03654619,0.0030876335,0.94926465,0.42298564,-0.39608124,-0.28298935,0.59386855,649.5238,796.1905,780.4762,700.293,784.90845,0.2176513671875,0.07513427734375,0.9537353515625,5.75714111328125,-5.973968505859375,3.461761474609375,1,1.0,1.0,1.0,1.0,55.00
2021-04-17 11:47:49.034,,,,,,,,,,,,,,,,,,,,,,,,,,,,,,,,,,,,,,/muse/elements/blink
2021-04-17 11:47:49.505,0.45523614,0.11376902,0.2787801,0.4510291,0.32806197,-0.33424488,-0.005795556,0.30089784,0.4484154,0.33939856,0.30910754,0.75585586,0.77321845,0.07022341,0.03904619,0.96582365,0.45670673,-0.34973904,-0.2766731,0.5909401,816.7399,791.3553,803.44324,823.9927,917.8755,0.18994140625,0.0947265625,0.98883056640625,4.972076416015625,-4.85992431640625,1.009368896484375,1,1.0,1.0,1.0,1.0,55.00
2021-04-17 11:47:50.020,0.47486585,0.4558224,0.47297108,0.4524938,0.42476967,-0.20771164,-0.0343413,0.36634412,0.5735036,0.30697033,0.20344952,0.760656,0.7888887,-0.021726174,0.10660292,0.97360986,0.52176815,-0.36128742,-0.2827092,0.49941152,888.0586,792.1612,821.1722,851.79486,789.34064,0.16204833984375,0.0792236328125,0.9859619140625,3.745880126953125,-3.297271728515625,-5.016937255859375,1,1.0,1.0,1.0,1.0,55.00
2021-04-17 11:47:50.229,,,,,,,,,,,,,,,,,,,,,,,,,,,,,,,,,,,,,,/muse/elements/blink
2021-04-17 11:47:50.526,0.6056938,0.45823437,0.506394,0.5931853,0.34853768,-0.124338605,-0.01001765,0.49078646,0.5844781,0.31934732,0.300348,0.760656,0.8067885,-0.08645093,0.1361336,0.9445984,0.4823071,-0.34883887,-0.3520668,0.43299618,846.55676,783.2967,806.6667,811.9048,792.5641,0.16632080078125,0.0872802734375,0.98907470703125,7.648773193359375,-1.71966552734375,-1.31591796875,1,1.0,1.0,1.0,1.0,55.00
2021-04-17 11:47:51.033,0.7037672,0.6368874,0.47798246,0.6763705,0.29653445,0.03984876,-0.017424747,0.49684095,0.6159074,0.22676933,0.43886018,0.6517386,0.8240596,-0.13613522,0.16822575,0.93281925,0.47936344,-0.3673474,-0.38846305,0.3777531,795.38464,801.8315,804.65204,800.6227,977.1062,0.178466796875,0.08526611328125,0.9619140625,4.5758056640625,-1.79443359375,3.461761474609375,1,1.0,1.0,1.0,1.0,55.00
2021-04-17 11:47:51.366,,,,,,,,,,,,,,,,,,,,,,,,,,,,,,,,,,,,,,/muse/elements/blink
2021-04-17 11:47:51.543,0.7649415,0.81360245,0.6089315,0.7783573,0.26653793,0.17887832,0.040492646,0.5223815,0.5805273,0.24535976,0.40473574,0.47290957,0.85486376,-0.09770236,0.13894686,0.8964395,0.48929238,-0.43795264,-0.4457799,0.4879923,873.5531,803.0403,819.5604,845.7509,823.5897,0.13836669921875,0.0560302734375,0.9869384765625,3.050537109375,-1.562652587890625,-1.039276123046875,1,1.0,1.0,1.0,1.0,55.00
2021-04-17 11:47:52.071,0.871005,0.9732803,0.9244421,0.8744184,0.4070777,0.2796138,0.18321258,0.5901916,0.5805273,0.24334759,0.4312801,0.3795029,0.8604011,-0.08477879,0.20448518,0.8167558,0.4314004,-0.48915496,-0.433031,0.5234841,948.0952,801.02563,797.3993,902.5641,755.89746,0.1348876953125,0.053466796875,0.99835205078125,6.041259765625,-5.1141357421875,0.142059326171875,1,1.0,1.0,1.0,1.0,55.00
2021-04-17 11:47:52.595,0.871005,1.1079153,1.0794499,0.8744184,0.4070777,0.49904042,0.20015569,0.5901916,0.5805273,0.30721307,0.17517291,0.3795029,0.8604011,0.08176354,0.20235355,0.8167558,0.4314004,-0.6132774,-0.40436906,0.5234841,691.8315,813.5165,801.4286,707.5458,649.12085,0.13616943359375,0.05767822265625,0.98828125,5.33843994140625,-5.420684814453125,-3.15521240234375,1,1.0,1.0,1.0,1.0,55.00
2021-04-17 11:47:52.762,,,,,,,,,,,,,,,,,,,,,,,,,,,,,,,,,,,,,,/muse/elements/blink
2021-04-17 11:47:53.122,0.871005,1.243468,0.8490428,0.8744184,0.4070777,0.79709285,-0.007187331,0.5901916,0.5805273,0.35472673,0.008427725,0.3795029,0.8604011,0.1173347,0.119432084,0.8167558,0.4314004,-0.63333696,-0.32801202,0.5234841,805.4579,799.011,810.696,771.2088,698.68134,0.15264892578125,0.06494140625,0.982666015625,5.4730224609375,-5.5328369140625,4.366455078125,1,1.0,1.0,1.0,1.0,55.00
2021-04-17 11:47:53.637,0.871005,1.0761015,0.33352333,0.8744184,0.4070777,0.6463998,-0.33071873,0.5901916,0.5805273,0.35638165,0.12542365,0.3795029,0.8604011,0.04253792,0.10955619,0.8167558,0.4314004,-0.61419183,-0.1456325,0.5234841,641.06226,798.60803,800.6227,683.7729,676.52014,0.17254638671875,0.064697265625,0.986083984375,6.17584228515625,-6.781463623046875,1.07666015625,1,2.0,1.0,1.0,2.0,55.00
2021-04-17 11:47:54.080,,,,,,,,,,,,,,,,,,,,,,,,,,,,,,,,,,,,,,/muse/elements/blink
2021-04-17 11:47:54.142,0.21636866,0.914903,0.19031306,0.30724818,-0.124065705,0.49619982,-0.28842944,0.3103031,0.20116752,0.28781465,0.18680952,0.36596337,0.8236277,-0.07108561,0.019686941,0.8717054,0.23794025,-0.61897254,-0.15358576,0.25682408,726.4835,795.78754,801.4286,749.85345,722.8571,0.172119140625,0.07427978515625,0.98638916015625,5.585174560546875,-3.45428466796875,4.80010986328125,1,1.0,1.0,1.0,1.0,55.00
2021-04-17 11:47:54.645,0.31532964,0.28927973,-0.41400945,0.29071113,-0.023412578,0.10176052,-0.37345916,0.33468324,0.20755333,0.2680639,0.19101402,0.39281946,0.8141738,-0.15604854,-0.04338427,0.8422824,0.2748837,-0.61661184,-0.18504149,0.26398027,886.04395,794.17584,811.0989,860.65936,897.72894,0.1719970703125,0.05615234375,0.9801025390625,5.33843994140625,-4.42626953125,4.239349365234375,1,1.0,1.0,1.0,1.0,55.00
2021-04-17 11:47:55.155,0.49599367,0.016451826,-0.5372775,0.35846373,0.17570867,-6.5475045E-4,-0.19868876,0.32396927,0.5417947,0.09881333,0.27876258,0.5143802,0.83920884,-0.15576665,-0.19606973,0.8895687,0.30419254,-0.5055518,-0.3522805,0.30467486,897.72894,792.5641,806.26373,855.0183,992.8205,0.1663818359375,0.074951171875,0.986572265625,4.7552490234375,-5.2337646484375,4.17205810546875,1,1.0,1.0,1.0,1.0,55.00
2021-04-17 11:47:55.378,,,,,,,,,,,,,,,,,,,,,,,,,,,,,,,,,,,,,,/muse/elements/blink
2021-04-17 11:47:55.672,0.5278429,0.14526384,-0.6351895,0.3107538,0.25927982,0.0019510305,-0.16256787,0.30279747,0.59809035,0.0927574,0.2393844,0.48492512,0.81838125,-0.011721328,-0.0839135,0.88806325,0.29969987,-0.4751772,-0.45473456,0.32884783,875.9707,793.36993,813.1135,848.1685,849.3773,0.17108154296875,0.07489013671875,0.9852294921875,5.405731201171875,-4.62066650390625,1.256103515625,1,1.0,1.0,1.0,1.0,55.00
2021-04-17 11:47:56.197,0.4603591,0.22704539,-0.43619224,0.17400374,0.308431,-0.024373567,0.08497084,0.3480808,0.6951595,0.26104903,0.26769134,0.53552824,0.78921837,0.12392666,-0.07264622,0.89022696,0.31263834,-0.4061764,-0.429919,0.3855317,852.6007,792.5641,804.2491,843.73627,778.0586,0.15972900390625,0.07977294921875,0.9912109375,4.179534912109375,-4.964599609375,1.06170654296875,1,1.0,1.0,1.0,1.0,60.00
2021-04-17 11:47:56.599,,,,,,,,,,,,,,,,,,,,,,,,,,,,,,,,,,,,,,/muse/elements/blink
2021-04-17 11:47:56.714,0.2034689,0.1364956,-0.215686,-0.15631814,0.30745563,0.07501797,0.25892153,0.39288267,0.67384857,0.23192155,0.24977584,0.55942595,0.70701355,0.09074824,-0.031697024,0.84964705,0.31522676,-0.525332,-0.4395384,0.3729641,775.2381,800.6227,807.8755,776.04395,802.23444,0.17578125,0.06134033203125,0.9859619140625,4.373931884765625,-3.09539794921875,5.959014892578125,1,1.0,1.0,1.0,1.0,60.00
2021-04-17 11:47:57.218,0.41785717,-0.072255544,-0.12601037,0.16943762,0.48929393,0.10672619,0.29552382,0.53124493,0.6474646,0.28726318,0.15542565,0.609527,0.7111323,0.02792979,-0.041633707,0.8673306,0.34109896,-0.5452374,-0.41969818,0.37255388,772.01465,794.57874,806.26373,736.55676,645.89746,0.1585693359375,0.06622314453125,0.994384765625,4.42626953125,-5.031890869140625,3.22998046875,1,1.0,1.0,1.0,1.0,60.00
2021-04-17 11:47:57.745,0.46321338,-0.3209032,-0.17222488,0.22718868,0.78225666,0.28974584,0.20370431,0.54030156,0.54245734,0.26170075,0.0654381,0.6163116,0.76006514,-0.042986296,0.031674206,0.91159683,0.32557675,-0.58916485,-0.4377296,0.30292338,666.4469,789.7436,799.81683,705.9341,736.1539,0.177978515625,0.0635986328125,0.9866943359375,4.882354736328125,-4.38140869140625,1.1663818359375,1,1.0,1.0,1.0,1.0,60.00
2021-04-17 11:47:57.947,,,,,,,,,,,,,,,,,,,,,,,,,,,,,,,,,,,,,,/muse/elements/blink
2021-04-17 11:47:58.267,0.42416474,-0.008732018,-0.28958312,0.2682158,0.84725326,0.3083232,0.05618807,0.60624045,0.56921625,0.16571799,0.0654381,0.64790905,0.7633398,-0.021113941,0.023311114,0.8858867,0.42562145,-0.5587783,-0.4641337,0.44520384,685.38464,795.38464,798.20514,692.6374,683.36993,0.16949462890625,0.06396484375,0.99383544921875,4.269256591796875,-4.2169189453125,0.725250244140625,1,1.0,1.0,1.0,1.0,60.00
2021-04-17 11:47:58.780,0.16999751,0.07396604,-0.2901732,0.096646644,0.7093831,0.24604447,0.03233592,0.47905928,0.39228913,0.10421733,-0.24484101,0.43161732,0.79955405,-0.065804146,-0.0025576213,0.8866824,0.45009813,-0.5726312,-0.5041986,0.5051305,666.4469,803.0403,803.44324,703.91943,647.1062,0.17279052734375,0.0694580078125,0.988037109375,5.794525146484375,-5.8917236328125,-0.261688232421875,1,1.0,1.0,1.0,1.0,60.00
2021-04-17 11:47:59.148,,,,,,,,,,,,,,,,,,,,,,,,,,,,,,,,,,,,,,/muse/elements/blink
2021-04-17 11:47:59.307,0.20577723,0.1364072,-0.3314691,0.08364067,0.45554537,0.10049411,0.021234827,0.47428396,0.4905101,-0.24005094,-0.18648991,0.4002812,0.7589496,-0.054656677,-0.03265301,0.818125,0.43390435,-0.5689528,-0.4923389,0.5336111,920.293,788.5348,805.4579,881.2088,1033.9194,0.1663818359375,0.05712890625,0.97686767578125,4.747772216796875,-3.940277099609375,2.489776611328125,1,1.0,1.0,1.0,1.0,60.00
2021-04-17 11:47:59.836,0.18553212,0.27766606,-0.14508623,0.05912813,0.30081543,-0.032887235,-0.11417809,0.29383707,0.53291035,-0.1826404,-0.107588686,0.45998225,0.7815464,-0.00797997,0.024086442,0.82460606,0.40144658,-0.44867322,-0.40350884,0.51462,747.8388,788.93774,808.2784,725.6777,662.4176,0.1669921875,0.0694580078125,0.985595703125,4.8748779296875,-5.9814453125,2.803802490234375,1,1.0,1.0,1.0,1.0,60.00
2021-04-17 11:48:00.360,0.13230756,0.35488504,0.038750667,-0.026048597,0.33852944,-0.06089113,-0.23074743,0.3987343,0.59581816,0.28065154,-0.024860436,0.48797205,0.72085303,-0.022744875,0.024989067,0.8202236,0.5208656,-0.36434814,-0.39454693,0.64951193,851.79486,790.54944,811.0989,830.0366,817.9487,0.1712646484375,0.05340576171875,0.9664306640625,1.33087158203125,-9.40582275390625,5.4132080078125,1,1.0,1.0,1.0,1.0,60.00
2021-04-17 11:48:00.493,,,,,,,,,,,,,,,,,,,,,,,,,,,,,,,,,,,,,,/muse/elements/blink
2021-04-17 11:48:00.890,0.093289554,0.40241066,0.26528096,0.16787395,0.49752435,-0.031183345,-0.28920782,0.5307121,0.55348814,0.4523855,0.04953789,0.6986448,0.7498513,0.0071124127,0.043099407,0.89159423,0.5394296,-0.37834197,-0.3711453,0.64472747,692.23444,798.60803,802.23444,706.337,628.5714,0.18212890625,0.0679931640625,0.998779296875,5.84686279296875,-6.228179931640625,6.228179931640625,1,1.0,1.0,1.0,1.0,60.00
2021-04-17 11:48:01.396,0.1119388,0.17303163,0.27208516,0.2650848,0.8958947,-0.08609694,-0.24602938,0.83570606,0.5493767,0.45817256,0.0616381,0.6870179,0.7286387,0.04239689,-0.040739153,0.8867868,0.49746898,-0.45849386,-0.37965766,0.59313226,811.0989,782.49084,800.2198,790.54944,687.8022,0.16668701171875,0.070556640625,0.998046875,7.0281982421875,-3.476715087890625,1.996307373046875,1,1.0,1.0,1.0,1.0,60.00
2021-04-17 11:48:01.802,,,,,,,,,,,,,,,,,,,,,,,,,,,,,,,,,,,,,,/muse/elements/blink
2021-04-17 11:48:01.902,0.17023247,0.013630742,0.19004571,0.2875184,1.0504234,0.10662021,-0.1703999,0.8433435,0.6485442,0.41066992,0.078071564,0.6828,0.74934304,0.052755654,-0.08901866,0.8581881,0.40751764,-0.51418245,-0.37640005,0.49189773,684.9817,811.9048,793.7729,711.978,900.14655,0.15032958984375,0.06011962890625,0.9949951171875,3.72344970703125,-5.271148681640625,-0.37384033203125,1,1.0,1.0,1.0,1.0,60.00
2021-04-17 11:48:02.408,0.09145782,-0.13953277,0.07442985,0.1384785,1.1718513,0.25054964,-0.10699008,0.95804024,0.7152622,0.37788734,0.1273396,0.4578541,0.7100889,0.04295365,-0.05354588,0.85010713,0.38974074,-0.41271073,-0.36263874,0.4825648,883.6264,787.326,811.9048,850.58606,886.8498,0.17498779296875,0.0567626953125,0.99639892578125,4.239349365234375,-4.044952392578125,-0.919647216796875,1,1.0,1.0,1.0,1.0,60.00
2021-04-17 11:48:02.920,0.1542166,-0.09378025,0.3343737,0.34010562,1.1733347,0.42671937,-0.102702744,0.9869941,0.7761684,0.46927172,0.12936045,0.61379826,0.6536065,0.08612218,0.011584635,0.8256089,0.3796319,-0.33162332,-0.41327482,0.4501791,862.27106,801.4286,811.9048,819.15753,764.35895,0.162841796875,0.06195068359375,0.98876953125,4.71038818359375,-4.717864990234375,0.95703125,1,1.0,1.0,1.0,1.0,60.00
2021-04-17 11:48:02.938,,,,,,,,,,,,,,,,,,,,,,,,,,,,,,,,,,,,,,/muse/elements/blink
2021-04-17 11:48:03.439,0.19675201,0.098436415,0.414464,0.43166405,1.1111699,0.41894776,-0.25449035,0.9882127,0.81042445,0.46927172,0.119890325,0.70940274,0.62852854,0.13930231,0.0559092,0.8206379,0.36825526,-0.33032784,-0.5216013,0.3955681,689.41394,787.326,808.68134,702.3077,746.2271,0.15472412109375,0.06256103515625,0.9764404296875,5.076751708984375,-4.65057373046875,1.5252685546875,1,1.0,1.0,1.0,1.0,60.00
2021-04-17 11:48:03.945,0.3281561,0.30308056,0.5020614,0.55138785,0.9919907,0.33950666,-0.15763555,0.86252993,0.81042445,0.40735033,0.12334202,0.7709459,0.5808332,0.13168563,0.01577762,0.7741468,0.33622134,-0.4724393,-0.61207503,0.3746801,674.10254,792.1612,801.4286,718.022,753.8828,0.1741943359375,0.0589599609375,0.98858642578125,3.9178466796875,-4.119720458984375,2.699127197265625,1,1.0,1.0,1.0,1.0,60.00
2021-04-17 11:48:04.246,,,,,,,,,,,,,,,,,,,,,,,,,,,,,,,,,,,,,,/muse/elements/blink
2021-04-17 11:48:04.470,0.49585605,0.4255577,0.30751592,0.4365665,0.9638373,0.18799983,-0.045372013,0.74168175,0.7388734,0.44507128,0.13219899,0.79579186,0.60172206,0.018700797,0.015358019,0.82017356,0.3730516,-0.6085579,-0.62650174,0.420084,839.304,786.9231,803.0403,819.5604,826.0073,0.1575927734375,0.05889892578125,0.9871826171875,3.21502685546875,-5.921630859375,-3.15521240234375,1,1.0,1.0,1.0,1.0,60.00
2021-04-17 11:48:04.998,0.4970153,0.3895029,0.20797455,0.39125192,0.93261653,0.21315296,0.08898122,0.7436441,0.61243504,0.4695362,0.17949128,0.72026324,0.57387656,0.026569933,-0.026556212,0.8277738,0.4694477,-0.5697312,-0.46173698,0.5219008,886.8498,781.28204,806.6667,844.94507,988.7912,0.14825439453125,0.0546875,1.0037841796875,3.66363525390625,-3.72344970703125,-1.039276123046875,1,1.0,1.0,1.0,1.0,60.00
2021-04-17 11:48:05.462,,,,,,,,,,,,,,,,,,,,,,,,,,,,,,,,,,,,,,/muse/elements/blink
2021-04-17 11:48:05.524,0.48138595,0.21884987,-0.084883675,0.41518936,0.8386682,0.10881665,-0.01823407,0.6943235,0.5124833,0.30059668,0.059761792,0.7236681,0.6595323,0.017853515,-0.08792475,0.8930454,0.52733016,-0.55797315,-0.36391526,0.56741714,801.8315,780.87915,803.44324,774.43225,649.5238,0.14569091796875,0.06134033203125,0.99676513671875,5.7720947265625,-4.88983154296875,0.142059326171875,1,1.0,1.0,1.0,1.0,60.00
2021-04-17 11:48:06.031,0.3412812,0.05797994,-0.15328814,0.51539445,0.72172874,0.040755246,-0.055852167,0.73815703,0.40062463,0.33502775,0.10311245,0.5851802,0.66389483,0.065279454,-0.07257284,0.8575051,0.50358516,-0.5093822,-0.36983967,0.5165736,908.60803,795.78754,813.1135,847.76556,862.674,0.152587890625,0.0450439453125,0.9830322265625,2.85614013671875,-3.24493408203125,0.964508056640625,1,1.0,1.0,1.0,1.0,60.00
2021-04-17 11:48:06.549,0.31417987,-0.032975383,-0.17926882,0.48443964,0.54355335,-0.048361894,-0.20912558,0.5792669,0.40935758,0.26033628,-0.12284189,0.43107295,0.69081765,0.054563012,0.096881434,0.8962362,0.44278172,-0.60018075,-0.43188432,0.3565589,698.68134,792.96704,799.41394,731.31866,712.7839,0.15716552734375,0.05889892578125,0.98944091796875,3.768310546875,-4.5458984375,1.861724853515625,1,1.0,1.0,1.0,1.0,55.00
2021-04-17 11:48:06.795,,,,,,,,,,,,,,,,,,,,,,,,,,,,,,,,,,,,,,/muse/elements/blink
2021-04-17 11:48:07.056,0.25146365,0.02224281,-0.34525448,0.35552147,0.29441187,0.09124312,-0.10560982,0.47782376,0.3202117,0.2529935,-0.019539738,0.49921268,0.6773741,0.010771252,0.1443859,0.8869585,0.37137103,-0.5573382,-0.5170214,0.29063904,850.18317,791.3553,803.8461,834.87177,801.8315,0.1549072265625,0.0523681640625,0.99261474609375,4.448699951171875,-5.2935791015625,2.848663330078125,1,1.0,1.0,1.0,1.0,55.00
2021-04-17 11:48:07.581,0.0383022,0.014905475,-0.4356491,0.078694016,-0.08927736,0.21857466,-0.17651236,0.12066515,0.24450633,0.11116612,0.06422638,0.48422286,0.67426574,-0.025223276,0.14936271,0.9288398,0.27760005,-0.5237005,-0.42788482,0.23247376,883.22345,779.67035,816.7399,857.4359,840.10986,0.171875,0.05242919921875,0.986083984375,5.33843994140625,-4.4561767578125,0.49346923828125,1,1.0,1.0,1.0,1.0,55.00
2021-04-17 11:48:08.085,0.098431036,0.13688283,-0.27278537,0.18134771,-0.021339698,0.19710101,-0.09786588,0.39663565,0.19155617,0.20506237,0.15837461,0.487522,0.63702047,-0.08069361,0.06912723,0.88712597,0.14087737,-0.4740857,-0.39627287,0.3039144,765.9707,797.8022,803.0403,741.39197,695.4579,0.1561279296875,0.07183837890625,0.99578857421875,5.1141357421875,-4.104766845703125,4.777679443359375,1,1.0,1.0,1.0,1.0,55.00
2021-04-17 11:48:08.121,,,,,,,,,,,,,,,,,,,,,,,,,,,,,,,,,,,,,,/muse/elements/blink
2021-04-17 11:48:08.605,0.06203785,0.12043038,-0.18975423,0.2484408,0.1456283,0.12358284,-0.10421794,0.3488932,0.50967675,0.26712763,0.20186317,0.5536355,0.6023166,-0.021722604,0.041494243,0.836295,0.15674111,-0.41446957,-0.38174018,0.3779978,671.685,807.47253,801.4286,708.7546,672.8938,0.17681884765625,0.0543212890625,0.9720458984375,6.302947998046875,-5.899200439453125,0.7476806640625,1,1.0,1.0,1.0,1.0,55.00
2021-04-17 11:48:09.112,0.03557738,0.13878326,-0.18412946,0.1358176,0.19908778,0.06658892,-0.12038087,0.3802118,0.6841567,0.2801441,0.18009134,0.6570518,0.56324047,-0.035529997,0.059037913,0.7482996,0.3250035,-0.3153111,-0.404939,0.47949958,757.1062,799.011,791.3553,767.1795,836.08057,0.1875,0.05401611328125,0.982666015625,5.390777587890625,-3.9776611328125,-0.366363525390625,1,1.0,1.0,1.0,1.0,55.00
2021-04-17 11:48:09.315,,,,,,,,,,,,,,,,,,,,,,,,,,,,,,,,,,,,,,/muse/elements/blink
2021-04-17 11:48:09.638,-0.1640339,0.03743662,-0.19852196,0.03233976,0.23423304,0.07748474,-0.2161754,0.21457845,0.6874403,0.33308294,0.13365762,0.6513861,0.585521,0.056173276,0.15528344,0.76006603,0.42779604,-0.25611168,-0.4546966,0.5094423,853.4066,796.99634,809.0842,837.28937,828.022,0.16265869140625,0.0584716796875,0.98248291015625,3.48419189453125,-4.5758056640625,1.33087158203125,1,1.0,1.0,1.0,1.0,55.00
2021-04-17 11:48:10.148,-0.02529968,0.049236715,-0.17212054,-0.13481334,0.2460544,0.014134973,-0.18770708,0.2162377,0.6198058,0.2693318,0.1185575,0.60911363,0.613656,0.06404191,0.16642681,0.7637457,0.39657584,-0.30794543,-0.53886575,0.482,869.5238,792.5641,810.696,843.3333,865.89746,0.16998291015625,0.04229736328125,0.98150634765625,3.865509033203125,-4.673004150390625,1.338348388671875,1,1.0,1.0,1.0,1.0,55.00
2021-04-17 11:48:10.547,,,,,,,,,,,,,,,,,,,,,,,,,,,,,,,,,,,,,,/muse/elements/blink
2021-04-17 11:48:10.675,0.03487843,0.008933418,-0.26938403,-0.013697206,0.20127864,-0.057372678,-0.1153114,0.40997344,0.4389977,0.28459483,0.11951314,0.5682149,0.74064106,0.04970116,0.08364822,0.8075676,0.2521897,-0.41425347,-0.5673298,0.4166875,724.0659,791.75824,798.60803,720.0366,720.4396,0.16156005859375,0.04400634765625,0.98638916015625,5.869293212890625,-5.510406494140625,0.919647216796875,1,1.0,1.0,1.0,1.0,55.00
2021-04-17 11:48:11.177,0.12812962,0.04441025,-0.1291103,0.036529806,0.2203728,-0.20548078,-0.11496482,0.5336713,0.35221443,0.26859343,0.09738295,0.60231525,0.80011195,0.051694345,-0.10220307,0.818101,0.21135664,-0.42925787,-0.42479557,0.4671374,662.01465,791.75824,788.5348,690.2198,631.79486,0.178955078125,0.0357666015625,0.99249267578125,3.94775390625,-6.078643798828125,-1.5252685546875,1,1.0,1.0,1.0,1.0,55.00
2021-04-17 11:48:11.696,0.26423287,0.05290085,0.10310891,0.25195023,0.47298995,0.001970972,-0.06591259,0.71204585,0.26528704,0.26544592,0.20231102,0.6781522,0.7623047,0.054866437,-0.029721815,0.8408747,0.25028315,-0.40597117,-0.40183273,0.4472045,894.90845,796.5934,804.2491,859.85345,879.19415,0.1552734375,0.05535888671875,0.9915771484375,5.84686279296875,-4.717864990234375,0.179443359375,1,1.0,1.0,1.0,1.0,55.00
2021-04-17 11:48:11.765,,,,,,,,,,,,,,,,,,,,,,,,,,,,,,,,,,,,,,/muse/elements/blink
2021-04-17 11:48:12.213,0.42953497,0.13345417,0.2618542,0.43857387,0.58996105,0.22409005,0.07955145,0.7709765,0.37898445,0.17693377,0.15828255,0.6897567,0.7665467,0.088935465,0.020502944,0.93443525,0.33248103,-0.42325157,-0.36725533,0.516298,857.8388,794.17584,806.26373,826.8132,726.8865,0.18243408203125,0.05133056640625,0.984130859375,5.2337646484375,-5.8319091796875,-0.231781005859375,1,1.0,1.0,1.0,1.0,55.00
2021-04-17 11:48:12.728,0.3793165,0.24738234,0.23070481,0.42013863,0.59845114,0.3269381,0.10374012,0.73494905,0.45967484,0.117091894,0.23336992,0.7500398,0.7095754,0.007776007,0.09725916,0.9320496,0.39196125,-0.4835551,-0.40923405,0.48422787,859.45056,790.9524,806.26373,818.7546,793.36993,0.1671142578125,0.05865478515625,0.9844970703125,4.5159912109375,-3.551483154296875,0.800018310546875,1,1.0,1.0,1.0,1.0,55.00
2021-04-17 11:48:13.049,,,,,,,,,,,,,,,,,,,,,,,,,,,,,,,,,,,,,,/muse/elements/blink
2021-04-17 11:48:13.259,0.27831006,0.28486294,0.071231656,0.21791947,0.3908726,0.18649994,0.0046020187,0.4799546,0.55533963,0.044170614,0.2682938,0.74338007,0.7572487,-0.02405629,0.04470815,0.92688185,0.39123753,-0.5418345,-0.44422722,0.5243826,714.7985,787.72894,807.0696,716.8132,643.8828,0.163330078125,0.0484619140625,0.98724365234375,2.773895263671875,-3.237457275390625,0.171966552734375,1,1.0,1.0,1.0,1.0,55.00
2021-04-17 11:48:13.783,0.33232892,0.16403931,0.18580487,-0.033076324,0.24200562,-0.13253036,-0.14659469,0.033004317,0.55733263,-0.036816746,0.1446763,0.66279405,0.65392125,-0.007911887,0.011888815,0.8130093,0.39969593,-0.4273318,-0.49380603,0.5436903,814.3223,791.75824,809.0842,788.5348,717.2161,0.1790771484375,0.04278564453125,0.9991455078125,4.18701171875,-6.228179931640625,4.18701171875,1,1.0,1.0,1.0,1.0,55.00
2021-04-17 11:48:14.289,0.394027,-0.060209364,0.21249463,0.095137,0.21771273,-0.17485729,-0.22177197,0.067485504,0.70349234,0.14756614,0.13881128,0.517578,0.65326744,-0.035855,-0.11773905,0.73727024,0.50661415,-0.37456006,-0.5575754,0.5542241,660.0,799.81683,796.99634,704.3223,704.7253,0.1541748046875,0.03863525390625,1.00115966796875,4.23187255859375,-3.050537109375,-2.811279296875,1,1.0,1.0,1.0,1.0,55.00
2021-04-17 11:48:14.382,,,,,,,,,,,,,,,,,,,,,,,,,,,,,,,,,,,,,,/muse/elements/blink
2021-04-17 11:48:14.805,0.37651515,-0.047015335,0.1633876,0.16516225,0.27885082,-0.019037077,-0.30985618,0.1475077,0.82234275,0.16861902,0.010857511,0.44494686,0.64698386,-0.04079271,-0.14171828,0.74178994,0.55937827,-0.3754957,-0.55270714,0.5567663,886.4469,788.5348,809.0842,848.1685,699.4872,0.16839599609375,0.02496337890625,0.98089599609375,4.78515625,-4.702911376953125,-3.252410888671875,1,1.0,1.0,1.0,1.0,55.00
2021-04-17 11:48:15.328,0.093101144,-0.053651087,-0.24817726,0.08445156,0.50566185,0.089879714,-0.03122491,0.5161119,0.8670516,0.19887544,0.31343776,0.6809495,0.6570003,-0.005572678,0.047507197,0.83750165,0.54064584,-0.34440592,-0.51037407,0.536857,867.9121,793.7729,804.65204,855.82416,878.7912,0.178466796875,0.031005859375,0.99169921875,6.422576904296875,-6.706695556640625,-0.6280517578125,1,1.0,1.0,1.0,1.0,55.00
2021-04-17 11:48:15.721,,,,,,,,,,,,,,,,,,,,,,,,,,,,,,,,,,,,,,/muse/elements/blink
2021-04-17 11:48:15.834,-0.070735104,0.06122302,-0.43550402,0.08855476,0.54619986,0.11855376,0.06465148,0.5225537,0.8665829,0.12567826,0.30233213,0.67472225,0.65130883,0.04317263,0.072727524,0.8544961,0.41967183,-0.44518143,-0.4929913,0.53576815,882.01465,787.326,805.8608,843.3333,992.01465,0.18511962890625,0.04473876953125,0.9735107421875,6.26556396484375,-6.14593505859375,1.68975830078125,1,1.0,1.0,1.0,1.0,55.00
2021-04-17 11:48:16.342,-0.31294546,-0.025941752,-0.37016782,0.04099372,0.46900722,0.046113357,0.07818943,0.66322833,0.7838037,1.884452E-4,0.29920477,0.67472225,0.63566405,-0.022140095,0.0468006,0.8066146,0.3159932,-0.47449446,-0.5106059,0.48160776,748.24176,790.14655,805.4579,736.1539,664.0293,0.1796875,0.06494140625,0.98699951171875,3.48419189453125,-7.588958740234375,2.213134765625,1,1.0,1.0,1.0,1.0,55.00
2021-04-17 11:48:16.855,-0.21414864,0.080264576,-0.043542575,0.18215181,0.21066001,0.013128457,-0.063965574,0.57604647,0.64249134,0.14238505,0.024076464,0.5430162,0.6859404,-0.11841154,-0.12062187,0.7637094,0.38396117,-0.52460885,-0.5018022,0.5366344,680.54944,799.81683,799.011,722.4542,709.15753,0.19964599609375,0.05303955078125,0.980712890625,4.94964599609375,-6.11602783203125,-0.3887939453125,1,1.0,1.0,1.0,1.0,55.00
2021-04-17 11:48:16.939,,,,,,,,,,,,,,,,,,,,,,,,,,,,,,,,,,,,,,/muse/elements/blink
2021-04-17 11:48:17.367,0.0049398066,-0.024467178,-0.026935607,0.22719651,0.041482512,-0.038770787,-0.18828464,0.5295533,0.6985312,0.2383075,0.2507536,0.6356625,0.7061661,-0.2642344,-0.12014998,0.8061141,0.4338791,-0.49086466,-0.53150886,0.5236069,870.32965,792.96704,801.8315,837.28937,849.7802,0.17633056640625,0.05645751953125,0.98822021484375,8.912353515625,-2.40753173828125,-3.940277099609375,1,1.0,1.0,1.0,1.0,55.00
2021-04-17 11:48:17.877,0.13225354,-0.045529556,-0.062316746,0.2653612,-0.06377924,-0.058156345,-0.096623056,0.3170046,0.6725777,0.32571438,0.30274644,0.65729636,0.74820447,-0.2181961,-0.06606077,0.79952395,0.5471335,-0.4140288,-0.55541694,0.55596185,780.4762,798.20514,807.0696,763.5531,603.5897,0.18280029296875,0.0399169921875,1.000732421875,3.84307861328125,-3.529052734375,-0.1495361328125,1,1.0,1.0,1.0,1.0,55.00
2021-04-17 11:48:18.360,,,,,,,,,,,,,,,,,,,,,,,,,,,,,,,,,,,,,,/muse/elements/blink
2021-04-17 11:48:18.391,0.09525488,-0.34266442,-0.17763263,0.17199624,-0.030551966,-0.104024656,-0.20991452,0.21983068,0.6197151,0.32901853,0.2712817,0.682449,0.69962776,-0.26036963,-0.08255109,0.8264009,0.54139745,-0.38348314,-0.6343201,0.51409453,681.75824,800.6227,799.41394,705.5311,689.011,0.15447998046875,0.0472412109375,0.97784423828125,5.75714111328125,0.07476806640625,-2.46734619140625,1,1.0,1.0,1.0,1.0,55.00
2021-04-17 11:48:18.903,0.06680292,-0.026414815,-0.109988086,0.4088114,0.1375439,-0.060594257,-0.31057736,0.38737395,0.51325,0.37408805,0.25964588,0.581013,0.705669,-0.04858001,-0.013306152,0.82847315,0.5093946,-0.4280916,-0.66425985,0.50836295,738.5714,797.8022,812.3077,758.315,749.45056,0.1533203125,0.0711669921875,1.00311279296875,4.80010986328125,-0.777587890625,4.127197265625,1,1.0,1.0,1.0,1.0,55.00
2021-04-17 11:48:19.427,0.024682982,0.311966,-0.08140245,0.43878525,0.20562297,0.15690775,-0.3926395,0.3787471,0.54858935,0.32130188,0.11159706,0.6035095,0.6843856,0.11179309,-0.0848023,0.8310908,0.3976183,-0.49673736,-0.5885442,0.4858364,858.24176,791.3553,811.50183,843.3333,807.0696,0.1727294921875,0.05987548828125,0.99847412109375,3.84307861328125,-6.20574951171875,3.2598876953125,1,1.0,1.0,1.0,1.0,55.00
2021-04-17 11:48:19.496,,,,,,,,,,,,,,,,,,,,,,,,,,,,,,,,,,,,,,/muse/elements/blink
2021-04-17 11:48:19.697,,,,,,,,,,,,,,,,,,,,,,,,,,,,,,,,,,,,,,/muse/elements/blink
2021-04-17 11:48:19.933,0.25906083,0.34795076,-0.07972526,0.5794741,0.23564747,0.21615888,-0.29626366,0.30012363,0.57549495,0.3841002,0.13502803,0.6130044,0.6827922,0.126842,-0.02985173,0.78091127,0.37134632,-0.57392246,-0.49682102,0.42560476,871.9414,782.8938,805.4579,830.0366,859.45056,0.18280029296875,0.06939697265625,0.98883056640625,6.160888671875,-6.1907958984375,-0.61309814453125,1,1.0,1.0,1.0,1.0,55.00
2021-04-17 11:48:20.439,0.20337725,0.37486747,-0.014655867,0.4664113,0.1662217,0.20738302,-0.15488459,0.21373813,0.5978392,0.37962833,0.15346722,0.6155787,0.6301287,0.06524019,-0.016134603,0.7839259,0.35835022,-0.50542486,-0.37821865,0.41040522,754.2857,791.3553,805.8608,728.49817,621.7216,0.19482421875,0.062255859375,0.9862060546875,4.897308349609375,-5.914154052734375,-1.443023681640625,1,1.0,1.0,1.0,1.0,55.00
2021-04-17 11:48:20.717,,,,,,,,,,,,,,,,,,,,,,,,,,,,,,,,,,,,,,/muse/elements/blink
2021-04-17 11:48:20.943,0.13937934,0.2120641,0.06473131,0.45967042,0.24794905,0.027519148,-0.1661588,0.26341286,0.64839673,0.34082428,0.082898706,0.64985317,0.54067254,0.06640536,0.06516917,0.8051416,0.30442357,-0.52896184,-0.2835292,0.40597707,670.07324,789.34064,796.5934,710.3663,693.8461,0.1883544921875,0.0606689453125,0.98291015625,3.48419189453125,-3.656158447265625,-0.530853271484375,1,1.0,1.0,1.0,1.0,55.00
2021-04-17 11:48:21.445,-0.10419318,0.23900013,-0.01747985,0.38869584,0.25670156,-0.13081864,-0.09903396,0.2991435,0.6515696,0.16304572,-0.017457431,0.78260684,0.56372166,0.067318566,0.03881238,0.79549617,0.29863638,-0.5280874,-0.26806748,0.45012558,780.87915,792.1612,806.6667,788.5348,834.87177,0.171630859375,0.0633544921875,1.00238037109375,4.05242919921875,-4.90478515625,0.19439697265625,1,1.0,1.0,1.0,1.0,55.00
2021-04-17 11:48:21.907,,,,,,,,,,,,,,,,,,,,,,,,,,,,,,,,,,,,,,/muse/elements/blink
2021-04-17 11:48:21.955,0.044290863,0.085381925,-0.18020228,0.4048148,0.2475526,-0.37606758,-0.03873502,0.4131283,0.6599457,0.026435088,-0.033745386,0.8309702,0.58340716,0.057075083,0.032058325,0.7461861,0.32812095,-0.56263137,-0.3230391,0.40573558,778.0586,792.5641,806.6667,751.4652,703.1135,0.19366455078125,0.07049560546875,0.988037109375,3.656158447265625,-7.2674560546875,0.59814453125,1,1.0,1.0,1.0,1.0,55.00
2021-04-17 11:48:22.475,0.16177408,-0.034493685,-0.19299307,0.4109141,0.25999367,-0.5631291,0.08636278,0.411017,0.5054188,-0.023059059,-0.11482293,0.8268059,0.6916177,-0.11487755,-0.021519808,0.78685707,0.36960122,-0.5776936,-0.44500792,0.38583156,657.1795,790.54944,802.6374,697.0696,706.7399,0.1820068359375,0.07373046875,0.97344970703125,5.345916748046875,-5.5029296875,4.26177978515625,1,1.0,1.0,1.0,1.0,55.00
2021-04-17 11:48:22.983,0.14949612,0.014322897,-0.15574381,0.28389007,0.45291966,-0.49409574,0.035862416,0.50845,0.7094832,0.13398783,-0.2286859,0.6855618,0.6829108,-0.15013702,0.033201206,0.75527614,0.3045608,-0.62520653,-0.48951438,0.33446977,765.56775,792.96704,805.05493,779.67035,865.4945,0.175048828125,0.09515380859375,0.978759765625,8.007659912109375,-4.254302978515625,4.08233642578125,1,1.0,1.0,1.0,1.0,55.00
2021-04-17 11:48:23.313,,,,,,,,,,,,,,,,,,,,,,,,,,,,,,,,,,,,,,/muse/elements/blink
2021-04-17 11:48:23.509,0.108027816,-0.0233482,-0.1947412,0.24048173,0.6924689,-0.24213399,-0.094456196,0.53613573,0.8198862,0.22492646,-0.28044546,0.32733965,0.6900193,-0.21272108,-0.022157893,0.7608291,0.22519997,-0.6028978,-0.46902835,0.3668016,855.0183,781.28204,811.9048,821.978,787.326,0.196044921875,0.09375,0.986572265625,6.228179931640625,-2.848663330078125,2.729034423828125,1,1.0,1.0,1.0,1.0,55.00
2021-04-17 11:48:24.030,0.09458707,-0.10732489,-0.41085923,0.26517487,0.67044175,-0.16632225,-0.29065615,0.5102322,0.8198862,0.22942697,-0.10601414,0.30200347,0.6606536,-0.14231451,-0.076917425,0.7151447,0.17077124,-0.47790784,-0.3810453,0.3533269,885.64105,786.52014,804.65204,843.3333,761.53845,0.19439697265625,0.073486328125,0.99896240234375,1.79443359375,-1.727142333984375,-1.981353759765625,1,1.0,1.0,1.0,1.0,55.00
2021-04-17 11:48:24.543,0.054784477,-0.30854914,-0.67784053,0.2959191,0.5795756,-0.0723241,-0.23294058,0.38043246,0.7816497,0.28067717,-0.0651575,0.41260973,0.65265125,-0.13528728,-0.20095094,0.75719625,0.14283344,-0.3813464,-0.41571158,0.33639556,743.00366,792.1612,805.05493,747.03296,672.8938,0.1693115234375,0.05413818359375,0.98028564453125,1.727142333984375,-3.51409912109375,2.28790283203125,1,1.0,1.0,1.0,1.0,55.00
2021-04-17 11:48:24.646,,,,,,,,,,,,,,,,,,,,,,,,,,,,,,,,,,,,,,/muse/elements/blink
2021-04-17 11:48:25.057,0.1542211,-0.2755187,-0.4497041,0.23360805,0.29533783,-0.09186375,-0.2026071,0.00372011,0.43192238,0.25839028,0.012223005,0.39134336,0.67082494,-0.079682894,-0.12554571,0.8222651,0.18290026,-0.41245905,-0.48696825,0.32284454,852.1978,795.78754,809.0842,809.89014,738.5714,0.1851806640625,0.07623291015625,0.98114013671875,6.23565673828125,-5.60760498046875,1.15142822265625,1,1.0,1.0,1.0,1.0,55.00
2021-04-17 11:48:25.579,0.15747602,-0.2701329,-0.27545837,0.23017764,0.29263058,-0.12088358,-0.2900345,0.041859876,0.42987356,0.2481672,0.01415716,0.3996352,0.65693027,-0.12255739,-0.071866564,0.817955,0.18283853,-0.49961755,-0.5558503,0.31752524,774.0293,796.1905,803.0403,788.93774,783.2967,0.16748046875,0.08135986328125,0.98345947265625,6.1907958984375,-5.495452880859375,0.897216796875,1,1.0,1.0,1.0,1.0,55.00
2021-04-17 11:48:25.878,,,,,,,,,,,,,,,,,,,,,,,,,,,,,,,,,,,,,,/muse/elements/blink
2021-04-17 11:48:26.104,0.26912075,-0.32985723,0.007100866,0.3154819,0.35197166,-0.25287256,-0.4674049,0.05986426,0.32166916,0.2018478,0.05723848,0.31059596,0.681847,-0.13036399,-0.051143076,0.8160293,0.20456818,-0.54205114,-0.57044905,0.34657592,866.30035,795.38464,802.23444,839.304,771.2088,0.17791748046875,0.0755615234375,0.97613525390625,5.36834716796875,-4.66552734375,-0.067291259765625,1,1.0,1.0,1.0,1.0,55.00
2021-04-17 11:48:26.631,0.13197042,-0.05166622,0.057567764,0.24116726,0.19537166,-0.4860241,-0.29805222,0.1810131,0.36948547,-0.027911613,0.31595886,0.37880155,0.7026735,-0.120607786,-0.11951234,0.7149093,0.16190101,-0.5194766,-0.6248317,0.35751304,825.6044,791.75824,804.65204,822.381,871.13556,0.19329833984375,0.06878662109375,0.98162841796875,4.254302978515625,-3.910369873046875,-3.013153076171875,1,1.0,1.0,1.0,1.0,55.00
2021-04-17 11:48:27.079,,,,,,,,,,,,,,,,,,,,,,,,,,,,,,,,,,,,,,/muse/elements/blink
2021-04-17 11:48:27.144,0.15508075,0.1843493,-0.0064077117,0.27011085,0.20820314,-0.15459304,-0.13014378,0.2660329,0.3883034,0.105816975,0.31324634,0.36482716,0.6788013,-0.07482578,-0.10539063,0.71383625,0.22668846,-0.50216293,-0.6631097,0.33570346,867.1062,787.72894,809.4872,843.3333,799.011,0.20196533203125,0.07135009765625,0.97900390625,2.392578125,-3.5589599609375,-1.0467529296875,1,1.0,1.0,1.0,1.0,55.00
2021-04-17 11:48:27.650,0.18214725,0.2366125,-0.1555455,0.29647434,0.19383422,-0.10695128,-0.069302864,0.2487632,0.49159548,0.21963428,0.27960485,0.36482716,0.661572,-0.10949429,-0.093723394,0.71895003,0.24112348,-0.5428491,-0.5912466,0.26763496,817.9487,786.1172,807.47253,780.07324,646.7033,0.1922607421875,0.06549072265625,0.97552490234375,4.47113037109375,-5.944061279296875,0.418701171875,1,1.0,1.0,1.0,1.0,55.00
2021-04-17 11:48:28.156,0.18352236,0.102532595,0.025768936,0.29622477,0.3732769,0.060312297,-0.13266914,0.13809665,0.5533185,0.31793812,0.23296072,0.2883244,0.6285608,-0.16896816,-0.015994772,0.7750112,0.23883304,-0.60457265,-0.56329864,0.27945966,690.6227,798.60803,798.60803,718.022,709.15753,0.19793701171875,0.0657958984375,0.9837646484375,5.301055908203125,-3.72344970703125,-0.9271240234375,1,1.0,1.0,1.0,1.0,55.00
2021-04-17 11:48:28.290,,,,,,,,,,,,,,,,,,,,,,,,,,,,,,,,,,,,,,/muse/elements/blink
2021-04-17 11:48:28.668,0.19081762,-0.13505988,0.028424999,0.17799635,0.31201267,-0.014606188,-0.2064588,0.061345723,0.61249566,0.3280085,0.05162275,0.32433704,0.59659237,-0.23931141,0.002491239,0.76094437,0.23644781,-0.61598206,-0.5305148,0.2290125,713.1868,791.3553,794.17584,736.55676,736.1539,0.19073486328125,0.0618896484375,0.97003173828125,4.80010986328125,-5.839385986328125,-0.201873779296875,1,1.0,1.0,1.0,1.0,55.00
2021-04-17 11:48:29.181,0.15784964,-0.073417515,-2.3349424E-4,-0.081303,0.3734709,0.051536668,-0.29662505,0.089177914,0.6248478,0.329585,0.26389045,0.33498693,0.52486956,-0.1424218,0.036792226,0.7123178,0.21466874,-0.58382416,-0.58685905,0.21657565,827.619,787.72894,807.0696,795.38464,700.293,0.19610595703125,0.06365966796875,0.96929931640625,5.689849853515625,-5.196380615234375,4.964599609375,1,1.0,1.0,1.0,1.0,55.00
2021-04-17 11:48:29.614,,,,,,,,,,,,,,,,,,,,,,,,,,,,,,,,,,,,,,/muse/elements/blink
2021-04-17 11:48:29.683,0.16987018,-0.040122498,-0.25844276,-0.111494176,0.20395617,0.03753593,-0.34831405,0.09493869,0.5689186,0.20483153,0.30190346,0.3592066,0.49173012,-0.105567634,0.006616607,0.6311913,0.19259162,-0.53467643,-0.5701087,0.19904205,715.6044,794.9817,805.8608,733.73627,764.35895,0.17950439453125,0.08990478515625,0.982666015625,7.259979248046875,-5.084228515625,0.76263427734375,1,1.0,1.0,1.0,1.0,55.00
2021-04-17 11:48:30.195,0.11482418,-0.0397228,-0.10222421,0.03167947,0.23296258,-0.027618602,-0.3615111,0.07311372,0.5089181,0.11100978,0.2850708,0.32274133,0.62067753,-0.030251138,-0.051321264,0.6101127,0.2101679,-0.5136419,-0.5270077,0.25742626,699.4872,791.3553,798.20514,728.9011,751.06226,0.2098388671875,0.06500244140625,0.97802734375,4.35150146484375,-5.630035400390625,-0.157012939453125,1,1.0,1.0,1.0,1.0,55.00
2021-04-17 11:48:30.707,0.08573032,-0.08183294,0.008710534,0.09633937,0.31753516,-0.17357306,-0.1739875,0.21578372,0.5923667,0.11034242,0.17305891,0.44415897,0.61295956,-0.046967924,-0.030142728,0.6711572,0.25855297,-0.5314257,-0.47267792,0.30391368,844.5421,782.0879,801.8315,807.8755,688.60803,0.1966552734375,0.07354736328125,0.97637939453125,4.5458984375,-3.887939453125,3.372039794921875,1,1.0,1.0,1.0,1.0,55.00
2021-04-17 11:48:30.986,,,,,,,,,,,,,,,,,,,,,,,,,,,,,,,,,,,,,,/muse/elements/blink
2021-04-17 11:48:31.216,0.11250947,-0.123320855,0.058607567,0.091978736,0.4392211,-0.33441803,-0.11373473,0.3063046,0.5928241,0.075961754,0.037172016,0.4962382,0.6470285,-0.07022065,-0.06678257,0.70705336,0.2690085,-0.5629125,-0.42573038,0.27649805,876.77655,792.5641,810.293,852.6007,804.2491,0.20367431640625,0.0908203125,0.97662353515625,6.2506103515625,-5.555267333984375,0.814971923828125,1,1.0,1.0,1.0,1.0,55.00
2021-04-17 11:48:31.733,0.15407325,-0.019273605,0.0028049755,-0.08071017,0.4199727,-0.34363952,0.0058845314,0.25821066,0.55809975,0.05641481,0.041067373,0.5592354,0.5576362,-0.09593271,-0.059714198,0.74589854,0.1950834,-0.5636688,-0.47524378,0.2743538,803.44324,787.72894,804.65204,771.2088,728.0952,0.2205810546875,0.0806884765625,0.97210693359375,5.944061279296875,-4.762725830078125,3.69354248046875,1,1.0,1.0,1.0,1.0,55.00
2021-04-17 11:48:32.081,,,,,,,,,,,,,,,,,,,,,,,,,,,,,,,,,,,,,,/muse/elements/blink
2021-04-17 11:48:32.237,0.18785527,-0.10415736,-0.15000838,0.0011769612,0.25308508,-0.2895812,-0.075488605,0.1569893,0.45913923,-0.0019437923,0.10495842,0.4220183,0.6300818,-0.068261266,-0.14577578,0.75926,0.17506018,-0.5289389,-0.5373609,0.15346551,811.9048,796.5934,801.4286,803.8461,764.7619,0.2161865234375,0.07012939453125,0.975830078125,4.17205810546875,-6.2506103515625,2.7813720703125,1,1.0,1.0,1.0,1.0,55.00
2021-04-17 11:48:32.740,0.21008581,0.09138128,-0.25513706,0.20459,0.37921706,-0.23072506,-0.04852583,0.20651598,0.56703407,-0.053481683,0.10592973,0.5540342,0.6033626,-0.07789771,-0.19091077,0.7783793,0.20349656,-0.46089607,-0.5758695,0.09724006,715.6044,783.69965,801.8315,745.42126,743.4066,0.21795654296875,0.090576171875,0.978271484375,3.551483154296875,-2.70660400390625,-1.1962890625,1,1.0,1.0,1.0,1.0,55.00
2021-04-17 11:48:33.255,0.29400417,0.24172977,-0.33772987,0.33942917,0.46243447,-0.17357911,-0.19987057,0.36635882,0.5641771,0.032574657,0.05923962,0.5512001,0.6552544,-0.11751694,-0.21851984,0.77559006,0.25617525,-0.46657285,-0.4672551,0.2305327,828.4249,788.1319,801.8315,792.96704,678.93774,0.18780517578125,0.0780029296875,0.979736328125,6.317901611328125,-4.433746337890625,2.639312744140625,1,1.0,1.0,1.0,1.0,55.00
2021-04-17 11:48:33.405,,,,,,,,,,,,,,,,,,,,,,,,,,,,,,,,,,,,,,/muse/elements/blink
2021-04-17 11:48:33.769,0.28600565,0.32152757,0.032966103,0.35653955,0.49997383,-0.0067914887,-0.15558933,0.3551034,0.6022864,0.21855631,0.070716605,0.53816247,0.6033116,-0.10882872,-0.036267735,0.7460243,0.2934061,-0.423888,-0.35464445,0.4345553,887.6557,781.685,811.50183,855.42126,829.2308,0.205322265625,0.06646728515625,0.98590087890625,4.882354736328125,-3.536529541015625,-2.4224853515625,1,1.0,1.0,1.0,1.0,55.00
2021-04-17 11:48:34.278,0.33985636,0.4795818,0.2354688,0.60453403,0.36141664,0.22467956,-0.07736523,0.408033,0.4290967,0.5164951,0.15208584,0.75010437,0.5991474,-0.066125214,0.01787513,0.73471695,0.31084722,-0.4720373,-0.38329083,0.4286398,722.4542,777.6557,824.3956,755.4945,741.79486,0.2218017578125,0.0543212890625,0.96514892578125,3.686065673828125,-11.207733154296875,3.058013916015625,1,1.0,1.0,1.0,1.0,55.00
2021-04-17 11:48:34.729,,,,,,,,,,,,,,,,,,,,,,,,,,,,,,,,,,,,,,/muse/elements/blink
2021-04-17 11:48:34.794,0.7656516,0.8842984,0.7414766,0.9954033,0.3132197,0.51317734,0.31225288,0.6949982,0.7163295,0.5392481,0.24707957,0.8355832,0.58223003,-0.007083419,0.08906174,0.712933,0.30687016,-0.5028083,-0.49576715,0.35292664,820.7692,789.34064,807.8755,796.1905,766.3736,0.24774169921875,0.06317138671875,0.964111328125,4.2169189453125,-5.779571533203125,1.55517578125,1,1.0,1.0,1.0,1.0,55.00
2021-04-17 11:48:35.316,0.9230816,1.052703,1.1008656,1.2038882,0.35707152,0.5970342,0.49072802,0.85658526,0.8204602,0.5392481,0.24193537,0.833276,0.6102854,-0.016462669,0.06581996,0.68540496,0.2729514,-0.61811626,-0.6098841,0.19723915,879.19415,786.1172,794.57874,843.73627,911.02563,0.22930908203125,0.053466796875,0.9739990234375,2.534637451171875,-6.706695556640625,-0.55328369140625,1,1.0,1.0,1.0,1.0,55.00
2021-04-17 11:48:35.846,0.8558057,1.0207684,1.1010696,1.2497042,0.3552348,0.5617421,0.49016237,0.9140727,0.8099679,0.38569653,0.3029089,0.8203578,0.6457137,0.02891034,0.09016989,0.7184484,0.26768887,-0.52164626,-0.49362716,0.18635103,811.0989,787.326,807.47253,774.43225,730.9158,0.21563720703125,0.0361328125,0.972412109375,0.8673095703125,-5.51788330078125,-1.62994384765625,1,1.0,1.0,1.0,1.0,55.00
2021-04-17 11:48:35.945,,,,,,,,,,,,,,,,,,,,,,,,,,,,,,,,,,,,,,/muse/elements/blink
2021-04-17 11:48:36.351,0.5327485,0.6373007,0.8174233,0.95987815,0.5286828,0.33812737,0.30716395,0.5942104,0.7985314,0.2086705,0.3100643,0.66064787,0.6051917,0.12799983,0.07409711,0.72773,0.30922106,-0.53580105,-0.49233994,0.14145012,880.0,789.34064,812.3077,852.6007,795.38464,0.21673583984375,0.03240966796875,0.9786376953125,4.74029541015625,-5.90667724609375,2.46734619140625,1,1.0,1.0,1.0,1.0,55.00
2021-04-17 11:48:36.878,0.3224017,0.4775033,0.34395385,0.73901516,0.5797224,0.33868018,0.17097346,0.54277825,0.66753936,0.18194662,0.2976238,0.66319335,0.5870424,0.122521535,0.045017134,0.7039283,0.3071483,-0.5671491,-0.49093002,0.1867168,890.4762,791.3553,801.02563,853.8095,850.58606,0.21630859375,0.04864501953125,0.97509765625,4.613189697265625,-3.3795166015625,1.614990234375,1,1.0,1.0,1.0,1.0,55.00
2021-04-17 11:48:37.245,,,,,,,,,,,,,,,,,,,,,,,,,,,,,,,,,,,,,,/muse/elements/blink
2021-04-17 11:48:37.407,0.2312254,0.28514388,0.17545702,0.5698001,0.62385684,0.30865997,0.077079505,0.53388995,0.66054946,0.14383495,0.21614867,0.6581941,0.56651497,0.09994307,-0.079415165,0.6600112,0.34814227,-0.62254614,-0.49120283,0.26403284,651.13556,783.2967,809.0842,694.65204,624.94507,0.20306396484375,0.032958984375,0.97723388671875,3.506622314453125,-5.465545654296875,3.850555419921875,1,1.0,1.0,1.0,1.0,55.00
2021-04-17 11:48:37.935,0.23187032,-0.07926495,0.35275972,0.64654213,0.5865026,0.35486925,-0.12506627,0.5357461,0.65909547,0.14006397,0.07807767,0.5305865,0.626743,0.12693983,-0.02626902,0.7155332,0.29004171,-0.5683207,-0.53552395,0.20527299,891.28204,799.011,809.0842,863.47986,867.9121,0.16204833984375,0.0208740234375,1.018798828125,0.575714111328125,-1.33087158203125,0.964508056640625,1,1.0,1.0,1.0,1.0,55.00
2021-04-17 11:48:38.459,0.29627016,0.02958511,0.34748238,0.6258225,0.5924411,0.42398912,-0.11551741,0.52570677,0.55939466,0.17524527,0.2001976,0.59837335,0.7092224,0.123083316,0.004005087,0.7532848,0.3199285,-0.5118353,-0.60512435,0.27370352,847.3626,792.5641,809.89014,832.0513,784.10254,0.20458984375,0.023681640625,0.96893310546875,-2.190704345703125,-12.72552490234375,-5.570220947265625,1,1.0,1.0,1.0,1.0,55.00
2021-04-17 11:48:38.561,,,,,,,,,,,,,,,,,,,,,,,,,,,,,,,,,,,,,,/muse/elements/blink
2021-04-17 11:48:38.881,,,,,,,,,,,,,,,,,,,,,,,,,,,,,,,,,,,,,,/muse/elements/blink
2021-04-17 11:48:38.989,0.3859441,0.5113484,0.47127548,0.4809629,0.63536096,0.49372956,-0.088799134,0.563215,0.5581408,0.3888678,0.20032293,0.58482707,0.72162473,0.1111114,0.0440705,0.7925016,0.2662769,-0.44234532,-0.60840505,0.31725672,875.16486,788.1319,796.1905,875.9707,780.87915,0.1875,0.0489501953125,1.006103515625,3.90289306640625,-4.388885498046875,0.695343017578125,1,1.0,1.0,1.0,1.0,55.00
2021-04-17 11:48:39.506,0.402732,0.6532566,0.6400686,-0.1736512,0.5817755,0.5194221,0.0046484577,0.6314287,0.3075965,0.3700788,0.27005035,0.42863396,0.67597854,-0.006955927,-0.010877327,0.77743715,0.25051022,-0.3797254,-0.5175534,0.46231902,882.4176,788.1319,812.3077,855.82416,802.23444,0.18402099609375,0.03826904296875,0.99530029296875,6.108551025390625,-5.031890869140625,1.7047119140625,1,1.0,1.0,1.0,1.0,55.00
2021-04-17 11:48:39.678,,,,,,,,,,,,,,,,,,,,,,,,,,,,,,,,,,,,,,/muse/elements/blink
2021-04-17 11:48:39.885,,,,,,,,,,,,,,,,,,,,,,,,,,,,,,,,,,,,,,/muse/elements/blink
2021-04-17 11:48:40.015,0.49107027,0.81431,0.8027195,-0.053507034,0.56257045,0.45880812,0.044552572,0.7008773,0.17365554,0.34366116,0.19614069,0.40127122,0.6568031,-0.03995712,0.19168009,0.8038718,0.16000642,-0.35173693,-0.4428226,0.46703368,844.94507,796.5934,804.2491,794.57874,556.04395,0.16033935546875,0.0611572265625,0.98773193359375,5.181427001953125,-3.84307861328125,6.280517578125,1,1.0,1.0,1.0,1.0,55.00
2021-04-17 11:48:40.523,0.49107027,0.80886716,0.65214705,-0.053507034,0.56257045,0.30581462,0.0028917394,0.7008773,0.17365554,0.037933894,0.27211994,0.40127122,0.6568031,-0.018688928,0.22762726,0.8038718,0.16000642,-0.3364028,-0.23360372,0.46703368,802.23444,798.60803,807.47253,803.8461,867.9121,0.1275634765625,0.04742431640625,0.9847412109375,3.342132568359375,1.353302001953125,2.564544677734375,1,1.0,1.0,1.0,1.0,55.00
2021-04-17 11:48:40.828,,,,,,,,,,,,,,,,,,,,,,,,,,,,,,,,,,,,,,/muse/elements/blink
2021-04-17 11:48:41.023,,,,,,,,,,,,,,,,,,,,,,,,,,,,,,,,,,,,,,/muse/elements/blink
2021-04-17 11:48:41.057,0.49107027,0.8805833,0.5840558,-0.053507034,0.56257045,0.45001805,0.12089997,0.7008773,0.17365554,0.39412302,0.4296663,0.40127122,0.6568031,-0.01941471,0.18446203,0.8038718,0.16000642,-0.2950114,-0.1989639,0.46703368,873.1502,790.14655,804.65204,854.61536,841.7216,-0.001220703125,-0.01995849609375,1.0,-0.9869384765625,1.203765869140625,2.504730224609375,1,1.0,1.0,1.0,1.0,55.00
2021-04-17 11:48:41.584,0.49107027,1.0866818,0.90128964,-0.053507034,0.56257045,0.6153762,0.4980652,0.7008773,0.17365554,0.5618388,0.574309,0.40127122,0.6568031,0.03715866,0.09334849,0.8038718,0.16000642,-0.29848075,-0.14019403,0.46703368,826.8132,790.14655,802.6374,810.293,768.3883,0.06561279296875,-0.064697265625,0.997314453125,5.779571533203125,-4.957122802734375,-6.160888671875,1,2.0,1.0,1.0,2.0,55.00
2021-04-17 11:48:42.111,0.49107027,1.0776571,1.0428264,-0.053507034,0.56257045,0.61613804,0.5829247,0.7008773,0.17365554,0.5932699,0.6181664,0.40127122,0.6568031,0.0965819,0.044297747,0.8038718,0.16000642,-0.33124006,-0.2557639,0.46703368,871.13556,796.99634,805.4579,839.707,849.3773,0.11981201171875,0.0352783203125,0.9884033203125,11.97784423828125,-8.276824951171875,0.59814453125,1,2.0,1.0,1.0,2.0,55.00
2021-04-17 11:48:42.213,,,,,,,,,,,,,,,,,,,,,,,,,,,,,,,,,,,,,,/muse/elements/blink
2021-04-17 11:48:42.612,0.60740346,0.96388006,0.9856622,0.5544493,0.08972433,0.45954007,0.52022517,0.22576325,0.11737628,0.5843489,0.6109943,0.2992367,0.66969866,0.07450843,-0.0386549,0.5887824,0.21060184,-0.45050186,-0.3767427,0.24585992,797.8022,794.17584,802.23444,781.685,656.77655,-0.0101318359375,-0.0220947265625,1.003173828125,8.792724609375,-10.714263916015625,3.12530517578125,1,1.0,1.0,1.0,1.0,55.00
2021-04-17 11:48:43.128,0.66396713,0.6760008,0.6375925,0.62883294,0.22489183,0.14014338,0.10319413,0.27208766,0.8213878,0.32797116,0.40972966,0.7911722,0.7015127,0.0775855,-0.14316884,0.6341797,0.5157727,-0.49344164,-0.5594377,0.4780021,804.2491,797.3993,800.2198,798.60803,790.14655,0.0697021484375,0.079833984375,0.99005126953125,11.1553955078125,-1.09161376953125,1.79443359375,1,1.0,1.0,1.0,1.0,55.00
2021-04-17 11:48:43.631,1.0405557,0.8305069,-0.0045231,0.62883294,0.71790683,0.18450691,-0.3355106,0.27208766,0.96334016,0.3889581,0.0027300324,0.7911722,0.79159635,0.110044815,-0.101540886,0.6341797,0.5806243,-0.5022071,-0.57989866,0.4780021,801.02563,792.96704,808.68134,809.89014,807.8755,-0.002197265625,0.03900146484375,1.0042724609375,2.115936279296875,2.51220703125,2.504730224609375,1,1.0,1.0,1.0,1.0,55.00
2021-04-17 11:48:43.775,,,,,,,,,,,,,,,,,,,,,,,,,,,,,,,,,,,,,,/muse/elements/blink
2021-04-17 11:48:44.139,1.1817834,1.1868169,0.092844605,0.69745475,0.8968834,0.7360241,-0.38637236,0.30997214,0.96334016,0.560061,0.017110264,0.7911722,0.8712029,0.2122209,-0.07382685,0.6812934,0.6904423,-0.3724151,-0.42452204,0.6515942,786.9231,795.78754,809.0842,790.54944,724.87177,-0.033447265625,0.02392578125,0.9901123046875,4.747772216796875,-3.170166015625,5.03936767578125,1,1.0,1.0,1.0,1.0,55.00
2021-04-17 11:48:44.651,1.3957648,1.2222255,0.4300069,0.69745475,1.1234471,0.8334359,0.08339682,0.30997214,0.94891053,0.7665323,0.32357574,0.7911722,0.9506681,0.20170707,0.011951645,0.6812934,0.54114795,-0.3619126,-0.23224269,0.6515942,933.5897,824.3956,804.65204,892.49084,773.22345,-0.05816650390625,0.05877685546875,0.99468994140625,5.8917236328125,-9.271240234375,5.21881103515625,1,1.0,1.0,1.0,1.0,55.00
2021-04-17 11:48:45.155,1.3957648,1.1831018,0.57778066,0.69745475,1.1234471,0.8299458,0.1940195,0.30997214,0.94891053,0.7691373,0.31629506,0.7911722,0.9506681,0.16553001,0.045303896,0.6812934,0.54114795,-0.28476924,-0.03423466,0.6515942,791.75824,790.54944,804.65204,781.28204,770.80585,-0.043701171875,0.05731201171875,1.00225830078125,3.828125,-0.829925537109375,-1.158905029296875,1,1.0,1.0,1.0,1.0,55.00
2021-04-17 11:48:45.353,,,,,,,,,,,,,,,,,,,,,,,,,,,,,,,,,,,,,,/muse/elements/blink
2021-04-17 11:48:45.655,1.3957648,1.1245241,0.64921004,0.69745475,1.1234471,0.6238577,0.2317215,0.30997214,0.94891053,0.6928786,0.31513327,0.7911722,0.9506681,0.0842661,0.0420842,0.6812934,0.54114795,-0.3705912,-0.044570323,0.6515942,792.1612,790.14655,803.8461,798.20514,754.2857,-0.09173583984375,0.03759765625,0.99639892578125,4.18701171875,-2.3626708984375,-0.3887939453125,1,1.0,1.0,1.0,1.0,55.00
2021-04-17 11:48:46.176,1.3957648,1.0160786,0.64221436,0.69745475,1.1234471,0.35623887,0.03502272,0.30997214,0.94891053,0.6381978,0.15708837,0.7911722,0.9506681,0.05316066,-0.044155087,0.6812934,0.54114795,-0.36146396,-0.06763565,0.6515942,795.78754,794.57874,802.6374,773.22345,755.4945,-0.106689453125,0.02166748046875,0.99658203125,5.15899658203125,-8.725433349609375,-0.657958984375,1,1.0,1.0,1.0,1.0,55.00
2021-04-17 11:48:46.574,,,,,,,,,,,,,,,,,,,,,,,,,,,,,,,,,,,,,,/muse/elements/blink
2021-04-17 11:48:46.683,1.3957648,0.9281641,0.5158994,0.69745475,1.1234471,0.22075412,0.05660448,0.30997214,0.94891053,0.27822477,0.033026185,0.7911722,0.9506681,0.035626847,-0.07474464,0.6812934,0.54114795,-0.40382665,-0.23223417,0.6515942,750.65936,840.10986,801.02563,819.5604,728.49817,-0.040283203125,0.030517578125,1.012451171875,2.953338623046875,-17.00225830078125,-2.49725341796875,1,2.0,1.0,1.0,2.0,55.00
2021-04-17 11:48:46.851,,,,,,,,,,,,,,,,,,,,,,,,,,,,,,,,,,,,,,/muse/elements/blink
2021-04-17 11:48:47.205,1.3957648,0.5296741,0.44775444,0.69745475,1.1234471,0.027220791,0.18415707,0.30997214,0.94891053,0.24032141,0.0296346,0.7911722,0.9506681,-0.02246619,-0.01761157,0.6812934,0.54114795,-0.34595618,-0.27329215,0.6515942,717.2161,786.9231,792.96704,718.8278,631.79486,0.02496337890625,0.04144287109375,1.009521484375,5.4730224609375,-7.77587890625,-2.6019287109375,1,2.0,1.0,1.0,2.0,55.00
2021-04-17 11:48:47.441,,,,,,,,,,,,,,,,,,,,,,,,,,,,,,,,,,,,,,/muse/elements/blink
2021-04-17 11:48:47.642,,,,,,,,,,,,,,,,,,,,,,,,,,,,,,,,,,,,,,/muse/elements/blink
2021-04-17 11:48:47.713,1.3957648,0.5231636,0.33780816,0.69745475,1.1234471,-0.13078047,0.22456072,0.30997214,0.94891053,-0.116918765,0.017943613,0.7911722,0.9506681,-0.041115087,-0.10383735,0.6812934,0.54114795,-0.33425248,-0.45641255,0.6515942,812.3077,801.4286,801.8315,834.87177,731.7216,-0.0037841796875,-0.03839111328125,0.98822021484375,-2.7215576171875,1.757049560546875,8.49365234375,1,2.0,1.0,1.0,2.0,55.00
2021-04-17 11:48:48.223,1.3957648,0.5231636,0.76604015,0.69745475,1.1234471,-0.13078047,0.27506545,0.30997214,0.94891053,-0.116918765,0.00302454,0.7911722,0.9506681,-0.041115087,-0.13823114,0.6812934,0.54114795,-0.33425248,-0.47655052,0.6515942,839.304,788.1319,803.0403,816.7399,825.2015,-0.02691650390625,-0.02947998046875,0.99993896484375,6.302947998046875,-1.1065673828125,3.880462646484375,1,2.0,1.0,1.0,2.0,55.00
2021-04-17 11:48:48.660,,,,,,,,,,,,,,,,,,,,,,,,,,,,,,,,,,,,,,/muse/elements/blink
2021-04-17 11:48:48.732,1.3957648,0.5231636,0.8316741,0.69745475,1.1234471,-0.13078047,0.25210878,0.30997214,0.94891053,-0.116918765,0.2119199,0.7911722,0.9506681,-0.041115087,-0.07076027,0.6812934,0.54114795,-0.33425248,-0.39417937,0.6515942,866.30035,773.22345,822.381,836.4835,871.53845,-0.0615234375,-0.02154541015625,1.0084228515625,5.884246826171875,-3.790740966796875,1.099090576171875,1,2.0,1.0,1.0,2.0,55.00
2021-04-17 11:48:48.838,,,,,,,,,,,,,,,,,,,,,,,,,,,,,,,,,,,,,,/muse/elements/blink
2021-04-17 11:48:49.236,1.3957648,0.7100458,0.9353556,0.69745475,1.1234471,0.36707133,0.37470478,0.30997214,0.94891053,0.5522479,0.34674466,0.7911722,0.9506681,0.22386484,0.07273941,0.6812934,0.54114795,-0.19061936,-0.36607963,0.6515942,722.8571,788.93774,803.44324,747.4359,751.06226,-0.06048583984375,-0.02398681640625,0.9969482421875,2.250518798828125,-4.964599609375,5.15899658203125,1,2.0,1.0,1.0,2.0,55.00
2021-04-17 11:48:49.742,0.12302086,0.68945134,0.7039552,0.46062154,0.6227423,0.41990772,0.22847246,0.5197502,0.6768662,0.57377106,0.39142954,0.80544215,0.7182729,0.18948652,0.14139308,0.70505786,0.1341468,-0.2691595,-0.3596888,0.005254346,812.71063,785.7143,806.6667,808.2784,821.978,-0.059326171875,0.01318359375,1.0057373046875,5.1141357421875,-4.9945068359375,3.409423828125,1,1.0,1.0,1.0,1.0,55.00
2021-04-17 11:48:49.848,,,,,,,,,,,,,,,,,,,,,,,,,,,,,,,,,,,,,,/muse/elements/blink
2021-04-17 11:48:50.074,,,,,,,,,,,,,,,,,,,,,,,,,,,,,,,,,,,,,,/muse/elements/blink
2021-04-17 11:48:50.268,0.080895886,0.56929463,0.5720733,0.29101068,0.7394164,0.3109512,0.09140374,0.56456596,0.71276563,0.57396716,0.41532603,0.84472513,0.72041166,0.18492642,0.09850704,0.7418231,0.19032642,-0.32719287,-0.3703728,0.20962717,869.5238,782.8938,801.02563,836.8865,782.8938,-0.07177734375,-0.01568603515625,1.0140380859375,2.923431396484375,-4.762725830078125,1.86920166015625,1,1.0,1.0,1.0,1.0,55.00
2021-04-17 11:48:50.788,0.67514896,0.3574231,0.1601789,0.48271132,0.8644801,0.23599538,0.008296395,0.6104079,0.6316667,0.43795854,0.28618255,0.8492476,0.6894001,0.10474026,0.08183747,0.7357481,0.20034724,-0.45447034,-0.38561472,0.26418638,804.65204,794.9817,803.0403,778.86444,755.4945,-0.02972412109375,-0.0172119140625,1.0089111328125,6.273040771484375,-4.366455078125,0.994415283203125,1,1.0,1.0,1.0,1.0,55.00
2021-04-17 11:48:51.100,,,,,,,,,,,,,,,,,,,,,,,,,,,,,,,,,,,,,,/muse/elements/blink
2021-04-17 11:48:51.297,0.78565586,0.18022306,-0.15839063,0.47805145,0.9438101,0.07338352,0.020189207,0.64711905,0.5328451,0.29625502,0.24928772,0.760574,0.6833136,0.12929782,0.04798916,0.7475493,0.23404281,-0.4958802,-0.44486699,0.33247343,796.5934,779.2674,801.4286,787.72894,781.685,-0.05230712890625,-0.0357666015625,0.99847412109375,3.349609375,-4.246826171875,0.418701171875,1,1.0,1.0,1.0,1.0,55.00
2021-04-17 11:48:51.301,,,,,,,,,,,,,,,,,,,,,,,,,,,,,,,,,,,,,,/muse/elements/blink
2021-04-17 11:48:51.816,1.1321965,0.34372512,-0.15517268,0.7596721,1.0719515,0.29700306,0.1442194,0.70746994,0.4252669,0.23261744,0.006770253,0.3275177,0.618566,0.06178814,0.062845096,0.7201781,0.23245025,-0.509454,-0.4915075,0.37650344,751.8681,799.81683,799.011,767.98535,811.9048,-0.06048583984375,0.051513671875,0.99652099609375,10.744171142578125,-1.622467041015625,7.544097900390625,1,1.0,1.0,1.0,1.0,55.00
2021-04-17 11:48:52.320,1.1321965,0.30204332,-0.13992596,0.7596721,1.0719515,0.24243769,-0.047076724,0.70746994,0.4252669,0.2188942,0.049194157,0.3275177,0.618566,-0.0035058965,0.050730973,0.7201781,0.23245025,-0.42073095,-0.5396486,0.37650344,837.6923,794.17584,796.5934,825.2015,827.619,-0.10955810546875,0.05029296875,0.9866943359375,4.717864990234375,-0.61309814453125,-1.517791748046875,1,1.0,1.0,1.0,1.0,55.00
2021-04-17 11:48:52.480,,,,,,,,,,,,,,,,,,,,,,,,,,,,,,,,,,,,,,/muse/elements/blink
2021-04-17 11:48:52.847,0.74747777,0.2911835,-0.0035255633,0.60103637,0.7210018,0.2771185,0.0013418723,0.6971289,0.45501596,0.30156684,0.08801959,0.4814375,0.4556412,-0.0658763,0.029701082,0.71485126,0.07266769,-0.39020902,-0.48814255,0.14677499,849.7802,795.78754,806.26373,827.619,741.79486,-0.089599609375,0.05975341796875,0.998291015625,6.68426513671875,-10.347900390625,2.280426025390625,1,1.0,1.0,1.0,1.0,55.00
2021-04-17 11:48:53.378,0.76186156,0.6003895,0.22248025,0.48913237,0.65542537,0.16447137,-0.012011968,0.63178533,0.50891733,0.32426634,0.087549955,0.4814375,0.45082694,-0.040870834,0.036879838,0.68453,0.04618421,-0.40140027,-0.3547796,0.1563761,804.65204,782.0879,805.4579,790.9524,780.07324,0.06085205078125,0.0296630859375,1.00830078125,4.867401123046875,-12.66571044921875,-11.60400390625,1,1.0,1.0,1.0,1.0,55.00
2021-04-17 11:48:53.620,,,,,,,,,,,,,,,,,,,,,,,,,,,,,,,,,,,,,,/muse/elements/blink
2021-04-17 11:48:53.807,,,,,,,,,,,,,,,,,,,,,,,,,,,,,,,,,,,,,,/muse/elements/blink
2021-04-17 11:48:53.903,0.76186156,0.7271785,0.7022088,0.09384834,0.65542537,0.2054126,0.10057434,0.48954985,0.50891733,0.31864804,0.14583144,0.35034114,0.45082694,0.014200181,-0.04715735,0.6534342,0.04618421,-0.44031206,-0.3247764,0.15885822,635.0183,763.5531,805.8608,683.7729,660.80585,0.08099365234375,0.04638671875,1.00732421875,1.084136962890625,-3.170166015625,3.72344970703125,1,1.0,1.0,1.0,1.0,55.00
2021-04-17 11:48:54.430,0.68421245,1.2521379,0.86056334,0.06603537,0.50940967,0.52491015,0.2510679,0.48934782,0.47214344,0.4686362,0.3410827,0.29942277,0.4267033,-0.05113262,-0.028416554,0.62916607,-0.042571563,-0.42706603,-0.32515615,0.16316314,736.1539,792.96704,790.14655,736.9597,644.2857,0.07647705078125,-0.01043701171875,1.000244140625,4.91973876953125,-5.6524658203125,4.5458984375,1,1.0,1.0,1.0,1.0,55.00
2021-04-17 11:48:54.627,,,,,,,,,,,,,,,,,,,,,,,,,,,,,,,,,,,,,,/muse/elements/blink
2021-04-17 11:48:54.926,,,,,,,,,,,,,,,,,,,,,,,,,,,,,,,,,,,,,,/muse/elements/blink
2021-04-17 11:48:54.951,0.68421245,1.5040598,0.9988803,0.06603537,0.50940967,0.608652,0.34361768,0.48934782,0.47214344,0.60596436,0.34564063,0.29942277,0.4267033,-0.10427093,-0.018207122,0.62916607,-0.042571563,-0.45931476,-0.30797264,0.16316314,713.9927,792.1612,802.6374,744.21246,686.1905,0.05718994140625,0.00921630859375,0.999267578125,4.538421630859375,-7.050628662109375,1.158905029296875,1,1.0,1.0,1.0,1.0,55.00
2021-04-17 11:48:55.480,0.68421245,1.2387418,0.90809065,0.06603537,0.50940967,0.41115445,0.3632885,0.48934782,0.47214344,0.6115285,0.33624002,0.29942277,0.4267033,0.026991213,-0.0028748335,0.62916607,-0.042571563,-0.5999526,-0.3621378,0.16316314,790.54944,786.1172,798.20514,799.011,811.9048,0.06292724609375,0.025634765625,1.00054931640625,4.493560791015625,-4.26177978515625,2.64678955078125,1,1.0,1.0,1.0,1.0,55.00
2021-04-17 11:48:55.987,0.68421245,0.98487955,0.76781625,0.06603537,0.50940967,0.21443906,0.2182707,0.48934782,0.47214344,0.5618079,0.21750496,0.29942277,0.4267033,0.08877874,-0.13075216,0.62916607,-0.042571563,-0.62810785,-0.38266817,0.16316314,861.06226,790.54944,807.8755,842.9304,1044.7986,0.059326171875,0.02947998046875,1.00665283203125,3.768310546875,-5.196380615234375,1.906585693359375,1,2.0,1.0,1.0,2.0,55.00
2021-04-17 11:48:56.302,,,,,,,,,,,,,,,,,,,,,,,,,,,,,,,,,,,,,,/muse/elements/blink
2021-04-17 11:48:56.494,0.485678,0.40520155,0.45442295,0.84106934,0.074078456,0.12660418,0.07089002,0.053346008,0.023577673,0.42876124,0.08387238,0.2271164,0.63303274,0.10967389,-0.19343875,0.5932922,0.17809694,-0.60729563,-0.57445717,0.08621983,830.84247,774.83514,794.17584,799.011,802.23444,0.04296875,0.016357421875,1.00732421875,3.267364501953125,-3.207550048828125,2.968292236328125,1,1.0,1.0,1.0,1.0,55.00
2021-04-17 11:48:57.013,0.37022156,0.32076633,0.31153324,0.59261703,0.03025397,0.1559069,0.03866862,0.0681734,0.06855222,0.26377502,0.033463042,0.4263337,0.56153,0.08192138,-0.10027526,0.6152278,0.15863368,-0.48464772,-0.50193447,0.20979935,705.5311,784.90845,797.8022,711.978,588.2784,0.05877685546875,0.00384521484375,1.0025634765625,4.17205810546875,-4.314117431640625,-0.1495361328125,1,1.0,1.0,1.0,1.0,55.00
2021-04-17 11:48:57.516,0.6558444,0.3040764,0.3307315,0.65316343,0.24003279,0.12285475,0.11515414,0.30038258,0.21415544,0.11140133,0.01949091,0.4360735,0.547832,0.010443083,0.0019022098,0.6429121,0.18465392,-0.43416473,-0.48123407,0.17454259,705.9341,788.1319,801.02563,748.24176,742.1978,0.03070068359375,0.0020751953125,1.007568359375,2.99072265625,-4.02252197265625,1.173858642578125,1,1.0,1.0,1.0,1.0,55.00
2021-04-17 11:48:58.032,0.90509677,-0.09030106,0.17820877,0.5036989,0.39631823,0.0100175,0.062137652,0.38252947,0.19766998,0.22348346,-0.062168762,0.42057577,0.5343186,0.042834055,0.013408734,0.66365784,0.13573845,-0.46454275,-0.42379096,0.19527867,803.0403,790.54944,803.8461,801.02563,810.293,0.03607177734375,0.01617431640625,0.9893798828125,5.211334228515625,-5.061798095703125,5.944061279296875,1,1.0,1.0,1.0,1.0,55.00
2021-04-17 11:48:58.557,0.93265265,-0.28687593,0.20930432,0.5470344,0.4820099,-0.034864277,0.09051423,0.45561677,0.72479457,0.22283967,0.09998846,0.43750036,0.57952994,0.01684193,-0.07249599,0.70964515,0.18182291,-0.4696124,-0.4585663,0.15696335,757.9121,793.36993,800.2198,757.1062,680.9524,0.0362548828125,0.02935791015625,0.998291015625,6.706695556640625,-5.93658447265625,3.805694580078125,1,1.0,1.0,1.0,1.0,55.00
2021-04-17 11:48:59.066,0.7843617,-0.27304256,0.12549688,0.116046086,0.44032133,-0.037181582,0.013780713,0.26751396,0.7255248,0.2680353,0.19157372,0.56139225,0.5638176,-0.0070558675,-0.09015746,0.6814311,0.13803756,-0.4710351,-0.5369927,0.19275866,823.5897,783.69965,802.23444,796.5934,756.30035,0.04595947265625,0.0264892578125,0.99920654296875,4.66552734375,-4.74029541015625,0.64300537109375,1,1.0,1.0,1.0,1.0,55.00
2021-04-17 11:48:59.573,0.2725378,-0.27944097,-0.17093718,0.14905594,0.3710409,-0.046809457,-0.054220267,0.2639262,0.7552098,0.25693274,0.19501382,0.73862803,0.53733444,-0.12051996,-0.062209465,0.6736416,0.1471303,-0.42728397,-0.52669996,0.23152661,708.3516,782.0879,803.44324,726.8865,611.2454,0.06085205078125,0.00933837890625,0.9969482421875,3.3197021484375,-6.57958984375,1.4654541015625,1,1.0,1.0,1.0,1.0,55.00
2021-04-17 11:49:00.082,0.15877746,-0.3431891,-0.21486801,0.2091505,0.45242015,-0.097177714,-0.15621297,0.19142136,0.6482596,0.1700221,0.1890669,0.69351476,0.46453914,-0.10799758,-0.1163334,0.6069439,0.124365754,-0.46498477,-0.51233727,0.22153923,738.1685,791.75824,810.293,766.3736,734.5421,0.03192138671875,0.01837158203125,0.98919677734375,0.545806884765625,-4.837493896484375,0.770111083984375,1,1.0,1.0,1.0,1.0,55.00
2021-04-17 11:49:00.586,0.15457153,-0.546102,-0.12211714,0.23720081,0.42615446,-0.18898495,-0.108161345,0.17622203,0.6078621,0.1773024,0.0060590506,0.68976426,0.45290953,-0.07599245,-0.11289998,0.6361573,0.17550844,-0.46516326,-0.4619997,0.27635303,857.03296,790.14655,814.3223,832.0513,718.4249,0.03546142578125,0.01727294921875,0.99298095703125,4.269256591796875,-7.559051513671875,0.7476806640625,1,1.0,1.0,1.0,1.0,55.00
2021-04-17 11:49:01.101,0.37731376,-0.5081119,0.024274606,0.34671876,0.4171003,-0.29004985,-0.14472921,0.31578085,0.45817596,0.17136005,0.083367154,0.671237,0.44681644,0.015364684,-0.19649304,0.68260825,0.23078597,-0.46991998,-0.4716312,0.28284574,848.5714,780.4762,820.7692,860.2564,657.98535,0.087646484375,0.00750732421875,0.99737548828125,1.592559814453125,-12.620849609375,7.185211181640625,1,1.0,1.0,1.0,1.0,55.00
2021-04-17 11:49:01.208,,,,,,,,,,,,,,,,,,,,,,,,,,,,,,,,,,,,,,/muse/elements/blink
2021-04-17 11:49:01.613,0.39739022,-0.12898822,0.3722634,0.3403299,0.29683432,-0.3530473,0.019224836,0.38231725,0.35573107,0.11782828,0.30027,0.66880214,0.46973172,0.0676114,-0.14792684,0.742082,0.23061633,-0.4309057,-0.46257994,0.30437547,724.0659,791.3553,799.41394,748.6447,828.8278,0.158203125,-0.019775390625,0.99176025390625,5.263671875,-6.676788330078125,0.11962890625,1,1.0,1.0,1.0,1.0,55.00
2021-04-17 11:49:02.140,0.5982745,0.07660723,0.6230303,0.55092204,0.32509813,-0.22729565,0.20294213,0.54482865,0.17956299,-0.099993944,0.31931645,0.6540802,0.4991162,0.061484717,-0.21693988,0.7697716,0.2488805,-0.5024591,-0.41710466,0.28758097,801.02563,785.31134,801.02563,806.26373,782.0879,0.1790771484375,-0.01593017578125,0.9925537109375,4.987030029296875,-6.83380126953125,0.665435791015625,1,1.0,1.0,1.0,1.0,55.00
2021-04-17 11:49:02.529,,,,,,,,,,,,,,,,,,,,,,,,,,,,,,,,,,,,,,/muse/elements/blink
2021-04-17 11:49:02.654,0.62064296,0.109622255,0.60573995,0.5908997,0.3987959,-0.046235014,0.23935899,0.61383337,0.16392991,0.120166875,0.29789135,0.6444518,0.53137106,-0.0712121,-0.18694237,0.7789856,0.21997225,-0.6143259,-0.39026928,0.27978048,878.7912,789.7436,809.89014,846.1539,796.99634,0.20465087890625,-0.01141357421875,0.98541259765625,5.615081787109375,-4.254302978515625,2.280426025390625,1,1.0,1.0,1.0,1.0,55.00
2021-04-17 11:49:03.168,0.32104924,-0.0011001476,0.24366818,0.44992328,0.6813991,0.007338728,0.033616886,0.6223005,0.70227224,0.28563038,0.23990598,0.4682961,0.6070276,-0.13594764,-0.22811699,0.7609595,0.26110432,-0.6254643,-0.39074892,0.29589477,835.2747,784.90845,799.81683,812.3077,734.94507,0.2281494140625,0.00640869140625,0.9825439453125,3.671112060546875,-9.398345947265625,2.280426025390625,1,1.0,1.0,1.0,1.0,55.00
2021-04-17 11:49:03.677,0.7055922,0.5799398,0.16046546,0.6378189,0.71589845,0.26047704,-0.07754229,0.64984083,0.8244632,0.5695589,0.22580446,0.48937356,0.5519065,0.07314716,-0.15789223,0.73778915,0.2877689,-0.5160724,-0.48095945,0.40241706,864.68866,765.56775,802.23444,821.1722,771.6117,0.26861572265625,-0.0113525390625,0.97540283203125,3.491668701171875,-7.955322265625,-0.418701171875,1,1.0,1.0,1.0,1.0,55.00
2021-04-17 11:49:04.188,0.7549639,0.7093263,0.17866972,0.7162314,0.6418205,0.24556471,-0.057901304,0.6575529,0.7465029,0.5695589,0.23174705,0.503236,0.49134657,0.13023509,-0.15216853,0.6896821,0.2790295,-0.40412727,-0.56979203,0.42445993,481.90475,774.0293,803.44324,515.34796,707.1429,0.227294921875,-0.02294921875,0.9703369140625,4.605712890625,-0.800018310546875,-0.112152099609375,1,1.0,1.0,1.0,1.0,55.00
2021-04-17 11:49:04.710,0.86317134,0.9491606,0.33539933,0.7676399,0.61598027,0.32802427,0.077155955,0.64367425,0.6573097,0.579373,0.23427083,0.33951396,0.39445874,0.07458267,-0.15890703,0.63436466,0.29643342,-0.41888183,-0.4679017,0.4754696,830.0366,780.4762,814.3223,816.7399,838.49817,0.2049560546875,-0.03076171875,0.98284912109375,2.654266357421875,-3.2598876953125,-1.39068603515625,1,1.0,1.0,1.0,1.0,55.00
2021-04-17 11:49:04.759,,,,,,,,,,,,,,,,,,,,,,,,,,,,,,,,,,,,,,/muse/elements/blink
2021-04-17 11:49:04.963,,,,,,,,,,,,,,,,,,,,,,,,,,,,,,,,,,,,,,/muse/elements/blink
2021-04-17 11:49:05.215,0.6136609,0.9256206,0.520501,0.67184407,0.30118576,0.18869424,0.19279428,0.5768967,0.36350495,0.033851773,0.27474928,0.12861292,0.32013673,-0.17269865,-0.1515617,0.5390572,0.25449184,-0.42030588,-0.3830795,0.3923746,884.0293,780.4762,801.8315,858.24176,755.89746,0.16912841796875,-0.03021240234375,0.98577880859375,5.196380615234375,-2.699127197265625,-0.889739990234375,1,1.0,1.0,1.0,1.0,55.00
2021-04-17 11:49:05.727,0.6136609,0.84970033,0.65677935,0.67184407,0.30118576,0.7016947,0.46448871,0.5768967,0.36350495,0.15953209,0.3482073,0.12861292,0.32013673,-0.12930694,-0.18548296,0.5390572,0.25449184,-0.46285537,-0.3830898,0.3923746,872.3443,805.4579,796.5934,832.4542,755.89746,0.15985107421875,-0.03448486328125,0.9840087890625,4.852447509765625,-0.874786376953125,-0.814971923828125,1,1.0,1.0,1.0,1.0,55.00
2021-04-17 11:49:06.239,0.6136609,0.5456666,0.8090516,0.67184407,0.30118576,0.78039205,0.5738202,0.5768967,0.36350495,0.6797879,0.42205176,0.12861292,0.32013673,0.25180933,-0.09324365,0.5390572,0.25449184,-0.51695615,-0.47407293,0.3923746,719.6337,792.1612,801.02563,740.989,664.43225,0.1513671875,-0.04443359375,0.98779296875,6.841278076171875,-1.60003662109375,0.112152099609375,1,1.0,1.0,1.0,1.0,55.00
2021-04-17 11:49:06.302,,,,,,,,,,,,,,,,,,,,,,,,,,,,,,,,,,,,,,/muse/elements/blink
2021-04-17 11:49:06.743,0.6136609,0.6209418,0.7684601,0.8286251,0.30118576,0.6467187,0.5750516,0.5541386,0.36350495,0.6849318,0.39566725,0.65851706,0.32013673,0.20718114,-0.059181523,0.84119457,0.25449184,-0.53258014,-0.4941843,-0.04093121,716.0073,794.17584,811.9048,749.0476,714.7985,0.1444091796875,-0.02410888671875,0.9952392578125,5.749664306640625,-6.47491455078125,1.4654541015625,1,1.0,1.0,1.0,1.0,55.00
2021-04-17 11:49:07.256,0.16877894,0.5969684,0.67351,0.6044557,0.53488326,0.4052142,0.43920168,0.6438134,0.65994716,0.6849318,0.40094414,0.7991312,0.83515424,0.22976364,-0.009659693,0.8770235,-0.08174445,-0.43029135,-0.45891687,0.052176736,826.0073,789.34064,809.89014,812.3077,845.7509,0.1392822265625,-0.02099609375,1.0086669921875,2.572021484375,-4.62066650390625,-0.8673095703125,1,1.0,1.0,1.0,1.0,55.00
2021-04-17 11:49:07.379,,,,,,,,,,,,,,,,,,,,,,,,,,,,,,,,,,,,,,/muse/elements/blink
2021-04-17 11:49:07.782,0.26756573,0.598371,0.60833937,0.5044229,0.5607213,0.24544103,0.41185206,0.61572236,0.6787445,0.56125474,0.3350877,0.81487477,0.78620327,0.14381842,0.015806915,0.8236439,0.09875479,-0.3527225,-0.37531304,0.1267698,736.1539,794.9817,799.81683,742.6007,649.5238,0.11492919921875,-0.02935791015625,0.98944091796875,4.11224365234375,-2.370147705078125,-0.306549072265625,1,1.0,1.0,1.0,1.0,55.00
2021-04-17 11:49:08.289,0.1906242,0.44834527,0.47160533,0.23390356,0.56744975,0.36850727,0.3368725,0.6782417,0.6787445,0.39178157,0.18169677,0.84669906,0.73181015,0.10879984,-0.011002269,0.7699418,0.13086563,-0.37229678,-0.39131078,0.1709982,831.2454,788.93774,809.89014,815.5311,765.56775,0.10284423828125,-0.0238037109375,0.9886474609375,5.62255859375,-2.19818115234375,-1.637420654296875,1,1.0,1.0,1.0,1.0,50.00
2021-04-17 11:49:08.791,0.16733013,0.527586,0.4966236,0.11955969,0.5012089,0.40538004,0.34003064,0.6908968,0.3940584,0.3521147,0.18955433,0.7206572,0.6132653,0.06224656,0.034258448,0.62787604,0.22033168,-0.51063806,-0.39644742,0.20685251,712.7839,787.72894,797.8022,744.61536,736.9597,0.11199951171875,-0.02093505859375,0.99969482421875,5.450592041015625,-4.17205810546875,-0.478515625,1,1.0,1.0,1.0,1.0,50.00
2021-04-17 11:49:09.307,0.10498127,0.30322373,0.12620386,0.035536487,0.4704663,0.34728575,0.11105037,0.6675972,0.347605,0.23667477,0.24133642,0.6261274,0.51370955,-0.050626487,-0.03727378,0.5958648,0.22789253,-0.55729604,-0.44073558,0.18880497,843.3333,786.9231,801.8315,818.3516,871.9414,0.10064697265625,-0.01123046875,0.98870849609375,5.15899658203125,-6.377716064453125,3.102874755859375,1,1.0,1.0,1.0,1.0,50.00
2021-04-17 11:49:09.820,0.26602644,0.19432423,-0.037793666,0.1368625,0.43819943,0.17723516,0.062952474,0.5104284,0.38022777,0.21055536,0.24756491,0.45114633,0.45749795,-0.046589095,-0.014019346,0.5841141,0.28447804,-0.46233645,-0.38700008,0.26782736,838.0952,790.54944,801.02563,805.05493,742.6007,0.09552001953125,0.0078125,1.00543212890625,3.8580322265625,-5.682373046875,2.280426025390625,1,1.0,1.0,1.0,1.0,50.00
2021-04-17 11:49:10.059,,,,,,,,,,,,,,,,,,,,,,,,,,,,,,,,,,,,,,/muse/elements/blink
2021-04-17 11:49:10.328,0.31377882,-0.036711443,-0.0107501615,0.30457056,0.5382704,0.02703056,-0.06981068,0.29757643,0.41431618,0.18399224,0.27303007,0.4386369,0.4688736,-0.065864906,-0.108566076,0.60676384,0.27877933,-0.41927826,-0.33427784,0.26513624,746.63007,794.17584,803.44324,766.77655,1046.4103,0.0765380859375,-0.0135498046875,1.00042724609375,2.145843505859375,-5.18890380859375,2.145843505859375,1,1.0,1.0,1.0,1.0,50.00
2021-04-17 11:49:10.833,0.28566936,-0.19163573,-0.010028783,0.3126427,0.7492275,0.35698703,-0.19181965,0.30317825,0.64450526,0.2671475,0.2350684,0.43649524,0.5665775,-0.13204898,-0.15893124,0.63722545,0.27521113,-0.30329,-0.3043789,0.26362655,847.76556,786.1172,809.0842,830.4396,756.7033,0.10198974609375,-0.0135498046875,1.0015869140625,2.58697509765625,-4.50103759765625,-0.456085205078125,1,1.0,1.0,1.0,1.0,50.00
2021-04-17 11:49:11.351,0.25330257,0.14983563,0.014985508,0.42798904,0.8173543,0.38119295,-0.23865247,0.38140097,0.63041466,0.37396568,0.21439084,0.5312079,0.62435144,-0.105670206,-0.26272118,0.60079366,0.252639,-0.33507434,-0.35813284,0.26744613,851.79486,787.72894,803.0403,821.5751,743.00366,0.0987548828125,-0.01654052734375,1.0,3.03558349609375,-4.000091552734375,3.327178955078125,1,1.0,1.0,1.0,1.0,50.00
2021-04-17 11:49:11.875,0.31703573,0.49348205,0.08670129,0.54728997,0.86651915,0.38191134,-0.13511729,0.4210349,0.5787243,0.3313683,-0.037629012,0.54269016,0.6430475,-0.02957492,-0.2952728,0.6387581,0.24479246,-0.35438782,-0.45545205,0.2571971,866.7033,790.54944,812.71063,838.49817,781.28204,0.086181640625,-0.0078125,0.995849609375,6.56463623046875,-3.132781982421875,-0.007476806640625,1,1.0,1.0,1.0,1.0,50.00
