TimeStamp,Delta_TP9,Delta_AF7,Delta_AF8,Delta_TP10,Theta_TP9,Theta_AF7,Theta_AF8,Theta_TP10,Alpha_TP9,Alpha_AF7,Alpha_AF8,Alpha_TP10,Beta_TP9,Beta_AF7,Beta_AF8,Beta_TP10,Gamma_TP9,Gamma_AF7,Gamma_AF8,Gamma_TP10,RAW_TP9,RAW_AF7,RAW_AF8,RAW_TP10,AUX_RIGHT,Accelerometer_X,Accelerometer_Y,Accelerometer_Z,Gyro_X,Gyro_Y,Gyro_Z,HeadBandOn,HSI_TP9,HSI_AF7,HSI_AF8,HSI_TP10,Battery,Elements
2021-04-14 12:38:50.065,0.9002636,0.41975558,0.12959112,0.9656873,0.6424573,0.18165556,-0.0027322127,0.8700421,1.162623,0.20168146,0.46609887,1.1200745,0.44578737,0.37213272,-0.031196047,0.76040715,-0.04850397,-0.170014,-0.5296249,0.27082077,744.61536,788.5348,799.011,771.2088,622.9304,0.22119140625,-0.1280517578125,0.9725341796875,4.194488525390625,-4.2767333984375,0.665435791015625,1,1.0,1.0,1.0,1.0,60.00
2021-04-14 12:38:50.573,0.75254035,0.28089368,0.104786366,0.854816,0.506662,0.2217943,-0.044131678,0.71459,0.9524474,0.1715981,0.14938743,1.0650605,0.3005214,0.30520964,-0.097968996,0.6483895,-0.10048452,-0.18771347,-0.67962027,0.35628802,767.5824,807.0696,797.3993,768.7912,732.1245,0.21807861328125,-0.11688232421875,0.97430419921875,2.85614013671875,-2.115936279296875,1.51031494140625,1,1.0,1.0,1.0,1.0,60.00
2021-04-14 12:38:51.081,0.54552186,0.3765303,0.14558099,0.71358335,0.37224004,0.21920797,-0.03295659,0.53387165,0.8808689,0.380711,0.10750515,0.89847785,0.18319026,0.2729115,-0.10464569,0.6848667,-0.11746838,-0.23929158,-0.677219,0.3738614,776.4469,777.6557,792.5641,789.7436,695.05493,0.19635009765625,-0.13623046875,0.96160888671875,13.1292724609375,1.36077880859375,-5.046844482421875,1,1.0,1.0,1.0,1.0,60.00
2021-04-14 12:38:51.593,0.36721885,0.38329014,0.9909799,0.39920756,0.28366506,0.2699458,0.6190501,0.098817445,0.452741,0.35675237,0.23111184,0.5912916,0.1635406,0.21745132,-0.10159781,0.78535974,-0.10537526,-0.1723054,-0.65038043,0.41426182,830.0366,811.0989,783.69965,801.8315,794.17584,0.1356201171875,0.003173828125,0.973388671875,17.024688720703125,3.42437744140625,-15.648956298828125,1,1.0,1.0,1.0,1.0,60.00
2021-04-14 12:38:52.100,0.42890888,0.5371995,1.0404915,0.25506607,0.15757723,0.22666134,0.6220203,0.06446737,0.44047362,0.35275996,0.23240948,0.5930837,0.23807177,0.20602468,-0.14133607,0.76566225,-0.26334506,-0.13168244,-0.6453759,0.38399172,762.74725,792.96704,802.23444,784.90845,706.337,0.025146484375,0.02130126953125,0.99658203125,2.22808837890625,-2.041168212890625,-6.886138916015625,1,1.0,1.0,1.0,1.0,60.00
2021-04-14 12:38:52.380,,,,,,,,,,,,,,,,,,,,,,,,,,,,,,,,,,,,,,/muse/elements/blink
2021-04-14 12:38:52.603,0.53365266,1.021507,1.0943596,0.25930336,0.10227672,0.63464564,0.67762464,0.08732987,0.2603455,0.3954788,0.4200839,0.5739445,0.34901738,0.008887042,-0.09975991,0.7190402,-0.36977676,-0.22613789,-0.6790791,0.37670383,843.73627,788.1319,796.5934,818.3516,878.3883,0.02069091796875,0.02069091796875,1.0064697265625,3.506622314453125,-2.983245849609375,-6.95343017578125,1,1.0,1.0,1.0,1.0,60.00
2021-04-14 12:38:53.132,0.53365266,1.021507,0.9177424,0.32817712,0.10227672,0.63464564,0.74955004,0.13621245,0.2603455,0.3954788,0.6892458,0.53535926,0.34901738,0.008887042,-0.019482257,0.53996056,-0.36977676,-0.22613789,-0.6759083,0.3355557,719.6337,799.011,778.0586,740.989,733.3333,0.0435791015625,0.029052734375,0.99847412109375,1.06170654296875,-3.45428466796875,0.456085205078125,1,1.0,1.0,1.0,1.0,60.00
2021-04-14 12:38:53.367,,,,,,,,,,,,,,,,,,,,,,,,,,,,,,,,,,,,,,/muse/elements/blink
2021-04-14 12:38:53.656,0.53365266,0.8391078,1.0021785,0.3105891,0.10227672,0.5046299,0.8413679,0.014694172,0.2603455,0.4435754,0.6886068,0.39074194,0.34901738,0.19815935,0.023547545,0.5144732,-0.36977676,-0.09943223,-0.6483723,0.32771364,745.82416,768.7912,807.8755,754.68866,615.2747,0.02703857421875,-0.09442138671875,0.99249267578125,-4.0972900390625,-5.301055908203125,-17.33123779296875,1,1.0,1.0,1.0,1.0,60.00
2021-04-14 12:38:54.170,0.44077143,0.7091273,0.97444403,1.0103121,0.3301254,0.41597787,0.7556881,0.60642135,0.54269254,0.42211652,0.69104666,0.867322,0.5069797,0.34278095,-0.020318331,0.6071959,-0.53140754,-0.10767722,-0.6777699,-0.16204566,720.4396,779.2674,788.5348,746.63007,763.95605,0.00299072265625,-0.12725830078125,1.0018310546875,2.572021484375,1.906585693359375,-14.856414794921875,1,1.0,1.0,1.0,1.0,60.00
2021-04-14 12:38:54.679,0.47308135,0.68078774,0.74071807,0.82599723,0.11476884,0.25952315,0.37512466,0.41350684,0.54974407,0.43914926,0.4696764,0.8841157,0.43173322,0.36295575,-0.11435214,0.61303073,-0.35916048,-0.1965035,-0.664112,0.011393009,801.8315,790.9524,807.0696,803.0403,754.2857,-0.069091796875,-0.0916748046875,1.0067138671875,7.2674560546875,8.5235595703125,-3.18511962890625,1,1.0,1.0,1.0,1.0,60.00
2021-04-14 12:38:55.076,,,,,,,,,,,,,,,,,,,,,,,,,,,,,,,,,,,,,,/muse/elements/blink
2021-04-14 12:38:55.204,0.45989904,0.63421565,0.2808851,0.80134255,0.097287945,-0.030656684,-0.097633615,0.38524428,0.54974407,0.31198302,0.23755229,0.8876912,0.4213029,0.36727107,-0.16476837,0.6296778,-0.35923877,-0.35655054,-0.5697331,0.03318599,843.3333,790.54944,802.6374,820.3663,797.8022,-0.077880859375,-0.072998046875,0.9942626953125,6.14593505859375,-7.215118408203125,-1.233673095703125,1,1.0,1.0,1.0,1.0,60.00
2021-04-14 12:38:55.731,0.47219822,0.5020892,-0.3063252,0.4871093,-0.18083297,0.010614507,-0.23540978,0.03515398,0.25750437,0.6349698,0.25852406,0.529833,0.35307166,0.29078695,-0.15303445,0.6475627,-0.27352378,-0.24589124,-0.43524295,0.14770715,850.58606,811.0989,791.75824,809.4872,763.5531,-0.09698486328125,-0.0546875,0.99261474609375,6.497344970703125,-4.957122802734375,2.684173583984375,1,1.0,1.0,1.0,1.0,60.00
2021-04-14 12:38:55.868,,,,,,,,,,,,,,,,,,,,,,,,,,,,,,,,,,,,,,/muse/elements/blink
2021-04-14 12:38:56.260,0.455984,0.56705505,-0.13418704,0.4530986,-0.156212,0.26150066,-0.09406241,-0.010958671,0.16020812,0.6015695,0.30604857,0.43566778,0.3228929,0.2627876,-0.10457573,0.7180056,-0.25604436,-0.19545195,-0.3745038,0.18690692,929.5604,859.45056,850.989,888.46155,706.7399,-0.08514404296875,-0.04876708984375,0.9952392578125,4.74029541015625,-10.9759521484375,17.3760986328125,1,1.0,1.0,1.0,1.0,60.00
2021-04-14 12:38:56.292,,,,,,,,,,,,,,,,,,,,,,,,,,,,,,,,,,,,,,/muse/elements/blink
2021-04-14 12:38:56.783,0.455984,0.5494572,0.15576841,0.4530986,-0.156212,0.4041697,-0.036261905,-0.010958671,0.16020812,0.60306954,0.3294655,0.43566778,0.3228929,0.26094547,-0.09239255,0.7180056,-0.25604436,-0.1936288,-0.3506749,0.18690692,781.28204,793.36993,782.49084,752.674,743.4066,0.01904296875,0.0062255859375,1.01904296875,8.336639404296875,-14.84893798828125,4.179534912109375,1,1.0,1.0,1.0,1.0,60.00
2021-04-14 12:38:57.182,,,,,,,,,,,,,,,,,,,,,,,,,,,,,,,,,,,,,,/muse/elements/blink
2021-04-14 12:38:57.294,0.455984,0.8058335,0.4091752,0.4530986,-0.156212,0.55611926,0.08923014,-0.010958671,0.16020812,0.49250558,0.27719375,0.43566778,0.3228929,0.26609814,-0.12517919,0.7180056,-0.25604436,-0.2958399,-0.34597844,0.18690692,728.9011,773.22345,799.011,755.09155,624.1392,0.10980224609375,-0.005859375,0.996337890625,8.553466796875,-4.605712890625,1.682281494140625,1,1.0,1.0,1.0,1.0,60.00
2021-04-14 12:38:57.698,,,,,,,,,,,,,,,,,,,,,,,,,,,,,,,,,,,,,,/muse/elements/blink
2021-04-14 12:38:57.802,0.455984,0.8643001,0.58500266,0.4530986,-0.156212,0.60619575,0.06273202,-0.010958671,0.16020812,0.4879802,0.21632871,0.43566778,0.3228929,0.23820342,-0.11681204,0.7180056,-0.25604436,-0.3500077,-0.3650106,0.18690692,770.0,780.87915,798.60803,783.2967,788.93774,0.10711669921875,-0.07232666015625,0.99383544921875,1.772003173828125,-5.69732666015625,14.72930908203125,1,2.0,1.0,1.0,2.0,70.00
2021-04-14 12:38:58.329,0.455984,0.8643001,0.58500266,0.4530986,-0.156212,0.60619575,0.06273202,-0.010958671,0.16020812,0.4879802,0.21632871,0.43566778,0.3228929,0.23820342,-0.11681204,0.7180056,-0.25604436,-0.3500077,-0.3650106,0.18690692,836.8865,801.8315,788.5348,801.8315,868.71796,0.06640625,-0.0933837890625,1.0081787109375,2.213134765625,-3.596343994140625,7.3870849609375,1,2.0,1.0,1.0,2.0,70.00
2021-04-14 12:38:58.851,0.455984,0.8643001,0.58500266,0.4530986,-0.156212,0.60619575,0.06273202,-0.010958671,0.16020812,0.4879802,0.21632871,0.43566778,0.3228929,0.23820342,-0.11681204,0.7180056,-0.25604436,-0.3500077,-0.3650106,0.18690692,823.5897,790.14655,807.0696,800.2198,757.1062,0.0426025390625,-0.09124755859375,1.03448486328125,-1.472930908203125,-4.23187255859375,9.04693603515625,1,2.0,1.0,1.0,2.0,70.00
2021-04-14 12:38:59.008,,,,,,,,,,,,,,,,,,,,,,,,,,,,,,,,,,,,,,/muse/elements/blink
2021-04-14 12:38:59.365,0.455984,1.0251825,1.1968384,0.4530986,-0.156212,0.6776357,0.9546354,-0.010958671,0.16020812,0.2530489,0.39459556,0.43566778,0.3228929,0.28607258,-0.12192522,0.7180056,-0.25604436,-0.15065545,-0.552533,0.18690692,765.16486,786.9231,783.69965,758.315,716.4103,0.011962890625,-0.08642578125,1.0,3.940277099609375,-8.217010498046875,12.2320556640625,1,2.0,1.0,1.0,2.0,70.00
2021-04-14 12:38:59.891,0.455984,0.91062045,1.1968384,0.4530986,-0.156212,0.55848855,0.9546354,-0.010958671,0.16020812,0.29712,0.39459556,0.43566778,0.3228929,0.24648584,-0.12192522,0.7180056,-0.25604436,-0.1641635,-0.552533,0.18690692,745.42126,792.5641,798.20514,774.0293,712.7839,-0.01129150390625,-0.098876953125,1.06549072265625,-1.084136962890625,-1.757049560546875,2.07855224609375,1,2.0,1.0,1.0,2.0,70.00
2021-04-14 12:39:00.417,0.455984,0.7470694,0.98236924,0.4530986,-0.156212,0.40745988,0.7218056,-0.010958671,0.16020812,0.38611555,0.4673943,0.43566778,0.3228929,0.22389562,-0.120268255,0.7180056,-0.25604436,-0.17465006,-0.58522826,0.18690692,809.0842,808.68134,808.68134,783.69965,725.6777,0.03460693359375,-0.1051025390625,0.92041015625,5.450592041015625,-1.009368896484375,4.314117431640625,1,2.0,1.0,1.0,2.0,70.00
2021-04-14 12:39:00.928,0.8898624,0.2987225,0.06779635,0.8292231,0.61921275,-0.09548124,-0.1064224,0.6886691,1.0645977,0.2537654,0.14372449,0.73772556,0.60444176,0.21909434,-0.04861186,0.7250121,-0.24473318,-0.22245276,-0.5251044,0.36258066,740.989,782.0879,796.99634,788.5348,814.7253,0.00738525390625,-0.17852783203125,1.0616455078125,1.60003662109375,-3.94775390625,-2.400054931640625,1,1.0,1.0,1.0,1.0,70.00
2021-04-14 12:39:01.435,0.92048013,0.22748642,0.06845099,0.8088378,0.5286277,-0.086285785,-0.06341378,0.6450672,1.0645977,0.2537654,0.17696191,0.73772556,0.52659833,0.20175378,-0.08443409,0.7135348,-0.24643426,-0.2441089,-0.48512477,0.34455234,812.3077,801.4286,792.5641,783.2967,740.18317,-0.02728271484375,-0.16339111328125,1.01239013671875,5.420684814453125,-1.158905029296875,-4.246826171875,1,1.0,1.0,1.0,1.0,70.00
2021-04-14 12:39:01.962,0.87665874,0.15707673,0.22598779,0.7833122,0.53404874,-0.029509604,0.06816124,0.5656314,1.0548769,0.3031711,0.17181757,0.73972976,0.48738202,0.1924555,-0.047987055,0.68131995,-0.26167494,-0.26645967,-0.3967951,0.34230843,728.0952,803.44324,777.25275,744.21246,618.0952,-0.0860595703125,-0.10791015625,0.984375,11.177825927734375,-1.495361328125,-20.08270263671875,1,1.0,1.0,1.0,1.0,70.00
2021-04-14 12:39:02.041,,,,,,,,,,,,,,,,,,,,,,,,,,,,,,,,,,,,,,/muse/elements/blink
2021-04-14 12:39:02.485,1.0809947,0.099865064,0.42289865,0.7433979,0.63077265,0.08591985,0.18629317,0.42974696,1.0223422,0.36006477,0.0646374,0.5927807,0.48888963,0.18695615,-0.044388898,0.6605003,-0.26659414,-0.2464264,-0.34325168,0.32679352,753.0769,790.14655,799.41394,775.2381,874.7619,-0.075927734375,-0.019775390625,1.023681640625,11.17034912109375,-9.532928466796875,-4.448699951171875,1,1.0,1.0,1.0,1.0,70.00
2021-04-14 12:39:02.754,,,,,,,,,,,,,,,,,,,,,,,,,,,,,,,,,,,,,,/muse/elements/blink
2021-04-14 12:39:03.014,1.1738536,0.15979274,0.61080426,0.7392706,0.80362713,0.19292392,0.2794163,0.37881356,1.0223422,0.3432523,-0.025347287,0.28850836,0.5883345,0.23720948,0.043710664,0.6500307,-0.29792437,-0.19920932,-0.29453197,0.317583,748.24176,799.81683,809.0842,775.64105,603.5897,-0.10711669921875,-0.01287841796875,0.97637939453125,11.52923583984375,2.654266357421875,-14.931182861328125,1,1.0,1.0,1.0,1.0,70.00
2021-04-14 12:39:03.184,,,,,,,,,,,,,,,,,,,,,,,,,,,,,,,,,,,,,,/muse/elements/blink
2021-04-14 12:39:03.393,,,,,,,,,,,,,,,,,,,,,,,,,,,,,,,,,,,,,,/muse/elements/blink
2021-04-14 12:39:03.528,1.2981462,0.24672368,0.648068,0.7392706,0.8485121,0.26083472,0.3294287,0.37881356,1.0223422,0.28174412,-0.13501412,0.28850836,0.6443009,0.26461393,0.083656095,0.6500307,-0.25554535,-0.15015303,-0.27634364,0.317583,790.14655,796.5934,803.44324,791.3553,598.7546,-0.10211181640625,0.03851318359375,1.007080078125,4.3963623046875,-7.424468994140625,5.21881103515625,1,1.0,1.0,1.0,1.0,70.00
2021-04-14 12:39:03.988,,,,,,,,,,,,,,,,,,,,,,,,,,,,,,,,,,,,,,/muse/elements/blink
2021-04-14 12:39:04.044,1.2981462,0.24672368,0.648068,0.7392706,0.8485121,0.26083472,0.3294287,0.37881356,1.0223422,0.28174412,-0.13501412,0.28850836,0.6443009,0.26461393,0.083656095,0.6500307,-0.25554535,-0.15015303,-0.27634364,0.317583,770.40295,796.99634,799.41394,796.5934,747.8388,-0.1075439453125,0.0218505859375,1.00421142578125,11.506805419921875,-0.351409912109375,-20.6658935546875,1,1.0,1.0,1.0,1.0,70.00
2021-04-14 12:39:04.231,,,,,,,,,,,,,,,,,,,,,,,,,,,,,,,,,,,,,,/muse/elements/blink
2021-04-14 12:39:04.559,1.2981462,0.24672368,0.648068,0.7392706,0.8485121,0.26083472,0.3294287,0.37881356,1.0223422,0.28174412,-0.13501412,0.28850836,0.6443009,0.26461393,0.083656095,0.6500307,-0.25554535,-0.15015303,-0.27634364,0.317583,825.6044,788.5348,805.4579,800.6227,888.86444,-0.1800537109375,0.045654296875,0.98956298828125,9.40582275390625,-0.844879150390625,-7.588958740234375,1,1.0,1.0,1.0,1.0,70.00
2021-04-14 12:39:05.064,1.2981462,0.24672368,0.648068,0.7392706,0.8485121,0.26083472,0.3294287,0.37881356,1.0223422,0.28174412,-0.13501412,0.28850836,0.6443009,0.26461393,0.083656095,0.6500307,-0.25554535,-0.15015303,-0.27634364,0.317583,832.4542,796.99634,809.0842,800.2198,778.86444,-0.20220947265625,0.0386962890625,0.98126220703125,4.35150146484375,-4.254302978515625,0.605621337890625,1,2.0,1.0,1.0,2.0,70.00
2021-04-14 12:39:05.577,1.2981462,0.24672368,1.0517133,0.7392706,0.8485121,0.26083472,0.025601948,0.37881356,1.0223422,0.28174412,0.14407122,0.28850836,0.6443009,0.26461393,-0.009772145,0.6500307,-0.25554535,-0.15015303,-0.10739117,0.317583,723.2601,785.7143,803.0403,757.50916,689.81683,-0.203125,0.040283203125,0.9820556640625,5.031890869140625,-5.016937255859375,1.338348388671875,1,2.0,1.0,1.0,2.0,70.00
2021-04-14 12:39:06.080,0.6697063,0.61415195,0.9558038,0.7392706,0.3175829,0.39982033,-0.06513182,0.37881356,0.6086574,0.28023955,0.14407122,0.28850836,0.190356,0.23016863,-0.03674879,0.6500307,-0.12935534,-0.16101846,-0.24070813,0.317583,772.8205,793.7729,806.6667,786.52014,769.59705,-0.2008056640625,0.0408935546875,0.981689453125,5.323486328125,-5.9814453125,2.654266357421875,1,1.0,1.0,1.0,1.0,70.00
2021-04-14 12:39:06.597,0.89529943,0.5084234,0.9423779,0.7392706,0.25905836,0.37985626,-0.12615904,0.37881356,0.74033993,0.31957147,0.15281609,0.28850836,0.17557108,0.29431474,0.065204956,0.6500307,-0.11675186,-0.20180568,-0.29219097,0.317583,636.63007,808.2784,828.4249,613.663,775.64105,-0.18548583984375,0.0465087890625,0.98284912109375,4.687957763671875,-5.644989013671875,0.321502685546875,1,1.0,1.0,1.0,1.0,70.00
2021-04-14 12:39:06.763,,,,,,,,,,,,,,,,,,,,,,,,,,,,,,,,,,,,,,/muse/elements/blink
2021-04-14 12:39:07.102,0.9447171,0.5129413,0.8389615,0.7392706,0.30070776,0.35966146,0.12830578,0.37881356,0.74033993,0.31957147,0.1065949,0.28850836,0.20439145,0.26569638,0.069115624,0.6500307,-0.1301636,-0.17318338,-0.43262905,0.317583,826.0073,805.8608,790.54944,808.2784,796.5934,-0.17755126953125,0.04132080078125,0.9808349609375,4.94964599609375,-5.091705322265625,1.203765869140625,1,1.0,1.0,1.0,1.0,70.00
2021-04-14 12:39:07.611,1.1530504,0.44548658,0.8486887,0.7392706,0.11122167,0.23033972,0.30308405,0.37881356,0.6833628,0.28358606,0.23357762,0.28850836,0.14439982,0.27383676,0.10054706,0.6500307,-0.09259178,-0.1909262,-0.3921151,0.317583,768.7912,776.4469,795.78754,778.86444,631.79486,-0.18719482421875,0.04486083984375,0.984375,4.732818603515625,-3.3795166015625,-0.171966552734375,1,1.0,1.0,1.0,1.0,70.00
2021-04-14 12:39:08.124,1.1530504,0.63998675,0.7135991,0.7392706,0.11122167,0.09894403,0.31840757,0.37881356,0.6833628,0.21220092,0.31599176,0.28850836,0.14439982,0.23547424,0.046920028,0.6500307,-0.09259178,-0.20658821,-0.4510354,0.317583,750.65936,786.52014,810.293,774.83514,699.0842,-0.20623779296875,0.04132080078125,0.98004150390625,5.226287841796875,-3.880462646484375,-0.710296630859375,1,1.0,1.0,1.0,1.0,70.00
2021-04-14 12:39:08.630,0.72378796,0.7379556,0.79561025,0.8919003,0.89797103,-0.032310683,0.23190857,0.59787846,1.0462143,0.21347536,0.47510555,0.84270644,0.5730265,0.2578854,0.12356059,0.40362534,-0.14971311,-0.25035328,-0.5231702,-0.13759317,792.5641,784.10254,794.57874,785.7143,797.3993,-0.21282958984375,0.04864501953125,0.979248046875,5.06927490234375,-4.127197265625,1.278533935546875,1,1.0,1.0,1.0,1.0,70.00
2021-04-14 12:39:09.147,0.635719,0.67401326,0.7139254,0.78315467,0.71751726,-0.088855766,0.119246885,0.65128404,1.1128122,0.21611977,0.5000143,0.9739298,0.44800046,0.24443232,0.098038405,0.37999734,-0.18323399,-0.26199144,-0.6301441,-0.2053569,827.619,798.20514,805.05493,804.65204,769.59705,-0.21527099609375,0.0501708984375,0.98309326171875,4.598236083984375,-4.074859619140625,0.650482177734375,1,1.0,1.0,1.0,1.0,70.00
2021-04-14 12:39:09.651,0.4549808,0.43911836,0.70021397,0.70101196,0.66024864,-0.08509948,0.14152275,0.7572949,1.1128122,0.24739249,0.5188613,0.97542036,0.3834378,0.26191032,0.14912148,0.43058243,-0.22186564,-0.28979158,-0.70387614,-0.2073829,822.381,794.17584,799.41394,804.2491,674.10254,-0.2220458984375,0.04388427734375,0.9755859375,4.0972900390625,-4.358978271484375,3.06549072265625,1,1.0,1.0,1.0,1.0,70.00
2021-04-14 12:39:10.162,0.39198738,0.49317825,0.35132992,0.42545334,0.34282994,0.34488595,0.20399855,0.7138695,0.8588361,0.52977306,0.4880829,0.9007394,0.35049728,0.20409821,0.08430334,0.48753887,-0.28387633,-0.29349235,-0.58160484,-0.17776157,780.07324,786.1172,789.34064,775.64105,888.0586,-0.21923828125,0.04693603515625,0.97918701171875,4.4561767578125,-4.9945068359375,2.572021484375,1,1.0,1.0,1.0,1.0,70.00
2021-04-14 12:39:10.677,0.3668558,0.6131831,0.3289823,0.44345224,0.39893973,0.43411508,0.23377265,0.6051415,0.88805205,0.54471755,0.20855491,0.92303103,0.37479797,0.24692762,0.11298087,0.55397594,-0.34662583,-0.31809044,-0.51123476,-0.071797244,824.3956,801.4286,806.6667,799.011,733.3333,-0.2218017578125,0.04296875,0.9803466796875,3.7982177734375,-5.704803466796875,4.56085205078125,1,1.0,1.0,1.0,1.0,70.00
2021-04-14 12:39:11.180,0.41837713,0.65405625,0.27627242,0.42114764,0.22525613,0.41153127,0.14878188,0.34608904,0.877206,0.5382869,0.06793093,0.87548965,0.4259266,0.22167468,0.04326698,0.55351114,-0.36282578,-0.3314194,-0.40283713,-0.0697887,824.7985,790.14655,801.8315,801.02563,677.326,-0.21282958984375,0.03485107421875,0.9818115234375,4.44122314453125,-4.119720458984375,1.86920166015625,1,1.0,1.0,1.0,1.0,70.00
2021-04-14 12:39:11.702,0.4893629,0.7011144,0.39932913,0.44596934,0.20057696,0.12745094,0.034111015,0.20153788,0.8776843,0.44081077,0.5238722,0.7906161,0.35059753,0.24151702,-0.006851375,0.44444078,-0.33655837,-0.30502763,-0.4011198,-0.102980256,757.9121,788.93774,799.011,772.01465,701.0989,-0.212646484375,0.0411376953125,0.987548828125,5.196380615234375,-5.076751708984375,2.67669677734375,1,1.0,1.0,1.0,1.0,70.00
2021-04-14 12:39:12.219,0.74683326,0.92905986,0.49824572,0.34171784,0.3476075,0.18387064,0.07820956,0.15091339,0.74019927,0.41782603,0.58618206,0.75919646,0.40688026,0.15620139,-0.08114615,0.37560835,-0.2650849,-0.18863855,-0.41947973,-0.21658605,829.2308,794.57874,784.10254,796.99634,765.56775,-0.20416259765625,0.03778076171875,0.98046875,4.867401123046875,-4.373931884765625,0.755157470703125,1,1.0,1.0,1.0,1.0,70.00
2021-04-14 12:39:12.736,0.72828287,0.8974843,0.63508004,0.34934232,0.58814406,0.24714601,0.17340833,0.19518408,1.0056324,0.4906085,0.58818966,0.7429525,0.363856,0.119641796,-0.050183095,0.39781368,-0.26697943,-0.18044749,-0.53229946,-0.26464164,733.73627,789.34064,781.28204,751.06226,669.2674,-0.21197509765625,0.03411865234375,0.97210693359375,5.27862548828125,-4.074859619140625,0.859832763671875,1,1.0,1.0,1.0,1.0,70.00
2021-04-14 12:39:13.240,0.6357893,0.72778696,0.61534345,0.3527116,0.60650843,0.2395473,0.10875562,0.33949888,0.9797681,0.46633092,0.6252443,0.69707805,0.33891284,0.1140852,0.04017255,0.39668205,-0.31209144,-0.17546321,-0.54317135,-0.21856362,835.2747,830.0366,761.53845,782.49084,801.02563,-0.210693359375,0.041259765625,0.978759765625,5.585174560546875,-4.284210205078125,0.9271240234375,1,1.0,1.0,1.0,1.0,70.00
2021-04-14 12:39:13.754,0.5488081,0.77592266,0.74485415,0.5414131,0.6490633,0.5301708,0.567901,0.7520133,0.97962284,0.6932654,0.5924022,0.8304846,0.26249358,0.195671,0.12137364,0.3831743,-0.28971103,-0.1870327,-0.46218777,-0.06934516,825.2015,789.34064,788.5348,798.20514,689.011,-0.21685791015625,0.0362548828125,0.976806640625,4.127197265625,-4.388885498046875,0.859832763671875,1,1.0,1.0,1.0,1.0,70.00
2021-04-14 12:39:14.270,0.73379076,0.98725563,0.7582351,0.6289101,0.54033506,0.66588163,0.6513621,0.80823874,0.7853333,0.6951485,0.6166174,0.84167045,0.31469244,0.2446228,0.10948911,0.3835803,-0.25436795,-0.10719674,-0.33811203,0.03116316,746.63007,779.2674,804.2491,779.2674,660.80585,-0.2130126953125,0.03424072265625,0.97064208984375,4.6356201171875,-5.09918212890625,0.5084228515625,1,1.0,1.0,1.0,1.0,70.00
2021-04-14 12:39:14.789,0.8317073,1.2332777,0.86644775,0.6492534,0.54959935,0.835994,0.747631,0.7848046,0.85664445,0.6839875,0.6265113,0.83297294,0.34522915,0.31406087,0.025146183,0.4107813,-0.16872671,-0.10349269,-0.28877243,0.050117664,740.989,794.57874,786.52014,770.0,701.0989,-0.21197509765625,0.03363037109375,0.98028564453125,4.26177978515625,-4.209442138671875,1.21124267578125,1,1.0,1.0,1.0,1.0,70.00
2021-04-14 12:39:15.301,0.6849209,0.8139088,0.7518841,0.4921083,0.35864475,0.29315478,0.4432367,0.41515395,0.7903611,0.49848104,0.56510586,0.745665,0.30530894,0.22352341,0.037751615,0.39745122,-0.2358455,-0.23099114,-0.32190245,-0.05350116,820.7692,792.96704,796.99634,806.6667,810.293,-0.21356201171875,0.02947998046875,0.97442626953125,4.299163818359375,-3.69354248046875,-0.04486083984375,1,1.0,1.0,1.0,1.0,70.00
2021-04-14 12:39:15.806,,,,,,,,,,,,,,,,,,,,,,,,,,,,,,,,,,,,,,/muse/elements/blink
2021-04-14 12:39:15.807,0.4959074,0.078765824,0.7819968,0.30219278,0.42623928,-0.103636414,0.31880745,0.21410818,0.8613889,0.28451422,0.53554,0.42759892,0.2674108,0.09138664,0.01738261,0.33655232,-0.28375772,-0.25664717,-0.4275297,-0.115472645,874.7619,803.8461,794.9817,847.76556,764.7619,-0.1456298828125,0.036376953125,0.984375,0.3887939453125,-19.073333740234375,7.977752685546875,1,1.0,1.0,1.0,1.0,70.00
2021-04-14 12:39:16.323,0.21852873,0.7783453,0.8270275,0.078681745,0.3777019,0.52320117,0.5126826,0.011834929,0.7850305,0.33486918,0.3755787,0.14408487,0.19634645,0.19526036,0.040591292,0.28569618,-0.37754956,-0.26104409,-0.52761495,-0.21403962,863.47986,794.9817,799.81683,845.34796,720.4396,-4.2724609375E-4,0.0262451171875,1.005859375,3.63372802734375,-18.191070556640625,1.338348388671875,1,1.0,1.0,1.0,1.0,70.00
2021-04-14 12:39:16.842,1.4494556,0.7688131,0.77217364,1.6283122,1.4603868,0.5443042,0.51907796,1.6222609,1.250883,0.40167707,0.2801277,1.2022111,0.35339776,0.2523509,-0.03643129,0.36952755,-0.3153459,-0.27304187,-0.59153557,-0.08786095,732.9304,767.1795,789.34064,761.13556,863.8828,0.08319091796875,0.0152587890625,0.99603271484375,2.998199462890625,-7.40203857421875,4.2767333984375,1,1.0,1.0,1.0,1.0,70.00
2021-04-14 12:39:17.369,1.7561711,0.88319445,0.7260634,1.7655075,1.8075811,0.5999727,0.48092052,1.8353926,1.2582066,0.36338925,0.31257012,1.2055434,0.38791555,0.29146847,-0.08041282,0.5107452,-0.15569614,-0.3163067,-0.51971054,-0.03360729,787.326,784.5055,795.78754,769.19415,891.28204,0.03985595703125,-0.0316162109375,0.99578857421875,-3.416900634765625,7.050628662109375,-6.17584228515625,1,1.0,1.0,1.0,1.0,70.00
2021-04-14 12:39:17.405,,,,,,,,,,,,,,,,,,,,,,,,,,,,,,,,,,,,,,/muse/elements/blink
2021-04-14 12:39:17.878,1.7561711,0.73413205,0.8296768,1.7655075,1.8075811,0.34126166,0.371826,1.8353926,1.2582066,0.2997447,0.7364082,1.2055434,0.38791555,0.25473195,0.099314004,0.5107452,-0.15569614,-0.32762623,-0.28481323,-0.03360729,832.8571,794.17584,793.36993,812.71063,770.0,-0.05706787109375,-0.0614013671875,0.99468994140625,0.964508056640625,3.12530517578125,-1.368255615234375,1,1.0,1.0,1.0,1.0,70.00
2021-04-14 12:39:18.405,1.6720648,0.8003338,0.96240205,1.6836027,1.7814038,0.31823123,0.41340706,1.8153437,1.2266009,0.30113253,0.7364082,1.1077682,0.3509723,0.20314345,0.17766681,0.5094472,-0.14128062,-0.25025868,-0.24108857,6.286264E-4,834.4689,796.1905,794.57874,799.41394,792.1612,-0.054443359375,-0.095458984375,0.98773193359375,1.906585693359375,-8.912353515625,-10.21331787109375,1,1.0,1.0,1.0,1.0,65.00
2021-04-14 12:39:18.915,1.6720648,0.93410444,0.92625964,1.6836027,1.7814038,0.37306398,0.45168042,1.8153437,1.2266009,0.29495424,0.7364082,1.1077682,0.3509723,0.25557214,0.25992122,0.5094472,-0.14128062,-0.19088376,-0.24555378,6.286264E-4,794.57874,798.20514,802.23444,791.3553,716.4103,-0.0775146484375,-0.0699462890625,0.98516845703125,10.7965087890625,-4.942169189453125,2.729034423828125,1,1.0,1.0,1.0,1.0,65.00
2021-04-14 12:39:19.352,,,,,,,,,,,,,,,,,,,,,,,,,,,,,,,,,,,,,,/muse/elements/blink
2021-04-14 12:39:19.416,0.49393243,0.80729294,0.63439083,0.8282653,1.0002197,0.3814254,0.19927767,1.2467281,1.1848557,0.5521004,0.407975,1.1665225,0.39755094,0.28253472,0.18065703,0.667983,-0.23295851,-0.17593512,-0.41655147,0.0046618786,741.39197,784.10254,787.326,763.95605,707.9487,-0.083251953125,-0.08428955078125,1.00335693359375,3.282318115234375,-4.725341796875,1.383209228515625,1,1.0,1.0,1.0,1.0,65.00
2021-04-14 12:39:19.953,0.826758,0.97335815,0.6486192,0.76367986,1.2184169,0.68189657,0.1496473,1.2204803,1.3570426,0.7757034,0.19191839,1.2867095,0.3756112,0.33205444,0.15221985,0.5202222,-0.17021671,-0.22072603,-0.32120678,-0.056339208,738.97437,795.38464,794.9817,780.4762,688.20514,-0.07574462890625,-0.0751953125,1.0032958984375,4.269256591796875,-3.596343994140625,-2.609405517578125,1,1.0,1.0,1.0,1.0,65.00
2021-04-14 12:39:20.476,0.7587867,0.7755885,0.7874364,0.6598903,1.1918721,0.6304383,0.07242751,1.1056082,1.3153404,0.7654303,0.17240082,1.2763664,0.3160002,0.26173598,0.08284086,0.37300444,-0.14203669,-0.16618304,-0.3446959,-0.058635205,824.3956,788.5348,800.6227,800.6227,679.34064,-0.0880126953125,-0.0706787109375,0.99957275390625,4.299163818359375,-6.0113525390625,1.03179931640625,1,1.0,1.0,1.0,1.0,65.00
2021-04-14 12:39:21.003,0.6795283,0.618463,0.77833974,0.604438,1.0154401,0.50212145,-0.05722212,0.7942042,1.3095601,0.7648979,0.1925839,1.1924337,0.24716291,0.09828615,0.08444262,0.23682769,-0.1871633,-0.1964242,-0.42966563,-0.0328059,846.9597,795.78754,806.6667,823.9927,882.8205,-0.083251953125,-0.0684814453125,0.9976806640625,3.222503662109375,-5.016937255859375,-0.605621337890625,1,1.0,1.0,1.0,1.0,65.00
2021-04-14 12:39:21.504,0.046461042,-0.2993744,0.47814742,0.48618576,0.6792823,0.100210264,-0.09424391,0.554122,0.81028455,0.24897616,0.24829434,0.54726917,0.28468007,-0.0068123783,0.09038593,0.28421283,-0.2810418,-0.20816283,-0.46646228,-0.063360356,805.4579,789.34064,797.8022,793.7729,737.3626,-0.06854248046875,-0.06707763671875,1.0064697265625,5.7720947265625,-5.181427001953125,3.60382080078125,1,1.0,1.0,1.0,1.0,65.00
2021-04-14 12:39:21.906,,,,,,,,,,,,,,,,,,,,,,,,,,,,,,,,,,,,,,/muse/elements/blink
2021-04-14 12:39:22.015,0.4127528,-0.30161664,0.19278312,0.3585708,0.7211715,0.25908515,-0.022520551,0.5076026,0.7805191,0.33724722,0.2315454,0.3872608,0.324792,0.20117544,0.06639603,0.29951453,-0.33462262,-0.25509405,-0.49519858,-0.113443665,722.8571,767.5824,806.6667,754.68866,644.68866,-0.0906982421875,-0.04901123046875,0.998291015625,6.063690185546875,-4.02252197265625,1.8243408203125,1,1.0,1.0,1.0,1.0,65.00
2021-04-14 12:39:22.524,1.3634756,0.1539856,0.32452232,1.3271579,1.2263453,0.44000053,0.047173657,1.1596266,1.283519,0.364166,0.12298127,1.2711524,0.40120366,0.29517013,-0.011669824,0.3872205,-0.18226586,-0.2275225,-0.45378616,-0.13376017,743.4066,782.0879,790.14655,767.98535,749.85345,-0.068115234375,-0.06842041015625,0.99456787109375,5.63751220703125,-5.562744140625,0.0299072265625,1,1.0,1.0,1.0,1.0,65.00
2021-04-14 12:39:23.030,1.424858,0.28071862,0.33664685,1.3964268,1.2273258,0.41078088,-9.893969E-4,1.1924572,1.2990689,0.36300763,0.0029445621,1.2770758,0.52345735,0.24106658,-0.0859493,0.48585534,-0.12135004,-0.23045263,-0.44219878,-0.09504565,815.9341,806.6667,792.1612,801.02563,805.8608,-0.067138671875,-0.06597900390625,0.99945068359375,3.476715087890625,-3.850555419921875,4.553375244140625,1,1.0,1.0,1.0,1.0,65.00
2021-04-14 12:39:23.535,1.4072071,0.3949056,0.29666376,1.3474613,1.1790624,0.30750275,-0.10009778,1.1329743,1.2990689,0.36050743,-0.23994246,1.2770758,0.48791298,0.05046938,-0.056912404,0.501501,-0.06719044,-0.21519922,-0.398415,-0.022682527,861.4652,794.17584,793.7729,828.8278,854.21246,-0.06439208984375,-0.049560546875,1.00494384765625,4.127197265625,-3.33465576171875,-1.256103515625,1,1.0,1.0,1.0,1.0,65.00
2021-04-14 12:39:24.040,0.9895277,0.33327612,0.16728441,0.8545372,0.8104856,0.21571128,-0.2254455,0.6788316,1.0787342,0.2976115,0.18381347,0.760059,0.437106,0.13899183,-0.0314894,0.49762785,-0.02329233,-0.22991225,-0.42994055,0.026731057,809.4872,791.75824,799.41394,792.5641,748.6447,-0.05743408203125,-0.04925537109375,1.00311279296875,5.7421875,-3.7384033203125,-2.908477783203125,1,1.0,1.0,1.0,1.0,65.00
2021-04-14 12:39:24.546,1.0093092,0.6883053,0.5658513,0.5851102,0.77540445,0.35225925,0.18398769,0.49836484,1.0596681,0.31395823,0.38396302,0.51195157,0.32462338,0.25836623,-0.034675572,0.43826282,0.0018383629,-0.20011392,-0.4624435,0.10804486,805.4579,798.20514,794.57874,804.2491,790.9524,-0.0958251953125,-0.07049560546875,1.00146484375,4.583282470703125,-3.028106689453125,0.471038818359375,1,1.0,1.0,1.0,1.0,65.00
2021-04-14 12:39:25.059,1.0193611,0.6963459,0.5695683,0.6343707,0.8162245,0.30707863,0.17945147,0.64973694,1.0158391,0.3438078,0.38396302,0.47137612,0.33479974,0.31744957,-0.12712505,0.43529958,-0.019829065,-0.28510517,-0.44377157,0.105671994,847.3626,796.1905,806.6667,809.89014,749.85345,-0.09405517578125,-0.08526611328125,0.998291015625,5.24871826171875,-5.495452880859375,1.562652587890625,1,1.0,1.0,1.0,1.0,65.00
2021-04-14 12:39:25.576,0.8945357,0.67830986,0.5867887,0.9539925,0.709906,0.16336554,0.1705504,0.7773177,0.98408204,0.34366283,0.34205684,0.58615166,0.42641813,0.2582321,-0.17774734,0.6239484,-0.10028282,-0.31685832,-0.4098355,-0.1320387,817.1429,801.4286,806.6667,795.78754,749.85345,-0.08624267578125,-0.07122802734375,1.00604248046875,6.23565673828125,-7.07305908203125,1.443023681640625,1,1.0,1.0,1.0,1.0,65.00
2021-04-14 12:39:26.092,0.71629167,0.2099247,0.20328124,0.82374346,0.67403257,-0.22715819,-0.23574574,0.66156596,0.76054907,0.10712681,0.057800677,0.6224729,0.34632415,0.23719282,-0.15759596,0.5317235,-0.20183301,-0.34286058,-0.3902037,-0.053382624,742.1978,796.5934,805.05493,761.13556,655.9707,-0.05157470703125,-0.06378173828125,1.0142822265625,4.68048095703125,-6.0113525390625,2.100982666015625,1,1.0,1.0,1.0,1.0,65.00
2021-04-14 12:39:26.605,0.6378892,0.06197545,0.23009242,0.73138714,0.6083019,-0.27805638,-0.18499668,0.56965214,0.76695347,0.08637718,-0.008782107,0.6116713,0.31305104,0.295308,-0.047403954,0.5138149,-0.2392553,-0.24211319,-0.3072726,-0.03540241,781.685,791.3553,801.02563,784.10254,688.60803,-0.09295654296875,-0.0880126953125,0.99700927734375,3.60382080078125,-2.280426025390625,-0.231781005859375,1,1.0,1.0,1.0,1.0,65.00
2021-04-14 12:39:27.108,0.15352479,0.006750874,0.030789874,0.4093839,0.24105226,-0.4309321,-0.306448,0.29174146,0.3955044,-0.13182603,-0.13552669,0.41405973,0.0048372,0.31164384,0.026391264,0.33950204,-0.29945138,-0.19657223,-0.28078815,-0.032818235,824.7985,795.78754,810.293,806.6667,782.8938,-0.0728759765625,-0.0595703125,1.00701904296875,6.20574951171875,-5.226287841796875,0.246734619140625,1,1.0,1.0,1.0,1.0,65.00
2021-04-14 12:39:27.626,-0.107444644,-0.041613072,-0.054107282,0.25039133,0.11414566,-0.6381728,-0.26387644,0.08581205,0.5465399,0.25799468,-0.1296723,0.38704824,0.11474157,0.32340804,0.046966683,0.23257287,-0.28259316,-0.1781043,-0.281205,-0.07594233,837.6923,788.5348,805.05493,817.5458,716.4103,-0.0667724609375,-0.0736083984375,0.9971923828125,5.06927490234375,-6.557159423828125,1.375732421875,1,1.0,1.0,1.0,1.0,65.00
2021-04-14 12:39:28.139,-0.33481896,-0.20764253,-0.2249223,0.23700254,-0.053139683,-0.72739345,-0.26436794,-0.031399727,0.54880875,0.24214783,-0.030154783,0.3314445,0.13003619,0.24890067,0.066389,0.17365034,-0.25176752,-0.16383372,-0.3450888,-0.12745291,786.1172,788.93774,800.6227,777.6557,677.326,-0.07733154296875,-0.0606689453125,1.001220703125,5.016937255859375,-4.523468017578125,5.2337646484375,1,1.0,1.0,1.0,1.0,65.00
2021-04-14 12:39:28.642,-0.32879367,-0.53963447,-0.28941134,0.08051477,-0.2274214,-0.6421768,-0.1807753,-0.040302277,0.49808866,0.2491954,0.03933171,0.37979642,0.249286,0.16409695,0.034884587,0.29625586,-0.20544462,-0.20370606,-0.36511144,-0.15202229,831.6484,811.0989,805.05493,810.696,830.0366,-0.0867919921875,-0.0645751953125,1.01031494140625,4.53094482421875,-4.568328857421875,1.48040771484375,1,1.0,1.0,1.0,1.0,60.00
2021-04-14 12:39:29.153,-0.16831495,-0.4286469,-0.26050925,-0.028699966,-0.18494497,-0.52852464,-0.25492567,0.005341773,0.4577975,0.19199416,0.0450723,0.29445535,0.21285734,0.031296916,-0.058620352,0.4078521,-0.17796834,-0.17374952,-0.39631397,-0.17615111,798.60803,785.31134,792.5641,796.1905,925.9341,-0.07269287109375,-0.06842041015625,1.00146484375,4.702911376953125,-3.267364501953125,-0.007476806640625,1,1.0,1.0,1.0,1.0,60.00
2021-04-14 12:39:29.653,-0.11489259,-0.26049814,-0.20713973,-0.1041808,-0.1306926,-0.32891145,-0.2481371,0.018480197,0.48934472,0.10461815,0.030634845,0.3466567,0.2557385,-0.009610941,-0.1939256,0.44431853,-0.15177302,-0.20001815,-0.42427808,-0.17952219,773.6264,771.2088,805.4579,769.19415,691.4286,-0.0574951171875,-0.0887451171875,1.00384521484375,6.990814208984375,-2.930908203125,1.383209228515625,1,1.0,1.0,1.0,1.0,60.00
2021-04-14 12:39:29.822,,,,,,,,,,,,,,,,,,,,,,,,,,,,,,,,,,,,,,/muse/elements/blink
2021-04-14 12:39:30.180,-0.084391095,0.12524965,0.12007614,-0.019492956,-0.10554918,0.0908996,-0.104123436,-0.054703463,0.45772412,0.25245714,0.27888,0.35793343,0.1800994,0.061272245,-0.24867932,0.436201,-0.16608457,-0.15765288,-0.4500651,-0.16554229,698.68134,794.17584,778.46155,728.0952,668.46155,-0.1156005859375,-0.034423828125,0.99224853515625,6.47491455078125,1.016845703125,1.74957275390625,1,1.0,1.0,1.0,1.0,60.00
2021-04-14 12:39:30.363,,,,,,,,,,,,,,,,,,,,,,,,,,,,,,,,,,,,,,/muse/elements/blink
2021-04-14 12:39:30.685,-0.13132872,0.33274812,0.74346036,0.06684114,-0.20059027,0.22750618,0.030963741,-0.10227596,0.44905162,0.3243368,0.28151882,0.347089,0.18599516,0.18003209,-0.18017414,0.43436354,-0.13327818,-0.22060768,-0.48827708,-0.16548389,792.5641,792.1612,794.57874,797.8022,815.5311,-0.17340087890625,-0.019775390625,0.98052978515625,5.495452880859375,-1.413116455078125,0.321502685546875,1,1.0,1.0,1.0,1.0,60.00
2021-04-14 12:39:31.190,-0.17483138,0.36529848,0.85907215,-0.010657359,-0.2935689,0.21945429,0.051448353,-0.097433425,0.40015987,0.33446616,0.3263401,0.3297407,0.15441956,0.16552475,-0.12192112,0.44375676,-0.10143312,-0.27125734,-0.5145133,-0.14762872,828.4249,800.6227,804.65204,807.0696,857.8388,-0.18621826171875,-0.0076904296875,0.9825439453125,5.151519775390625,-3.267364501953125,0.725250244140625,1,1.0,1.0,1.0,1.0,60.00
2021-04-14 12:39:31.710,-0.17483138,0.25796175,0.8147037,-0.010657359,-0.2935689,0.06755284,-0.03494451,-0.097433425,0.40015987,0.3424687,0.29133087,0.3297407,0.15441956,0.15070428,-0.0036360864,0.44375676,-0.10143312,-0.336054,-0.5128988,-0.14762872,831.2454,804.65204,792.5641,790.54944,636.2271,-0.17852783203125,-0.00555419921875,0.9857177734375,4.0673828125,-5.15899658203125,0.755157470703125,1,1.0,1.0,1.0,1.0,60.00
2021-04-14 12:39:32.211,0.08194793,0.09500278,0.3625529,0.3633483,0.10070531,-0.009630355,-0.14968188,0.11056451,0.6024179,0.2670893,0.13702223,0.48940226,0.14648119,0.054005705,0.0059623974,0.36948693,-0.40119773,-0.3761202,-0.5104777,-0.33700246,809.0842,794.17584,801.8315,793.36993,786.1172,-0.18267822265625,-0.00836181640625,0.98858642578125,4.254302978515625,-4.725341796875,1.375732421875,1,1.0,1.0,1.0,1.0,60.00
2021-04-14 12:39:32.743,0.13289908,-0.015315688,-0.2499486,0.41484013,0.13978717,-0.011469898,-0.16920981,0.111452974,0.7609248,0.17171578,-0.0025739437,0.49900338,0.1633114,0.08748294,-0.023275753,0.36533564,-0.42967364,-0.4402716,-0.5582973,-0.33378297,737.76556,787.326,794.17584,773.6264,776.4469,-0.16851806640625,-0.0057373046875,0.98626708984375,4.000091552734375,-4.807586669921875,1.203765869140625,1,1.0,1.0,1.0,1.0,60.00
2021-04-14 12:39:33.252,0.021469822,-0.14798126,-0.2945658,0.30735728,0.16297154,-0.14142075,-0.25106752,0.2927724,0.76213497,0.17847104,-0.035020903,0.574066,0.1542724,0.058612503,-0.16970217,0.2795662,-0.41040343,-0.40928712,-0.50653696,-0.2795989,795.78754,786.9231,799.41394,794.17584,789.7436,-0.17291259765625,-0.01275634765625,0.98828125,4.164581298828125,-4.822540283203125,0.800018310546875,1,1.0,1.0,1.0,1.0,60.00
2021-04-14 12:39:33.775,0.12112201,-0.34324512,-0.11787168,0.15035784,0.24171521,-0.21771792,-0.16009644,0.30170086,0.69816047,0.17813936,-0.10154122,0.51378596,0.1378876,0.08433786,-0.16533478,0.22750509,-0.3409685,-0.31701708,-0.47744986,-0.16886945,834.4689,787.72894,803.0403,816.337,833.2601,-0.17138671875,-0.014892578125,0.99334716796875,4.59075927734375,-4.478607177734375,0.9869384765625,1,1.0,1.0,1.0,1.0,60.00
2021-04-14 12:39:34.304,0.11316036,-0.09632181,0.048597112,0.26776144,0.3310841,-0.22661243,-0.14661427,0.28792512,0.44105396,0.23410878,-0.036601145,0.51337177,0.06570225,0.079409435,-0.18077086,0.27595547,-0.29322457,-0.29541534,-0.49216703,-0.12281767,803.44324,796.5934,801.8315,790.14655,660.80585,-0.16607666015625,-0.01287841796875,0.99176025390625,4.62066650390625,-4.553375244140625,1.1065673828125,1,1.0,1.0,1.0,1.0,60.00
2021-04-14 12:39:34.832,0.24035197,-0.04442185,0.15000798,0.35247594,0.39369062,-0.28756166,-0.13396102,0.23604438,0.5299006,0.25110534,-0.0610872,0.49143273,0.08515956,0.12778929,-0.19957289,0.3391807,-0.3213461,-0.2933501,-0.58294487,-0.04329136,745.0183,791.3553,799.81683,770.0,730.9158,-0.16680908203125,-0.011962890625,0.98468017578125,4.927215576171875,-4.8150634765625,1.158905029296875,1,1.0,1.0,1.0,1.0,60.00
2021-04-14 12:39:35.341,0.31568983,0.05074062,0.12268645,0.39383712,0.36780798,-0.33474925,-0.24266209,0.20204198,0.51409173,0.2445761,-0.06046265,0.46370015,0.08531543,0.13451272,-0.18728903,0.37074897,-0.40084156,-0.27918655,-0.61705345,-0.058226585,759.5238,791.3553,790.54944,763.1502,687.8022,-0.178955078125,-0.01171875,0.98748779296875,5.330963134765625,-3.30474853515625,-0.590667724609375,1,1.0,1.0,1.0,1.0,60.00
2021-04-14 12:39:35.848,0.25733164,0.16084135,0.004376008,0.23528808,0.20975594,-0.17265429,-0.3137515,0.08789549,0.46244067,0.20655112,-0.15020387,0.45099038,0.15853295,0.17278534,-0.149251,0.38221842,-0.4756926,-0.26979527,-0.5671857,-0.1181372,778.0586,786.1172,802.6374,790.14655,863.47986,-0.1563720703125,-0.01885986328125,0.98736572265625,6.258087158203125,-7.828216552734375,-2.325286865234375,1,1.0,1.0,1.0,1.0,60.00
2021-04-14 12:39:36.363,0.22783853,0.33196524,0.113127574,0.23189603,0.119701594,-0.015320462,-0.12403859,-0.006113657,0.39656258,0.16772431,-0.15699783,0.42461208,0.174718,0.19732594,-0.02016566,0.39739436,-0.48355597,-0.1945698,-0.49840605,-0.21697494,788.93774,780.87915,800.2198,790.14655,888.46155,-0.13311767578125,0.0242919921875,0.99627685546875,3.656158447265625,-4.029998779296875,3.90289306640625,1,1.0,1.0,1.0,1.0,60.00
2021-04-14 12:39:36.864,-0.13289984,0.6345103,0.23608726,0.090694234,-0.25342378,0.17166688,-0.11491098,-0.2549315,-0.034300607,0.16443743,-0.14629956,0.28937304,0.24153347,0.17499334,-0.00916916,0.41960064,-0.5029314,-0.18437669,-0.4404857,-0.2666336,683.36993,764.35895,810.293,693.0403,1000.4762,-0.1455078125,0.03570556640625,0.995361328125,3.45428466796875,-0.67291259765625,3.7384033203125,1,1.0,1.0,1.0,1.0,60.00
2021-04-14 12:39:37.048,,,,,,,,,,,,,,,,,,,,,,,,,,,,,,,,,,,,,,/muse/elements/blink
2021-04-14 12:39:37.372,-0.22129712,0.9725687,0.50409496,0.13598554,-0.17948052,0.4901889,0.22132082,-0.30372444,-0.1206019,0.364312,0.19500034,0.26064342,0.27292785,0.1117817,0.042669076,0.43920198,-0.4679001,-0.1195859,-0.44822526,-0.33323628,726.4835,795.38464,807.47253,730.5128,714.7985,-0.15899658203125,0.0345458984375,0.98468017578125,2.833709716796875,-4.852447509765625,5.443115234375,1,1.0,1.0,1.0,1.0,60.00
2021-04-14 12:39:37.719,,,,,,,,,,,,,,,,,,,,,,,,,,,,,,,,,,,,,,/muse/elements/blink
2021-04-14 12:39:37.885,-0.22129712,1.101276,0.6710988,0.13598554,-0.17948052,0.60297185,0.32555068,-0.30372444,-0.1206019,0.364312,0.21869352,0.26064342,0.27292785,0.023581026,-0.007580375,0.43920198,-0.4679001,-0.13055511,-0.5088789,-0.33323628,815.5311,799.81683,801.4286,817.5458,781.685,-0.15093994140625,0.00494384765625,0.9930419921875,2.2430419921875,-4.224395751953125,3.2000732421875,1,1.0,1.0,1.0,1.0,60.00
2021-04-14 12:39:38.416,-0.22129712,1.0872674,0.8790088,0.13598554,-0.17948052,0.6251366,0.44178057,-0.30372444,-0.1206019,0.3668852,0.22929466,0.26064342,0.27292785,0.05980868,-0.019837633,0.43920198,-0.4679001,-0.07315717,-0.5132447,-0.33323628,541.9414,766.3736,811.9048,538.71796,722.0513,-0.1729736328125,-0.0128173828125,0.98870849609375,2.265472412109375,-0.64300537109375,0.171966552734375,1,1.0,1.0,1.0,1.0,60.00
2021-04-14 12:39:38.548,,,,,,,,,,,,,,,,,,,,,,,,,,,,,,,,,,,,,,/muse/elements/blink
2021-04-14 12:39:38.916,-0.22129712,0.82143426,0.86113596,0.13598554,-0.17948052,0.30061367,0.41557822,-0.30372444,-0.1206019,0.01735109,0.18212122,0.26064342,0.27292785,0.053540483,-0.065355346,0.43920198,-0.4679001,-0.10841963,-0.54167414,-0.33323628,790.9524,794.17584,799.011,782.0879,763.1502,-0.18011474609375,-0.01373291015625,0.9822998046875,5.00946044921875,-4.912261962890625,3.0804443359375,1,2.0,1.0,1.0,2.0,60.00
2021-04-14 12:39:39.426,-0.22129712,0.7920145,0.886855,0.13598554,-0.17948052,0.26304027,0.37345016,-0.30372444,-0.1206019,0.023684915,0.12149647,0.26064342,0.27292785,0.102519676,-0.066512205,0.43920198,-0.4679001,-0.13653727,-0.55665135,-0.33323628,781.28204,802.6374,799.81683,796.5934,743.4066,-0.19537353515625,-0.017333984375,0.9884033203125,3.416900634765625,-4.314117431640625,1.09161376953125,1,2.0,1.0,1.0,2.0,60.00
2021-04-14 12:39:39.932,-0.22129712,0.49788764,0.70423645,0.13598554,-0.17948052,0.03344328,0.23020986,-0.30372444,-0.1206019,0.0014792299,0.09889079,0.26064342,0.27292785,0.14755607,-0.0127583705,0.43920198,-0.4679001,-0.44734555,-0.6759094,-0.33323628,784.10254,805.8608,807.8755,786.9231,729.304,-0.202392578125,-0.00518798828125,0.98046875,5.443115234375,-6.362762451171875,1.263580322265625,1,2.0,1.0,1.0,2.0,60.00
2021-04-14 12:39:40.455,0.60005087,0.41950294,0.71935594,0.13598554,0.45983604,0.28646767,0.06316755,-0.30372444,0.33204746,0.17294273,-0.025217619,0.26064342,0.21624176,0.20172645,-0.00585196,0.43920198,0.42846128,-0.45462748,-0.54166394,-0.33323628,847.3626,848.1685,845.34796,837.6923,789.7436,-0.1954345703125,-0.02764892578125,0.98028564453125,4.388885498046875,-6.960906982421875,-0.246734619140625,1,1.0,1.0,1.0,1.0,60.00
2021-04-14 12:39:40.877,,,,,,,,,,,,,,,,,,,,,,,,,,,,,,,,,,,,,,/muse/elements/blink
2021-04-14 12:39:40.960,0.62909186,0.45903635,0.6131853,0.13598554,0.42353693,0.35957897,-0.06841893,-0.30372444,0.34161353,0.1320387,-0.22803701,0.26064342,0.2446755,0.14718175,-0.021420823,0.43920198,0.36728138,-0.4350579,-0.45455503,-0.33323628,785.31134,789.34064,787.72894,777.25275,689.41394,-0.19940185546875,0.01275634765625,0.975830078125,5.90667724609375,-3.297271728515625,2.1234130859375,1,1.0,1.0,1.0,1.0,60.00
2021-04-14 12:39:41.299,,,,,,,,,,,,,,,,,,,,,,,,,,,,,,,,,,,,,,/muse/elements/blink
2021-04-14 12:39:41.465,0.62909186,0.63115853,0.73357797,0.13598554,0.42353693,0.54080623,0.015076603,-0.30372444,0.34161353,0.11929439,-0.36744583,0.26064342,0.2446755,0.1668067,-0.07423043,0.43920198,0.36728138,-0.35838175,-0.35762006,-0.33323628,786.52014,796.1905,792.96704,786.9231,748.6447,-0.1448974609375,-0.005615234375,0.994873046875,4.448699951171875,-3.66363525390625,0.934600830078125,1,1.0,1.0,1.0,1.0,60.00
2021-04-14 12:39:41.766,,,,,,,,,,,,,,,,,,,,,,,,,,,,,,,,,,,,,,/muse/elements/blink
2021-04-14 12:39:41.975,0.6350775,0.6982783,0.7202285,0.13598554,0.4047867,0.5797823,0.029452812,-0.30372444,0.32563686,0.11929439,-0.416223,0.26064342,0.26749378,0.19048563,-0.07594099,0.43920198,0.17085902,-0.33446568,-0.28609133,-0.33323628,809.4872,795.38464,797.3993,816.337,755.4945,-0.19012451171875,-0.00787353515625,0.98675537109375,3.81317138671875,-4.119720458984375,0.127105712890625,1,1.0,1.0,1.0,1.0,60.00
2021-04-14 12:39:42.281,,,,,,,,,,,,,,,,,,,,,,,,,,,,,,,,,,,,,,/muse/elements/blink
2021-04-14 12:39:42.496,0.6350775,1.1751957,0.68339723,0.13598554,0.4047867,0.6173873,0.38990393,-0.30372444,0.32563686,0.5153844,-0.10244576,0.26064342,0.26749378,0.20219547,-0.22667289,0.43920198,0.17085902,-0.29844296,-0.4207563,-0.33323628,823.9927,784.5055,815.5311,843.3333,792.5641,-0.19683837890625,-0.0032958984375,0.9879150390625,3.94775390625,-5.4132080078125,1.7645263671875,1,1.0,1.0,1.0,1.0,60.00
2021-04-14 12:39:43.005,0.6350775,1.0160732,0.6594754,0.13598554,0.4047867,0.4759745,0.36935872,-0.30372444,0.32563686,0.5948369,0.38658512,0.26064342,0.26749378,0.27912724,-0.11777399,0.43920198,0.17085902,-0.39109692,-0.41158953,-0.33323628,795.78754,803.0403,802.6374,790.54944,666.8498,-0.1849365234375,-0.00640869140625,0.9805908203125,6.003875732421875,-2.6019287109375,0.142059326171875,1,1.0,1.0,1.0,1.0,60.00
2021-04-14 12:39:43.509,0.6350775,0.9463309,0.62365025,0.13598554,0.4047867,0.35817316,0.32069612,-0.30372444,0.32563686,0.5854185,0.42493755,0.26064342,0.26749378,0.27317154,-0.07147808,0.43920198,0.17085902,-0.4239073,-0.4835155,-0.33323628,788.93774,794.17584,803.44324,813.1135,783.69965,-0.2138671875,-0.0076904296875,0.980224609375,3.476715087890625,-6.018829345703125,-0.67291259765625,1,2.0,1.0,1.0,2.0,60.00
2021-04-14 12:39:44.037,0.5772865,0.76945865,0.43254575,0.43464902,0.43224677,0.22260259,0.12471951,0.69149256,0.20788953,0.3215959,0.42507192,0.593249,0.17301865,0.26043233,0.063808024,0.34506637,-0.42754453,-0.32409564,-0.4405104,-0.14350984,828.8278,808.2784,783.69965,830.4396,758.315,-0.14874267578125,0.00103759765625,0.98974609375,2.40753173828125,-8.62823486328125,3.72344970703125,1,1.0,1.0,1.0,1.0,60.00
2021-04-14 12:39:44.561,0.5772865,0.89341486,0.55018455,0.43464902,0.43224677,0.24816613,-0.042920295,0.69149256,0.20788953,0.2608943,0.4107438,0.593249,0.17301865,0.26975453,0.036693547,0.34506637,-0.42754453,-0.31446123,-0.45310938,-0.14350984,615.6777,787.326,791.3553,605.2015,711.1722,-0.125732421875,0.0164794921875,0.999267578125,2.01873779296875,-1.92901611328125,-2.758941650390625,1,1.0,1.0,1.0,1.0,60.00
2021-04-14 12:39:44.765,,,,,,,,,,,,,,,,,,,,,,,,,,,,,,,,,,,,,,/muse/elements/blink
2021-04-14 12:39:45.077,0.57435155,0.87920594,0.81058264,0.43464902,0.49487257,0.26581126,-0.16413221,0.69149256,0.18965031,-0.03563722,0.30995327,0.593249,0.24810782,0.30482948,0.12756014,0.34506637,-0.39594224,-0.28328228,-0.4250168,-0.14350984,786.52014,796.1905,802.23444,790.54944,758.71796,-0.18560791015625,-0.0274658203125,0.9847412109375,3.551483154296875,-3.768310546875,-0.695343017578125,1,1.0,1.0,1.0,1.0,60.00
2021-04-14 12:39:45.594,0.60338444,0.8416105,0.8140943,0.43464902,0.52523035,0.22605431,-0.17045851,0.69149256,0.1811523,0.23479842,0.3428491,0.593249,0.27891448,0.3859252,0.09290005,0.34506637,-0.39825037,-0.35512406,-0.5125984,-0.14350984,777.25275,798.60803,797.8022,780.87915,678.1319,-0.1834716796875,-0.0224609375,0.98590087890625,4.972076416015625,-3.252410888671875,1.517791748046875,1,1.0,1.0,1.0,1.0,60.00
2021-04-14 12:39:46.102,0.60338444,0.31733686,0.56212634,0.43464902,0.52523035,0.092529826,-0.11388684,0.69149256,0.1811523,0.24017948,0.343215,0.593249,0.27891448,0.25153196,0.071368,0.34506637,-0.39825037,-0.412054,-0.5283578,-0.14350984,796.5934,796.5934,798.60803,780.87915,705.5311,-0.20062255859375,-0.02386474609375,0.98291015625,3.7384033203125,-4.9346923828125,0.13458251953125,1,1.0,1.0,1.0,1.0,60.00
2021-04-14 12:39:46.611,-0.040249474,0.16113476,-0.048851255,0.076295465,0.0020271614,0.009533623,-0.19116999,0.0747838,0.08191305,0.24414022,0.26892188,0.14789033,0.2391945,0.19133453,-0.06908502,0.19388919,-0.16390997,-0.37823895,-0.55365205,-0.16691963,770.0,789.34064,796.1905,782.0879,810.293,-0.20001220703125,-0.02276611328125,0.98040771484375,4.5159912109375,-4.792633056640625,0.575714111328125,1,1.0,1.0,1.0,1.0,60.00
2021-04-14 12:39:47.132,6.1509234E-4,-0.30485734,-0.07436886,-0.057809867,-0.117623046,-0.18864062,-0.2369468,0.07158501,0.09144577,0.058421474,0.16379437,0.35241917,0.223431,0.07201957,-0.16911162,0.31457525,-0.22321147,-0.32174256,-0.5271699,-0.11278337,785.7143,780.4762,806.6667,799.011,872.74725,-0.19671630859375,-0.02374267578125,0.98541259765625,4.628143310546875,-4.605712890625,1.256103515625,1,1.0,1.0,1.0,1.0,60.00
2021-04-14 12:39:47.641,0.12423761,-0.36888555,-0.047942508,-0.10554825,-0.13472322,-0.36215705,-0.34810084,-0.04036301,0.16631301,0.0835679,0.20194921,0.36347133,0.27928355,0.113914795,-0.20510672,0.381898,-0.29294854,-0.27736038,-0.5973117,-0.113744,800.2198,803.0403,803.44324,790.9524,678.93774,-0.19915771484375,-0.0277099609375,0.9822998046875,4.658050537109375,-4.777679443359375,0.897216796875,1,1.0,1.0,1.0,1.0,60.00
2021-04-14 12:39:48.161,0.17301682,-0.33995834,0.26612002,0.17052628,-0.07449106,-0.45938176,-0.31500533,-0.017645944,0.5444854,0.14171997,0.18349715,0.35748854,0.27787814,0.1636341,-0.22157027,0.3848173,-0.29785794,-0.35729113,-0.56832165,-0.055475365,803.0403,785.31134,792.96704,788.5348,773.6264,-0.195068359375,-0.02435302734375,0.97857666015625,5.1141357421875,-4.62066650390625,0.6878662109375,1,1.0,1.0,1.0,1.0,60.00
2021-04-14 12:39:48.690,0.12250452,-0.33473507,0.283827,0.26975083,0.22717254,-0.33588356,-0.18726273,0.17587022,0.65016544,0.06778797,0.18949416,0.35363376,0.27215055,0.13180095,-0.22365169,0.27680224,-0.29770276,-0.5221573,-0.6151935,-0.09360284,784.5055,794.9817,792.5641,776.04395,756.7033,-0.2034912109375,-0.02752685546875,0.98077392578125,4.306640625,-4.605712890625,0.94207763671875,1,1.0,1.0,1.0,1.0,60.00
2021-04-14 12:39:49.190,-0.118747056,-0.4410287,0.26624158,0.25781044,0.2804299,-0.25746104,-0.1692388,0.33263332,0.68012184,-0.026762832,-0.030332949,0.42085835,0.19024815,0.06886684,-0.15185483,0.19534335,-0.3387547,-0.5534459,-0.62868565,-0.113342814,788.93774,799.41394,807.47253,797.3993,697.0696,-0.19482421875,-0.022705078125,0.97711181640625,5.0244140625,-4.732818603515625,0.919647216796875,1,1.0,1.0,1.0,1.0,65.00
2021-04-14 12:39:49.701,-0.2551756,-0.35359803,-0.10286623,0.17027073,0.23966795,-0.24032451,-0.20871414,0.33945823,0.5382976,-0.21299286,-0.069869205,0.39149648,0.15001792,0.042621993,-0.13999736,0.19557126,-0.52000153,-0.5136086,-0.64601517,-0.2142975,801.02563,790.14655,803.44324,800.2198,808.2784,-0.20318603515625,-0.0255126953125,0.9815673828125,4.538421630859375,-4.2169189453125,0.725250244140625,1,1.0,1.0,1.0,1.0,65.00
2021-04-14 12:39:50.217,-0.1932507,-0.38385963,0.06926581,0.13723254,0.1552701,-0.3178867,-0.33213016,0.2782896,0.49118292,-0.3096031,-0.10094117,0.36976147,0.14921933,0.07704892,-0.11269362,0.24632461,-0.576041,-0.5344216,-0.62860584,-0.22850412,787.326,793.36993,798.60803,784.10254,725.6777,-0.2078857421875,-0.02447509765625,0.9857177734375,4.194488525390625,-4.9346923828125,1.4056396484375,1,1.0,1.0,1.0,1.0,65.00
2021-04-14 12:39:50.744,-0.023802405,-0.32019228,0.21984914,0.067226075,0.09615133,-0.53465986,-0.25911206,0.18923008,0.32239598,-0.16580556,-0.08806733,0.15732606,0.15373908,0.13046584,-0.103072345,0.22170754,-0.51708436,-0.5500551,-0.63509023,-0.2768446,787.326,788.93774,801.4286,790.54944,695.8608,-0.20849609375,-0.02545166015625,0.98272705078125,4.725341796875,-4.32159423828125,1.039276123046875,1,1.0,1.0,1.0,1.0,65.00
2021-04-14 12:39:51.249,0.0978678,-0.29692346,0.25709698,0.09354263,0.06854684,-0.69946164,-0.20644951,0.12207473,0.3821484,-0.14918587,-0.14692794,0.14030096,0.049023386,0.107865386,-0.10896553,0.19220221,-0.6087497,-0.47655895,-0.67495507,-0.24088484,783.69965,794.17584,801.8315,790.9524,782.0879,-0.20697021484375,-0.0308837890625,0.9801025390625,4.882354736328125,-4.78515625,0.61309814453125,1,1.0,1.0,1.0,1.0,65.00
2021-04-14 12:39:51.778,0.25080866,-0.21118051,0.16126527,0.14598842,0.02342389,-0.3730035,-0.09722309,0.0669748,0.43816403,-0.016417546,0.0068629966,0.23761071,0.040202044,0.11817323,-0.13224225,0.20495927,-0.54819584,-0.43287843,-0.7007105,-0.31577587,778.0586,798.20514,801.02563,788.93774,724.4689,-0.20269775390625,-0.02825927734375,0.982177734375,4.658050537109375,-4.687957763671875,1.495361328125,1,1.0,1.0,1.0,1.0,65.00
2021-04-14 12:39:52.281,0.21456689,-0.20843725,0.10122467,0.13421732,0.3094289,-0.009736815,-0.15112086,-0.0075558755,0.49381807,0.04990009,0.024481371,0.2105295,0.06950451,0.06282691,-0.20223805,0.28099495,-0.5201694,-0.40037313,-0.6241203,-0.33160916,801.02563,794.17584,803.8461,807.47253,720.4396,-0.20538330078125,-0.02764892578125,0.98193359375,4.628143310546875,-4.97955322265625,0.83740234375,1,1.0,1.0,1.0,1.0,65.00
2021-04-14 12:39:52.801,0.1468797,-0.09257682,0.1495797,0.10717158,0.42754033,-0.021489976,-0.19830823,0.13759135,0.54014677,0.10545479,-0.014866353,0.298728,0.1988398,0.1447539,-0.19117026,0.33802226,-0.416682,-0.35708302,-0.52323395,-0.38972652,797.3993,792.1612,802.6374,788.1319,773.22345,-0.20751953125,-0.03143310546875,0.9791259765625,4.32159423828125,-4.299163818359375,1.248626708984375,1,1.0,1.0,1.0,1.0,65.00
2021-04-14 12:39:53.323,-0.088440835,0.033847857,0.17451686,-0.0022472432,0.48184922,-0.16970159,-0.21003431,0.21817404,0.4921313,0.082756296,-0.1926918,0.25300318,0.16587315,0.21634652,-0.1274951,0.30357546,-0.41023436,-0.31898782,-0.4928679,-0.34638524,786.1172,794.9817,800.6227,779.67035,755.89746,-0.207763671875,-0.026611328125,0.9832763671875,4.762725830078125,-4.777679443359375,1.323394775390625,1,1.0,1.0,1.0,1.0,65.00
2021-04-14 12:39:53.833,-0.10595872,-0.004598642,0.0800721,0.085843496,0.42881435,-0.7300015,-0.15532029,0.434943,0.4214441,0.0023086146,-0.27071086,0.360501,0.11478698,0.24700586,-0.06918347,0.2941989,-0.44009614,-0.28472036,-0.47305396,-0.33405325,781.28204,787.326,794.17584,790.9524,770.80585,-0.2061767578125,-0.0294189453125,0.9869384765625,4.463653564453125,-4.553375244140625,0.381317138671875,1,1.0,1.0,1.0,1.0,65.00
2021-04-14 12:39:54.360,0.035981487,-0.11749679,-0.07002383,-0.04505728,0.31680495,-0.35063976,0.040943895,0.4570119,0.35407582,0.06633442,-0.16595446,0.41441023,-0.013447872,0.16521534,-0.0573814,0.21799476,-0.37715095,-0.2735359,-0.50903267,-0.31480205,798.60803,798.60803,803.8461,797.8022,826.0073,-0.20465087890625,-0.03271484375,0.98284912109375,4.732818603515625,-4.538421630859375,0.515899658203125,1,1.0,1.0,1.0,1.0,65.00
2021-04-14 12:39:54.883,0.0955518,-0.26285553,-0.21730755,-0.013295027,0.24285911,-0.27941883,0.021862097,0.45226863,0.19009079,0.053445116,0.037314806,0.3888879,-0.04264078,0.06311619,-0.023424724,0.2109583,-0.38994253,-0.25795007,-0.48134798,-0.33269957,801.02563,797.8022,794.57874,791.75824,685.78754,-0.20843505859375,-0.03533935546875,0.98577880859375,4.074859619140625,-4.78515625,1.435546875,1,1.0,1.0,1.0,1.0,65.00
2021-04-14 12:39:55.411,0.11725623,-0.18910624,-0.1177151,0.022326786,0.056265023,-0.092859864,-0.010305579,0.23074307,0.06958438,0.14684476,0.07677611,0.34683964,0.034415808,0.0090788165,-0.007030785,0.21292461,-0.33002225,-0.36272737,-0.49363238,-0.3136119,794.17584,793.7729,794.57874,788.5348,745.82416,-0.17095947265625,-0.0380859375,0.98443603515625,5.5029296875,-7.13287353515625,1.532745361328125,1,1.0,1.0,1.0,1.0,65.00
2021-04-14 12:39:55.924,-0.07940791,-0.18404888,-0.14832145,-5.3058245E-4,0.106891476,-0.14219597,-0.07777737,0.11033489,-0.014845353,0.14909297,0.05222068,0.22671662,0.049461126,-0.04071609,-0.037788372,0.23262896,-0.40648815,-0.43920064,-0.42147246,-0.38589436,811.9048,809.89014,796.1905,811.50183,655.56775,-0.1031494140625,0.02508544921875,0.989990234375,6.945953369140625,-26.535186767578125,5.076751708984375,1,1.0,1.0,1.0,1.0,65.00
2021-04-14 12:39:55.932,,,,,,,,,,,,,,,,,,,,,,,,,,,,,,,,,,,,,,/muse/elements/blink
2021-04-14 12:39:56.431,-0.2363389,0.25439057,0.13166575,0.0018786702,0.07901455,-0.06158426,0.13153285,-0.052948046,-0.08908864,0.16565625,0.06712062,0.15755354,0.0847438,-0.09714377,-0.07090543,0.23814072,-0.3992005,-0.37204015,-0.42057693,-0.3818773,792.5641,778.86444,798.20514,797.3993,796.1905,0.1243896484375,0.02301025390625,1.00048828125,1.697235107421875,-19.103240966796875,4.42626953125,1,1.0,1.0,1.0,1.0,65.00
2021-04-14 12:39:56.937,-0.73623383,0.48217115,0.294136,-0.23326224,0.043206826,-0.18396902,0.22304995,-0.07515291,-0.15385182,0.15261722,0.08546875,0.15411864,0.015391126,0.037376348,-0.11913491,0.16380131,-0.47501975,-0.25803375,-0.44494647,-0.50755334,679.34064,790.14655,806.6667,673.69965,824.3956,0.20172119140625,0.0599365234375,1.00732421875,3.357086181640625,-0.25421142578125,7.020721435546875,1,1.0,1.0,1.0,1.0,65.00
2021-04-14 12:39:57.223,,,,,,,,,,,,,,,,,,,,,,,,,,,,,,,,,,,,,,/muse/elements/blink
2021-04-14 12:39:57.447,-0.73623383,0.72263277,0.616045,-0.23326224,0.043206826,-0.12648703,0.23286976,-0.07515291,-0.15385182,-0.019210856,0.089010455,0.15411864,0.015391126,0.16734806,-0.15510805,0.16380131,-0.47501975,-0.20862846,-0.56310785,-0.50755334,893.2967,810.696,786.1172,868.315,727.6923,0.02191162109375,-0.0933837890625,0.99945068359375,4.83001708984375,1.1065673828125,8.411407470703125,1,1.0,1.0,1.0,1.0,65.00
2021-04-14 12:39:57.951,-0.73623383,0.6790923,0.6893499,-0.23326224,0.043206826,-0.17713793,0.17044228,-0.07515291,-0.15385182,-0.1234144,-0.0677315,0.15411864,0.015391126,0.235373,-0.2568998,0.16380131,-0.47501975,-0.3071728,-0.5840302,-0.50755334,811.50183,798.60803,799.41394,806.6667,749.45056,3.0517578125E-4,-0.08453369140625,0.99530029296875,3.222503662109375,-6.108551025390625,0.874786376953125,1,1.0,1.0,1.0,1.0,65.00
2021-04-14 12:39:58.465,-0.73623383,0.47690564,0.7370326,-0.23326224,0.043206826,-0.24253057,-0.029445814,-0.07515291,-0.15385182,0.015306687,0.0940432,0.15411864,0.015391126,0.30494982,-0.22357753,0.16380131,-0.47501975,-0.36963746,-0.6369896,-0.50755334,742.1978,797.3993,790.54944,777.25275,688.20514,0.0146484375,-0.10638427734375,0.99713134765625,4.08233642578125,-4.11224365234375,1.27105712890625,1,2.0,1.0,1.0,2.0,65.00
2021-04-14 12:39:58.983,1.2559466,0.25142053,0.5386135,-0.23326224,0.9434083,-0.057941906,0.08061097,-0.07515291,0.8504456,0.29410326,0.30830842,0.15411864,0.3931233,0.4882141,-0.09819073,0.16380131,-0.26969755,-0.48159504,-0.5464829,-0.50755334,755.4945,770.0,765.56775,767.5824,762.74725,0.0196533203125,-0.093505859375,0.99615478515625,5.465545654296875,-6.362762451171875,1.07666015625,1,2.0,1.0,1.0,2.0,65.00
2021-04-14 12:39:59.489,1.5806562,0.25142053,0.5386135,-0.23326224,1.1670227,-0.057941906,0.08061097,-0.07515291,0.9458214,0.29410326,0.30830842,0.15411864,0.39784026,0.4882141,-0.09819073,0.16380131,-0.30031088,-0.48159504,-0.5464829,-0.50755334,828.8278,784.10254,790.54944,815.5311,893.69965,0.0042724609375,-0.09356689453125,1.00079345703125,4.089813232421875,-3.372039794921875,1.62994384765625,1,1.0,1.0,1.0,1.0,70.00
2021-04-14 12:39:59.997,1.515755,0.16697435,0.5567952,-0.23326224,1.116888,0.067255385,0.16476656,-0.07515291,0.9458214,0.2802613,0.3006688,0.15411864,0.3869926,0.53155804,-0.121978365,0.16380131,-0.3140575,-0.5558209,-0.44441518,-0.50755334,745.0183,790.14655,798.60803,771.2088,710.7692,0.015625,-0.0936279296875,1.00439453125,4.88983154296875,-4.14215087890625,0.07476806640625,1,1.0,1.0,1.0,1.0,70.00
2021-04-14 12:40:00.503,1.3127047,-0.51849556,0.21495213,-0.005703482,0.9644556,0.20686325,-0.33674353,0.46451142,0.9368993,-0.1404647,-0.12196751,0.29606357,0.33896425,0.21518178,0.036987796,0.07458245,-0.27299026,-0.3960788,-0.29946354,-0.09192161,774.0293,796.1905,796.5934,794.17584,706.7399,0.010498046875,-0.08758544921875,1.00067138671875,5.39825439453125,-5.286102294921875,3.626251220703125,1,1.0,1.0,1.0,1.0,70.00
2021-04-14 12:40:01.018,0.20425363,-0.29153714,0.08421421,0.10329527,0.6143166,0.23788407,-0.13732551,0.42293814,0.6457577,0.16746606,0.14286256,0.39076898,0.21761772,0.15638407,-0.019569054,0.18171111,-0.18668225,-0.42151418,-0.3121428,0.003172758,830.84247,799.81683,794.57874,815.12823,909.011,0.01043701171875,-0.10540771484375,0.98809814453125,4.53094482421875,-5.7122802734375,1.57012939453125,1,1.0,1.0,1.0,1.0,70.00
2021-04-14 12:40:01.525,0.48652688,-0.15241848,-0.06926193,0.25156075,0.5775803,0.2964418,-0.091937914,0.37039062,0.72318345,0.249026,0.22904977,0.4037633,0.22074008,0.12792698,0.027437333,0.30202204,-0.21314308,-0.4286016,-0.3479944,-0.035234503,836.8865,805.8608,798.60803,805.05493,748.6447,0.02496337890625,-0.10406494140625,0.998779296875,4.20196533203125,-3.81317138671875,-2.64678955078125,1,1.0,1.0,1.0,1.0,70.00
2021-04-14 12:40:02.049,0.584808,0.06090265,-0.39386186,0.2156317,0.51602036,0.24176781,-0.11343045,0.32832372,0.72922873,0.249026,0.24733442,0.3309064,0.103116624,0.12772198,-0.044929974,0.3187534,-0.2894264,-0.3654045,-0.37787217,-0.07565402,782.49084,797.8022,798.20514,784.10254,723.663,0.02459716796875,-0.09368896484375,1.00042724609375,5.585174560546875,-5.301055908203125,0.590667724609375,1,1.0,1.0,1.0,1.0,70.00
2021-04-14 12:40:02.579,0.5240124,0.015603476,-0.6288258,0.10943047,0.451765,0.17931856,-0.23859239,0.37321752,0.7528745,0.34189552,0.20536849,0.49087387,0.06851283,0.1646981,-0.01058275,0.2530675,-0.39000955,-0.25659034,-0.35384384,-0.1258813,739.7802,794.17584,794.9817,777.25275,617.28937,0.01116943359375,-0.09271240234375,0.99566650390625,3.24493408203125,-4.658050537109375,1.218719482421875,1,1.0,1.0,1.0,1.0,70.00
2021-04-14 12:40:03.103,0.17843932,0.03870378,-0.5277903,0.050063998,0.5114147,0.062307283,-0.22005096,0.45066622,0.76871485,0.36389834,0.23535234,0.50658643,0.049005654,0.12907436,-0.094622046,0.24578395,-0.29394644,-0.26036066,-0.3769439,-0.11127973,812.71063,808.2784,808.2784,810.293,731.31866,0.0296630859375,-0.09649658203125,1.00079345703125,4.568328857421875,-6.108551025390625,-3.701019287109375,1,1.0,1.0,1.0,1.0,70.00
2021-04-14 12:40:03.633,-0.19763571,0.24567072,-0.28835884,0.2438733,0.6723384,0.03330187,0.015345849,0.4917603,0.78334427,0.37370643,0.25096115,0.5365123,0.21092132,0.08760165,-0.085986786,0.33920994,-0.22334076,-0.37046805,-0.4667435,-0.14326642,778.0586,786.1172,799.81683,788.93774,794.9817,0.02764892578125,-0.09368896484375,1.01556396484375,4.2767333984375,-4.029998779296875,1.308441162109375,1,1.0,1.0,1.0,1.0,70.00
2021-04-14 12:40:04.146,-0.102087766,0.36863828,-0.1723137,0.256431,0.6653134,-0.020577123,0.063733086,0.548528,0.6442371,0.31669202,0.2519913,0.567239,0.20761241,0.09300881,-0.11645711,0.38905263,-0.19616754,-0.4790025,-0.6396949,-0.29317662,823.5897,800.2198,800.2198,809.0842,812.3077,0.018798828125,-0.07989501953125,1.00732421875,4.74029541015625,-3.895416259765625,-1.00189208984375,1,1.0,1.0,1.0,1.0,70.00
2021-04-14 12:40:04.661,0.5420307,0.2885259,-0.1460702,0.41694742,0.6383778,-0.012668173,-0.017719485,0.4965908,0.47205552,0.12982465,0.21147595,0.44785073,0.1164753,0.10716357,-0.11737771,0.29289374,-0.32538792,-0.44331917,-0.7123776,-0.3540649,894.5055,804.2491,797.8022,849.7802,850.989,0.006591796875,-0.10064697265625,0.99261474609375,3.895416259765625,-4.80010986328125,1.5252685546875,1,1.0,1.0,1.0,1.0,70.00
2021-04-14 12:40:05.182,1.2152925,0.14038153,-0.24090086,1.0827719,0.89524996,0.051749617,-0.18398131,0.79380673,0.9018527,0.27258736,0.32071713,0.71939105,0.03485763,0.14993311,-0.12264281,0.26674506,-0.30183747,-0.33962977,-0.7214542,-0.2947718,773.6264,791.3553,797.3993,779.67035,742.6007,0.0242919921875,-0.10064697265625,0.99627685546875,4.732818603515625,-6.95343017578125,1.293487548828125,1,1.0,1.0,1.0,1.0,70.00
2021-04-14 12:40:05.705,1.296777,0.08294692,-0.097178556,1.186748,0.94000685,0.096711196,-0.31164697,0.80708104,0.9615665,0.45457914,0.31224728,0.7773857,0.113776594,0.14411914,-0.09364908,0.23806453,-0.28358164,-0.36681655,-0.5855141,-0.20732771,828.8278,796.5934,794.17584,795.78754,865.89746,0.01348876953125,-0.0938720703125,1.00872802734375,4.478607177734375,-5.8917236328125,0.777587890625,1,1.0,1.0,1.0,1.0,70.00
2021-04-14 12:40:06.214,1.2535576,0.15268677,0.07309291,1.1643627,0.91540146,0.15252717,-0.16252764,0.8362226,1.0739303,0.5017506,0.38388535,0.971936,0.27209747,0.2991914,-0.060966823,0.33858356,-0.16201147,-0.32056046,-0.6085254,-0.118586294,801.8315,789.7436,798.60803,804.2491,827.619,0.0230712890625,-0.0906982421875,0.994140625,4.68048095703125,-5.585174560546875,3.768310546875,1,1.0,1.0,1.0,1.0,70.00
2021-04-14 12:40:06.739,0.68795544,0.06962927,0.15461923,0.69321454,0.75041085,0.21159655,-0.07841339,0.6576394,1.0674616,0.52751553,0.26360786,0.93876857,0.37121022,0.2660243,-0.052609142,0.38965422,-0.19285536,-0.40455818,-0.5801142,-0.044803154,841.7216,792.5641,803.8461,813.1135,863.8828,0.04022216796875,-0.08184814453125,1.0120849609375,6.160888671875,-4.66552734375,1.203765869140625,1,1.0,1.0,1.0,1.0,70.00
2021-04-14 12:40:07.243,0.11030438,-0.0068642776,0.05970527,0.21764548,0.92672247,0.44984248,-0.038974244,0.6384653,0.96200615,0.38429627,0.19260485,0.87083155,0.37413126,0.19542891,-0.10361783,0.40322152,-0.22157328,-0.3582722,-0.5800531,0.0022522155,807.47253,797.8022,799.011,784.90845,725.2747,0.02435302734375,-0.07672119140625,0.9932861328125,4.852447509765625,-4.673004150390625,2.908477783203125,1,1.0,1.0,1.0,1.0,70.00
2021-04-14 12:40:07.751,-0.12832955,0.04161985,0.02896272,0.17612423,1.0365609,0.5625569,-0.027124109,0.7617911,0.8594106,0.42592373,-0.044276312,0.72689265,0.28986806,-0.038758125,-0.1093272,0.41732004,-0.3624779,-0.4480837,-0.5417399,-0.041233994,747.03296,780.87915,798.20514,768.7912,753.0769,0.0223388671875,-0.09527587890625,0.9881591796875,5.360870361328125,-5.046844482421875,-0.94207763671875,1,1.0,1.0,1.0,1.0,70.00
2021-04-14 12:40:08.265,-0.1144781,0.09517159,0.026516983,0.2995202,1.102825,0.63651896,0.0581338,0.9732316,0.7866573,0.34742516,0.15969184,0.9015135,0.25639793,-0.009586045,-0.026787298,0.4650523,-0.37735257,-0.4237371,-0.4926394,-0.07441682,761.53845,794.17584,792.96704,786.1172,803.44324,0.02960205078125,-0.07769775390625,1.01507568359375,5.719757080078125,-5.15899658203125,-0.897216796875,1,1.0,1.0,1.0,1.0,70.00
2021-04-14 12:40:08.770,-0.19563805,0.11665867,0.32169923,0.28108466,1.1263249,0.6586247,0.090952516,1.1284564,0.797593,0.33111188,0.1745549,0.8743366,0.23722163,0.02342629,0.04030591,0.46580535,-0.34597567,-0.47369453,-0.47856224,-0.1369955,804.65204,779.67035,791.75824,786.52014,706.337,0.02447509765625,-0.09283447265625,0.99749755859375,5.99639892578125,-3.162689208984375,-0.6280517578125,1,1.0,1.0,1.0,1.0,70.00
2021-04-14 12:40:09.291,0.023138199,0.05186218,0.3226207,0.17939077,1.1259384,0.6708208,0.095938765,1.1225145,0.79599947,0.31251445,0.18344696,0.8711308,0.26570827,0.11800787,0.025882104,0.40610197,-0.27112764,-0.45327705,-0.533647,-0.14493272,855.0183,799.81683,803.0403,836.8865,850.58606,0.00872802734375,-0.09344482421875,1.00262451171875,4.015045166015625,-3.4991455078125,1.652374267578125,1,1.0,1.0,1.0,1.0,70.00
2021-04-14 12:40:09.798,0.15697037,0.052808415,0.29108435,0.35237926,1.1880863,0.6897327,0.017328281,1.0494573,0.8803822,0.33597645,0.21846834,0.8936176,0.24159488,0.07971147,-0.102252476,0.33941227,-0.27150467,-0.32845,-0.6934516,-0.25394353,783.2967,802.6374,794.57874,789.34064,661.2088,0.041259765625,-0.07769775390625,0.988037109375,5.286102294921875,-5.36834716796875,1.786956787109375,1,1.0,1.0,1.0,1.0,60.00
2021-04-14 12:40:10.324,0.44180638,0.21290928,0.28546265,0.8129898,1.1125158,0.69464767,0.06887078,1.0199348,0.88204753,0.32537207,0.2188438,0.85570514,0.32143438,0.10344578,-0.0856992,0.43299526,-0.41002837,-0.24101198,-0.7632911,-0.31065896,836.8865,801.8315,795.78754,816.337,812.3077,0.03009033203125,-0.0855712890625,0.995361328125,5.375823974609375,-5.091705322265625,2.9010009765625,1,1.0,1.0,1.0,1.0,60.00
2021-04-14 12:40:10.849,0.49212024,0.25174192,0.279782,0.86089647,1.0399871,0.5934678,0.05627234,0.9441567,0.8812636,0.20142016,0.205302,0.8256643,0.33968508,0.06520458,-0.09461092,0.44504988,-0.55231416,-0.19926488,-0.68670654,-0.3151134,780.4762,792.5641,790.9524,793.36993,803.0403,0.03802490234375,-0.0692138671875,1.00079345703125,3.416900634765625,-3.0804443359375,-0.082244873046875,1,1.0,1.0,1.0,1.0,60.00
2021-04-14 12:40:11.375,1.070323,0.71256196,0.4998292,1.0618064,0.9503839,0.49971655,0.26932052,0.82757527,1.0609586,0.3650439,0.124946855,0.9326891,0.42238846,0.12132547,-0.0452185,0.43516356,-0.37715524,-0.2832002,-0.66638917,-0.25136814,843.73627,812.71063,791.3553,815.9341,806.26373,0.00958251953125,-0.0860595703125,0.99481201171875,3.865509033203125,-4.0972900390625,0.538330078125,1,1.0,1.0,1.0,1.0,60.00
2021-04-14 12:40:11.902,1.0757358,0.7560431,0.45003957,0.92908084,0.9352663,0.42437315,0.2852552,0.60126334,1.0968659,0.5879743,-0.06975178,0.9479668,0.367099,0.15919885,-0.105017394,0.36566362,-0.31930032,-0.3727602,-0.6376925,-0.21098183,848.5714,793.36993,810.293,825.6044,788.93774,0.019775390625,-0.0933837890625,0.99212646484375,3.102874755859375,-4.643096923828125,0.216827392578125,1,1.0,1.0,1.0,1.0,60.00
2021-04-14 12:40:12.429,1.1935611,0.8364399,0.6615946,1.0538679,0.98848706,0.45654222,0.3040785,0.66747904,1.0968659,0.6584662,-0.07245558,0.9469978,0.38973486,0.28559586,-0.08059032,0.3828675,-0.24593891,-0.42228553,-0.6115322,-0.2277846,754.68866,797.3993,796.5934,774.0293,638.6447,-6.103515625E-4,-0.0902099609375,0.99298095703125,2.594451904296875,-6.467437744140625,2.041168212890625,1,1.0,1.0,1.0,1.0,60.00
2021-04-14 12:40:12.955,0.95874035,0.6284249,0.56059,0.8325925,0.8394604,0.4254329,0.067127034,0.5115613,0.9974467,0.6308973,-0.054708585,0.7724892,0.2667945,0.22817047,-0.15131994,0.38531572,-0.34108388,-0.45507374,-0.57435733,-0.25830388,806.6667,791.3553,796.99634,793.7729,710.7692,0.03668212890625,-0.11688232421875,0.97406005859375,3.117828369140625,-3.087921142578125,1.614990234375,1,1.0,1.0,1.0,1.0,60.00
2021-04-14 12:40:13.469,0.917232,0.44356593,0.45571825,0.7219992,0.7464858,0.13853532,-0.025017487,0.4982551,0.5562316,0.55564594,-0.076467976,0.41557,0.30107772,0.09666864,-0.21365333,0.29796717,-0.23001781,-0.45515633,-0.55895925,-0.1360121,755.4945,799.41394,794.17584,763.5531,653.95605,0.0548095703125,-0.0997314453125,1.003662109375,0.8673095703125,-6.826324462890625,3.887939453125,1,1.0,1.0,1.0,1.0,60.00
2021-04-14 12:40:13.980,0.52881193,0.2542352,-0.046962045,0.4107595,0.606054,0.010877005,-0.12813191,0.35149428,0.5262959,0.16182366,-0.060199108,0.31956875,0.2164117,-0.09296493,-0.14836411,0.3532817,-0.25623938,-0.48106918,-0.5808477,-0.19472745,757.1062,803.0403,798.60803,769.59705,743.4066,0.024658203125,-0.09869384765625,1.00958251953125,3.90289306640625,-4.2767333984375,0.874786376953125,1,1.0,1.0,1.0,1.0,60.00
2021-04-14 12:40:14.494,0.809856,0.14876585,-0.1812021,0.9116922,0.67896026,-0.098045245,-0.20929684,0.6207868,0.46936792,-0.001717536,-0.029880216,0.41321862,0.23413832,-0.051877722,-0.15427294,0.351003,-0.21650638,-0.5005675,-0.6043132,-0.1595339,801.02563,788.93774,796.5934,784.10254,749.45056,0.0191650390625,-0.1009521484375,0.9814453125,4.08233642578125,-3.252410888671875,0.777587890625,1,1.0,1.0,1.0,1.0,60.00
2021-04-14 12:40:15.008,1.0525386,0.10884175,-0.24521041,1.0022763,0.86379427,0.11500562,-0.3205982,0.68091995,0.54816866,0.13656533,0.054392394,0.40706497,0.2548772,0.0295103,-0.17068887,0.38369623,-0.28068954,-0.5429302,-0.6455015,-0.18852034,752.674,795.78754,810.696,794.17584,712.7839,0.03863525390625,-0.06243896484375,1.00543212890625,5.196380615234375,-4.134674072265625,2.22808837890625,1,1.0,1.0,1.0,1.0,60.00
2021-04-14 12:40:15.533,1.5365841,0.15013051,0.0015775374,1.6714857,1.1351879,0.25600538,0.005689818,1.2434963,1.0414397,0.102353916,0.21416979,0.9851669,0.3979991,0.057492707,-0.30159655,0.59616977,-0.107944734,-0.53939205,-0.6270712,0.031481884,747.03296,775.2381,780.4762,757.9121,670.87915,0.021484375,-0.08233642578125,0.9857177734375,2.99072265625,-7.8656005859375,3.730926513671875,1,1.0,1.0,1.0,1.0,60.00
2021-04-14 12:40:16.060,1.6326474,-0.02356268,0.19759323,1.8484854,1.2099983,0.3759153,0.2624565,1.4085075,1.0414397,0.102353916,0.1793784,0.9850442,0.4450199,0.07258522,-0.26684675,0.7150573,-0.071913764,-0.51099354,-0.60612154,0.09523951,760.32965,785.7143,793.36993,780.4762,828.4249,0.0257568359375,-0.084228515625,1.01861572265625,4.306640625,-5.330963134765625,2.46734619140625,1,1.0,1.0,1.0,1.0,60.00
2021-04-14 12:40:16.568,1.6275061,0.9186288,0.93805367,1.6644794,1.0900363,0.23437212,0.22894293,1.2144492,1.0410607,0.13883235,-0.34240958,1.0143156,0.3365878,0.102447726,-0.11886516,0.6112733,-0.031339463,-0.34032023,-0.41275683,0.061721362,805.05493,795.38464,801.4286,796.5934,836.4835,0.01544189453125,-0.0849609375,0.9915771484375,5.988922119140625,-5.99639892578125,0.25421142578125,1,1.0,1.0,1.0,1.0,60.00
2021-04-14 12:40:17.090,0.9101695,0.7134634,0.69911087,0.88852274,0.14816721,0.063158564,0.06473835,0.55057037,0.40437248,0.19857188,-0.039735306,0.65106076,0.09615148,0.16578339,-0.04595002,0.2510043,-0.20696223,-0.342279,-0.514671,-0.14068769,828.8278,783.69965,788.93774,791.75824,840.9158,0.02166748046875,-0.08367919921875,0.98858642578125,5.271148681640625,-3.289794921875,6.332855224609375,1,1.0,1.0,1.0,1.0,60.00
2021-04-14 12:40:17.601,0.76626265,0.6130975,0.67477846,0.79550797,0.48015127,0.2194478,0.19065394,0.7348235,0.62729955,0.43577808,0.18598075,0.7532403,0.18145785,0.14843541,-0.059120435,0.26621172,-0.16652566,-0.40332082,-0.54460377,-0.17998834,749.85345,790.54944,801.4286,777.25275,738.97437,0.03033447265625,-0.076171875,0.99456787109375,3.895416259765625,-4.88983154296875,1.128997802734375,1,1.0,1.0,1.0,1.0,60.00
2021-04-14 12:40:18.120,0.46190172,0.2281405,0.33707026,0.6486568,0.9984229,0.49975306,0.24372092,0.9969776,0.7676383,0.4666277,0.16707574,0.76510906,0.19568372,0.14826272,0.017476987,0.26861727,-0.2285639,-0.45778516,-0.631979,-0.23296711,760.32965,800.2198,797.3993,789.7436,601.5751,0.00677490234375,-0.07965087890625,1.01025390625,6.50482177734375,-3.267364501953125,-6.10107421875,1,1.0,1.0,1.0,1.0,60.00
2021-04-14 12:40:18.624,1.0357558,0.10422507,0.3152244,1.0442195,1.2217339,0.56803334,0.2876258,1.1289582,0.7676383,0.49544376,0.17345493,0.7050127,0.2552184,0.09341661,0.009319506,0.30000988,-0.33369106,-0.48386848,-0.65806305,-0.26277378,776.4469,793.7729,797.3993,797.3993,757.1062,0.0108642578125,-0.0975341796875,1.005126953125,3.895416259765625,-1.981353759765625,-0.5084228515625,1,1.0,1.0,1.0,1.0,60.00
2021-04-14 12:40:19.155,1.0604378,-0.08904905,-0.04252248,1.1064198,1.253937,0.5896058,0.2342888,1.1341835,0.775568,0.34874922,0.035755686,0.6985746,0.21624486,0.021720646,-0.030786403,0.2768876,-0.4723232,-0.37928414,-0.6335534,-0.26033586,832.4542,794.17584,799.81683,815.9341,743.4066,0.02197265625,-0.1014404296875,1.0006103515625,2.415008544921875,-4.358978271484375,6.35528564453125,1,1.0,1.0,1.0,1.0,60.00
2021-04-14 12:40:19.657,1.0576435,-0.053882334,-0.19346584,1.1035565,1.0793275,0.35530254,0.11811164,0.75224173,0.7166156,0.23264666,0.016322937,0.49235454,0.20766398,0.018226352,-0.14048778,0.24749817,-0.3587566,-0.34139615,-0.67807955,-0.18322062,846.55676,807.47253,812.3077,824.7985,719.2308,0.01580810546875,-0.09735107421875,0.9949951171875,3.93280029296875,-4.059906005859375,1.256103515625,1,1.0,1.0,1.0,1.0,60.00
2021-04-14 12:40:20.164,0.3930528,0.17783135,0.040559005,0.654319,0.7699828,0.273604,0.010285738,0.6153251,0.6654988,0.092407316,0.07414938,0.5768856,0.15493593,0.010273321,-0.16484578,0.33820242,-0.2701478,-0.36976114,-0.69550234,-0.025368446,780.07324,796.1905,787.72894,771.6117,664.83514,-0.0103759765625,-0.086669921875,1.0181884765625,6.871185302734375,-5.802001953125,1.024322509765625,1,1.0,1.0,1.0,1.0,65.00
2021-04-14 12:40:20.675,0.3861088,0.5024051,0.35952017,0.71133024,0.89085335,0.26532063,-0.026844341,0.7602341,0.96586937,0.1507041,0.1278516,0.79695356,0.3138041,0.02959455,-0.08516277,0.44371906,-0.26413113,-0.4436225,-0.70233405,-0.048760273,830.4396,792.1612,802.6374,823.1868,925.5311,-0.00909423828125,-0.07952880859375,0.995849609375,5.016937255859375,-2.093505859375,4.90478515625,1,1.0,1.0,1.0,1.0,65.00
2021-04-14 12:40:21.183,0.6616881,0.5938404,0.5148936,0.8176986,1.0360948,0.44624743,-0.061435863,0.9426655,1.1841613,0.47983554,0.21695818,0.9242501,0.46098438,0.006792817,-0.108440205,0.5731587,-0.29643548,-0.5135254,-0.6424371,-0.12241292,841.31866,800.6227,799.41394,808.68134,743.8095,0.0172119140625,-0.06231689453125,1.005859375,3.865509033203125,-5.136566162109375,-2.46734619140625,1,1.0,1.0,1.0,1.0,65.00
2021-04-14 12:40:21.689,0.76920336,0.65023327,0.5416321,0.7590352,1.1333646,0.5406433,0.0018172351,1.0100912,1.1939505,0.4730496,0.26151422,0.9311788,0.5112739,0.13546222,-0.15972011,0.5922496,-0.3361823,-0.51545095,-0.5913944,-0.26070642,775.2381,785.7143,801.02563,792.1612,817.1429,0.00299072265625,-0.0667724609375,1.01654052734375,2.953338623046875,-6.452484130859375,-1.099090576171875,1,1.0,1.0,1.0,1.0,65.00
2021-04-14 12:40:22.194,0.80261546,0.49807087,0.3183772,0.6620033,1.0741122,0.5302831,-0.23242013,0.991805,1.1939505,0.47569808,0.16783956,0.9360981,0.4099936,0.19981106,-0.22902723,0.53530043,-0.2420182,-0.51047766,-0.59025514,-0.22037019,666.4469,789.7436,818.3516,708.7546,674.10254,0.02325439453125,-0.048583984375,1.00799560546875,6.26556396484375,-1.338348388671875,2.31781005859375,1,1.0,1.0,1.0,1.0,65.00
2021-04-14 12:40:22.231,,,,,,,,,,,,,,,,,,,,,,,,,,,,,,,,,,,,,,/muse/elements/blink
2021-04-14 12:40:22.413,,,,,,,,,,,,,,,,,,,,,,,,,,,,,,,,,,,,,,/muse/elements/blink
2021-04-14 12:40:22.708,0.6672662,0.43750966,0.36342654,0.40889087,1.0439754,0.41310564,-0.20242244,0.9625411,1.0655358,0.4133608,0.42756283,0.8849672,0.29115632,0.19726129,-0.14363606,0.45675054,-0.21563762,-0.4875364,-0.61316735,-0.1443341,804.2491,826.0073,790.14655,793.36993,809.4872,-0.09503173828125,-0.1253662109375,1.01788330078125,-1.472930908203125,3.09539794921875,-2.071075439453125,1,1.0,1.0,1.0,1.0,65.00
2021-04-14 12:40:23.225,0.4191924,0.46866995,0.4165276,0.31856963,0.9418422,0.4344131,0.019755447,0.86552995,0.7426653,0.35920432,0.41781375,0.63474244,0.19167891,0.14450683,-0.017239409,0.39071313,-0.08778669,-0.4954664,-0.6136649,-0.09774367,815.12823,799.41394,790.54944,803.44324,700.293,-0.1329345703125,-0.09735107421875,0.99359130859375,8.845062255859375,-3.686065673828125,-9.271240234375,1,1.0,1.0,1.0,1.0,65.00
2021-04-14 12:40:23.731,0.38851792,0.71999955,0.53375685,0.31920642,0.97270477,0.57898086,0.2373749,0.9036957,0.7426653,0.37877327,0.4724436,0.62939394,0.21541788,0.14095178,-0.057556745,0.4088643,-0.056685004,-0.50359505,-0.5956187,-0.12062609,787.326,787.326,796.1905,781.685,683.36993,-0.07989501953125,-0.03875732421875,0.9951171875,10.086212158203125,0.10467529296875,2.34771728515625,1,1.0,1.0,1.0,1.0,65.00
2021-04-14 12:40:24.246,,,,,,,,,,,,,,,,,,,,,,,,,,,,,,,,,,,,,,/muse/elements/blink
2021-04-14 12:40:24.247,0.38851792,0.89593136,0.44424227,0.31920642,0.97270477,0.6636992,0.2711362,0.9036957,0.7426653,0.3470699,0.3879537,0.62939394,0.21541788,0.1712783,-0.15112615,0.4088643,-0.056685004,-0.4517808,-0.49500424,-0.12062609,851.39197,802.23444,803.0403,862.674,832.4542,-0.12518310546875,0.01513671875,0.9913330078125,6.80389404296875,-1.3458251953125,4.78515625,1,1.0,1.0,1.0,1.0,65.00
2021-04-14 12:40:24.751,0.38851792,1.167967,0.44835404,0.31920642,0.97270477,0.89680296,0.27870968,0.9036957,0.7426653,0.75724137,0.17973039,0.62939394,0.21541788,0.21166831,-0.25705197,0.4088643,-0.056685004,-0.4144153,-0.46925792,-0.12062609,787.326,805.4579,790.54944,789.7436,728.49817,-0.16156005859375,0.0474853515625,0.9898681640625,5.5328369140625,-1.278533935546875,6.407623291015625,1,1.0,1.0,1.0,1.0,65.00
2021-04-14 12:40:25.262,0.38851792,1.1974975,0.35651344,0.31920642,0.97270477,0.87713677,0.28485867,0.9036957,0.7426653,0.75724137,0.123128794,0.62939394,0.21541788,0.19542749,-0.29902345,0.4088643,-0.056685004,-0.36745277,-0.360077,-0.12062609,769.19415,792.5641,804.2491,767.1795,676.1172,-0.1754150390625,0.025634765625,0.982421875,4.194488525390625,-5.061798095703125,0.179443359375,1,2.0,1.0,1.0,2.0,65.00
2021-04-14 12:40:25.776,0.38851792,1.0793812,0.03925095,0.31920642,0.97270477,0.7843588,-0.1680552,0.9036957,0.7426653,0.75724137,-0.06621794,0.62939394,0.21541788,0.12536372,-0.1214768,0.4088643,-0.056685004,-0.31033787,-0.76400626,-0.12062609,826.8132,769.19415,829.6337,848.5714,763.95605,-0.15966796875,0.019775390625,0.99102783203125,3.12530517578125,-2.7215576171875,3.46923828125,1,2.0,1.0,1.0,2.0,65.00
2021-04-14 12:40:26.304,1.3216192,0.86176294,1.1910051,1.0756985,1.0232519,0.44961452,0.5085297,0.47455287,0.9450306,0.6589743,0.5702669,0.65386647,0.45217982,0.03955573,0.0120325,0.30775228,-0.08198735,-0.3048229,-0.762245,-0.003676494,811.0989,805.4579,807.8755,807.8755,909.41394,-0.1390380859375,0.01666259765625,0.9849853515625,4.478607177734375,-6.407623291015625,13.218994140625,1,1.0,1.0,1.0,1.0,65.00
2021-04-14 12:40:26.804,1.3216192,0.90285623,1.2702789,1.0756985,1.0232519,0.66462225,0.5824059,0.47455287,0.9450306,0.6589743,0.5889046,0.65386647,0.45217982,0.026584798,0.024540158,0.30775228,-0.08198735,-0.3210208,-0.7501832,-0.003676494,763.5531,840.5128,798.60803,767.1795,643.47986,-0.14898681640625,0.0323486328125,0.989013671875,2.22808837890625,-3.910369873046875,2.6318359375,1,1.0,1.0,1.0,1.0,65.00
2021-04-14 12:40:27.322,1.3446596,1.0621176,1.5170176,1.0756985,1.0244709,0.83554155,0.8046294,0.47455287,0.9415843,0.6589743,0.5889046,0.65386647,0.49627045,0.06684576,0.093243174,0.30775228,-0.011349811,-0.39958534,-0.7272957,-0.003676494,636.2271,842.52747,739.3773,611.6484,818.7546,-0.1483154296875,0.0230712890625,0.99444580078125,5.465545654296875,-2.19818115234375,-6.691741943359375,1,1.0,1.0,1.0,1.0,65.00
2021-04-14 12:40:27.391,,,,,,,,,,,,,,,,,,,,,,,,,,,,,,,,,,,,,,/muse/elements/blink
2021-04-14 12:40:27.848,1.4189388,1.0495251,1.6349922,1.0756985,1.1015408,0.9835743,0.9138115,0.47455287,0.8746807,0.5832718,0.5762045,0.65386647,0.49035782,-0.009364113,0.08699393,0.30775228,-0.0031126891,-0.48097607,-0.72127044,-0.003676494,801.8315,801.02563,790.9524,796.5934,783.69965,-0.16455078125,0.0228271484375,0.9886474609375,6.220703125,-3.289794921875,-4.47113037109375,1,1.0,1.0,1.0,1.0,65.00
2021-04-14 12:40:28.377,1.4189388,1.1766473,1.6349922,1.0756985,1.1015408,0.6668377,0.9138115,0.47455287,0.8746807,0.39196062,0.5762045,0.65386647,0.49035782,0.12202613,0.08699393,0.30775228,-0.0031126891,-0.5003533,-0.72127044,-0.003676494,795.38464,796.99634,805.05493,793.7729,812.3077,-0.1739501953125,0.00958251953125,0.9903564453125,4.254302978515625,-6.65435791015625,-1.697235107421875,1,1.0,1.0,1.0,1.0,65.00
2021-04-14 12:40:28.885,1.4189388,1.0346699,0.28127995,1.0756985,1.1015408,0.4282529,-0.3985496,0.47455287,0.8746807,0.4482764,-0.06599581,0.65386647,0.49035782,0.11069652,0.06843907,0.30775228,-0.0031126891,-0.345876,-0.41074702,-0.003676494,790.9524,782.49084,814.3223,809.89014,833.663,-0.17242431640625,0.0157470703125,0.98883056640625,5.106658935546875,-4.942169189453125,2.026214599609375,1,1.0,1.0,1.0,1.0,65.00
2021-04-14 12:40:29.410,0.3901338,0.9763934,0.36734188,-0.006441269,0.14690109,0.43210185,-0.011673733,-0.09507286,0.5137301,0.7178866,0.08936555,0.41594246,0.36344564,0.11613696,-1.3234203E-4,0.25684252,-0.25610223,-0.3875826,-0.5068922,-0.20105124,784.10254,793.7729,804.2491,794.17584,610.4396,-0.174072265625,0.0126953125,0.98760986328125,4.42626953125,-5.540313720703125,2.325286865234375,1,1.0,1.0,1.0,1.0,65.00
2021-04-14 12:40:29.917,0.37684184,0.7677368,0.36300632,-0.013006702,0.2762544,0.30600125,0.22071062,-0.092193365,0.6204825,0.7803805,0.38311195,0.5283048,0.362937,0.20836279,-0.024916762,0.39035967,-0.24195531,-0.3860292,-0.5612233,-0.26418743,801.4286,795.78754,803.44324,803.44324,786.52014,-0.17852783203125,0.0157470703125,0.987548828125,4.91973876953125,-4.38140869140625,1.1962890625,1,1.0,1.0,1.0,1.0,65.00
2021-04-14 12:40:30.421,0.35096338,0.6499252,0.28292748,0.12883432,0.27003634,0.3027133,0.23038355,0.095661104,0.6204825,0.76697344,0.38311195,0.6014146,0.3103775,0.216047,-0.08448251,0.3362515,-0.24567823,-0.422174,-0.62539876,-0.30094627,803.8461,801.02563,808.68134,795.78754,740.989,-0.1734619140625,0.018310546875,0.98248291015625,3.850555419921875,-4.239349365234375,0.157012939453125,1,1.0,1.0,1.0,1.0,65.00
2021-04-14 12:40:30.931,0.2630245,0.4156995,0.12339625,0.09971206,0.21709295,0.08785352,0.16765311,0.20681374,0.59914815,0.70895517,0.3830466,0.6736387,0.21836957,0.14597958,-0.12633276,0.3436807,-0.28176028,-0.41631156,-0.5942387,-0.31067342,793.7729,801.02563,782.0879,781.28204,800.2198,-0.18621826171875,0.0145263671875,0.9840087890625,5.14404296875,-2.998199462890625,-0.171966552734375,1,1.0,1.0,1.0,1.0,65.00
2021-04-14 12:40:31.035,,,,,,,,,,,,,,,,,,,,,,,,,,,,,,,,,,,,,,/muse/elements/blink
2021-04-14 12:40:31.449,0.38138363,0.30313376,0.37857336,0.55915254,0.7212652,-0.077394545,0.11804295,0.79496074,0.9772714,0.38035035,0.4807079,1.2905979,0.25004682,0.035089053,-0.10289626,0.3092748,-0.28954998,-0.396856,-0.6465081,-0.27641279,792.96704,790.54944,814.7253,801.02563,752.27106,-0.20166015625,0.01251220703125,0.98486328125,4.702911376953125,-3.955230712890625,0.34393310546875,1,1.0,1.0,1.0,1.0,65.00
2021-04-14 12:40:31.977,0.6224952,0.43645325,0.66244304,0.9167152,1.0288081,0.2889772,0.3268945,1.2586513,1.0033628,0.4361332,0.48501304,1.302247,0.40773204,-0.031605557,-0.0750784,0.54695934,-0.3478827,-0.39265668,-0.65601987,-0.23714459,778.86444,799.81683,795.38464,781.685,719.2308,-0.2333984375,0.0242919921875,0.9791259765625,2.938385009765625,-3.132781982421875,0.22430419921875,1,1.0,1.0,1.0,1.0,65.00
2021-04-14 12:40:32.484,0.6752999,0.47948036,0.765065,0.99320805,1.0350748,0.33899033,0.42928174,1.3092532,1.0033628,0.4361332,0.48501304,1.302247,0.43216082,0.043651477,0.020866452,0.5852425,-0.3510496,-0.3256846,-0.49632466,-0.22145449,790.9524,792.96704,787.326,787.72894,719.6337,-0.21142578125,0.0191650390625,0.98193359375,4.0972900390625,-4.717864990234375,3.70849609375,1,1.0,1.0,1.0,1.0,65.00
2021-04-14 12:40:32.984,0.77254117,0.38755384,0.5667995,0.6691929,0.79251367,0.2857315,0.39626154,0.7445041,0.89621264,0.29070255,0.46640623,1.1072874,0.307662,0.011945691,-0.0035157474,0.37286076,-0.42104936,-0.3336392,-0.45980036,-0.2301871,804.65204,806.26373,788.93774,792.1612,860.2564,-0.190673828125,0.01806640625,1.00543212890625,4.987030029296875,-10.654449462890625,-0.575714111328125,1,1.0,1.0,1.0,1.0,65.00
2021-04-14 12:40:33.475,,,,,,,,,,,,,,,,,,,,,,,,,,,,,,,,,,,,,,/muse/elements/blink
2021-04-14 12:40:33.501,1.3465611,0.30053502,0.32541174,0.90561914,0.9580886,0.12719199,0.33730483,0.5295254,0.8400763,-0.01142122,0.4658635,0.59351414,0.21581267,0.016011685,-0.07086263,0.37526593,-0.35126513,-0.42390376,-0.50878954,-0.20181341,794.17584,801.02563,792.5641,785.7143,733.73627,-0.16204833984375,0.02935791015625,0.9886474609375,2.818756103515625,-2.61688232421875,3.162689208984375,1,1.0,1.0,1.0,1.0,65.00
2021-04-14 12:40:34.005,1.5820457,0.20250426,0.5140243,1.0997555,1.1946495,0.17628421,0.3160922,0.64499253,0.8400763,0.16628732,0.43279862,0.5195154,0.3223167,0.034545474,-0.20860472,0.42311606,-0.28261775,-0.4861056,-0.6645205,-0.17442791,807.0696,784.10254,798.60803,807.47253,811.0989,-0.17523193359375,0.04052734375,0.99102783203125,7.155303955078125,-3.887939453125,3.656158447265625,1,1.0,1.0,1.0,1.0,65.00
2021-04-14 12:40:34.523,1.6972228,0.13860099,0.6235427,1.313355,1.3054651,0.2179642,0.16501282,0.7925471,0.8400763,0.18827154,0.32231826,0.49417633,0.47596297,0.10039839,-0.26238954,0.5093601,-0.040437207,-0.40971646,-0.6555949,-0.12425125,824.7985,799.81683,793.36993,806.6667,750.65936,-0.18206787109375,0.01715087890625,0.9781494140625,4.29168701171875,-3.925323486328125,3.820648193359375,1,1.0,1.0,1.0,1.0,65.00
2021-04-14 12:40:35.039,0.29699683,-0.15649067,0.6350053,0.4850881,0.58913636,0.13656718,-0.0014669598,0.24958535,0.5602091,0.22839017,-0.08185074,0.26833943,0.3919692,0.088494994,-0.24830605,0.06585208,0.059013885,-0.32838783,-0.6945294,-0.13859415,739.7802,796.99634,790.54944,761.9414,657.1795,-0.19476318359375,-0.00909423828125,0.9781494140625,3.9776611328125,-4.56085205078125,-3.4991455078125,1,1.0,1.0,1.0,1.0,65.00
2021-04-14 12:40:35.548,0.07965368,-0.19544823,0.35492662,0.28602272,0.4832491,0.113227114,-0.1797523,0.14465785,0.57157564,0.049334917,-0.2346448,0.28560105,0.2801153,0.040731426,-0.31653678,0.11031996,-0.048039693,-0.3396867,-0.7385574,-0.08727062,808.2784,801.02563,802.6374,806.26373,817.1429,-0.16058349609375,-0.00115966796875,0.98846435546875,6.093597412109375,-9.13665771484375,-0.0897216796875,1,1.0,1.0,1.0,1.0,65.00
2021-04-14 12:40:36.068,0.003603601,-0.23597802,0.104299866,0.23808213,0.4601201,0.0645741,-0.024455877,0.15417753,0.59924614,0.023319816,-0.17573312,0.5763084,0.236524,0.056052025,-0.27244264,0.07685354,0.032446977,-0.30543506,-0.70348847,-0.026193945,831.6484,803.8461,803.8461,822.381,827.2161,-0.15087890625,0.001708984375,0.9833984375,8.411407470703125,-0.336456298828125,-1.966400146484375,1,1.0,1.0,1.0,1.0,65.00
2021-04-14 12:40:36.597,-0.18608637,-0.08225541,0.13879436,0.1109928,0.3822227,0.06009885,0.06543218,0.10401569,0.55477226,0.13898574,-0.061140154,0.5763084,0.13325569,0.09899525,-0.25800022,0.057972714,0.035162356,-0.34938532,-0.59857076,-0.011985141,797.3993,793.36993,795.38464,787.72894,701.9048,-0.15399169921875,-0.00360107421875,1.00506591796875,5.031890869140625,-5.18890380859375,0.1495361328125,1,1.0,1.0,1.0,1.0,65.00
2021-04-14 12:40:37.122,-0.032673094,0.59018344,0.30084977,0.21375999,0.42816043,0.28299978,0.031171095,0.16255014,0.51788396,0.22300822,-0.016471457,0.5763084,0.1608934,0.08685311,-0.10107827,-0.022907961,0.1565133,-0.33633965,-0.5874886,0.007853851,635.42126,752.27106,826.4103,641.8681,711.1722,-0.15618896484375,0.00982666015625,0.99871826171875,3.043060302734375,-2.85614013671875,1.375732421875,1,1.0,1.0,1.0,1.0,65.00
2021-04-14 12:40:37.388,,,,,,,,,,,,,,,,,,,,,,,,,,,,,,,,,,,,,,/muse/elements/blink
2021-04-14 12:40:37.550,,,,,,,,,,,,,,,,,,,,,,,,,,,,,,,,,,,,,,/muse/elements/blink
2021-04-14 12:40:37.636,-0.011171592,0.9861405,0.677526,0.30406442,0.3650256,0.6336427,0.22999905,0.112683,0.4112571,0.5940559,0.37221017,0.40715086,0.073939756,0.007332858,-0.034781374,-0.048244257,0.12751469,-0.29711938,-0.51683563,-0.10242621,807.47253,788.5348,792.1612,806.6667,643.47986,0.04766845703125,0.00445556640625,1.00689697265625,3.6785888671875,-24.351959228515625,-2.27294921875,1,1.0,1.0,1.0,1.0,65.00
2021-04-14 12:40:38.155,-0.011171592,1.1491249,0.7913638,0.30406442,0.3650256,0.7213441,0.31252643,0.112683,0.4112571,0.61375284,0.49057797,0.40715086,0.073939756,-0.05233224,-0.032223746,-0.048244257,0.12751469,-0.25811225,-0.5367457,-0.10242621,803.0403,780.87915,792.1612,796.1905,809.0842,0.10943603515625,-0.02099609375,0.98345947265625,2.930908203125,-6.69921875,-0.067291259765625,1,1.0,1.0,1.0,1.0,65.00
2021-04-14 12:40:38.588,,,,,,,,,,,,,,,,,,,,,,,,,,,,,,,,,,,,,,/muse/elements/blink
2021-04-14 12:40:38.660,-0.011171592,1.1824309,0.812766,0.30406442,0.3650256,0.7420644,0.3573754,0.112683,0.4112571,0.6179781,0.5011762,0.40715086,0.073939756,-0.0022543091,-0.070904076,-0.048244257,0.12751469,-0.1827051,-0.5569069,-0.10242621,902.5641,812.3077,791.3553,882.8205,756.7033,0.08123779296875,-0.0391845703125,0.99481201171875,9.203948974609375,2.691650390625,10.00396728515625,1,1.0,1.0,1.0,1.0,65.00
2021-04-14 12:40:39.168,-0.011171592,1.2224989,0.99100405,0.30406442,0.3650256,0.72888464,0.3857688,0.112683,0.4112571,0.61472595,0.46189642,0.40715086,0.073939756,-0.014623522,-0.16814741,-0.048244257,0.12751469,-0.21568178,-0.60799885,-0.10242621,821.5751,810.696,794.17584,803.0403,659.59705,0.05267333984375,-0.03607177734375,1.01165771484375,7.8955078125,-8.71795654296875,-0.0897216796875,1,2.0,1.0,1.0,2.0,65.00
2021-04-14 12:40:39.485,,,,,,,,,,,,,,,,,,,,,,,,,,,,,,,,,,,,,,/muse/elements/blink
2021-04-14 12:40:39.678,-0.011171592,0.9867124,0.8440001,0.30406442,0.3650256,0.6607947,0.2826481,0.112683,0.4112571,0.40808067,0.31295732,0.40715086,0.073939756,0.11694408,-0.13766167,-0.048244257,0.12751469,-0.19444922,-0.45386845,-0.10242621,756.7033,792.96704,786.9231,775.2381,707.9487,-0.0047607421875,-0.0506591796875,1.0037841796875,5.62255859375,-4.867401123046875,4.74029541015625,1,2.0,1.0,1.0,2.0,65.00
2021-04-14 12:40:40.188,0.7784907,0.25073075,0.69433534,0.48665407,1.0497357,0.49525195,0.24121909,0.8122775,0.78348726,0.3558408,0.521629,0.6854611,0.45089886,0.03835404,-0.010685045,0.108471304,-0.15918219,-0.3344014,-0.37139714,-0.03344443,772.01465,802.23444,794.17584,796.1905,816.7399,0.0025634765625,-0.03875732421875,0.9931640625,7.955322265625,-6.258087158203125,11.177825927734375,1,1.0,1.0,1.0,1.0,65.00
2021-04-14 12:40:40.704,0.6029327,0.22695099,0.30551228,0.53257394,0.84038216,0.35496646,0.08213701,0.60128593,0.80746084,0.368044,0.5173915,0.6854611,0.32345265,-0.037792813,0.022566944,0.22038607,-0.22003396,-0.38604718,-0.38744426,-0.13260207,816.7399,804.2491,802.6374,782.0879,670.4762,0.005615234375,-0.062744140625,1.013671875,5.203857421875,-2.400054931640625,4.269256591796875,1,1.0,1.0,1.0,1.0,70.00
2021-04-14 12:40:41.230,0.6254964,0.3328026,0.10184441,0.614862,0.70379245,0.26009274,-0.11130183,0.47251886,0.80746084,0.35816148,0.52077085,0.6854611,0.33836165,-0.013319789,0.08650281,0.33355683,-0.2806644,-0.42331567,-0.4162234,-0.12091116,836.08057,790.14655,802.6374,806.6667,869.12085,-0.0018310546875,-0.02587890625,0.9998779296875,2.938385009765625,-4.957122802734375,3.656158447265625,1,1.0,1.0,1.0,1.0,70.00
2021-04-14 12:40:41.746,0.5321157,0.52632815,-0.108603574,0.59440833,0.5458589,0.28661028,-0.29197425,0.29431495,0.71948016,0.15606467,0.12530853,0.49190363,0.2122089,0.0054672686,-0.0066006794,0.39252076,-0.27409986,-0.34812525,-0.4604922,-0.1281726,784.10254,804.2491,800.6227,779.67035,702.3077,4.8828125E-4,-0.03887939453125,1.00213623046875,1.577606201171875,-5.600128173828125,2.10845947265625,1,1.0,1.0,1.0,1.0,70.00
2021-04-14 12:40:42.264,0.5751643,0.5514854,-0.008304346,0.53001595,0.5839967,0.2892348,-0.032100596,0.40895438,0.7815766,0.13269405,-0.13711606,0.60021913,0.31720507,0.041813552,-0.07711226,0.34258583,-0.27123234,-0.3044067,-0.53450555,-0.09827012,749.85345,793.36993,799.011,778.46155,761.13556,-0.03662109375,-0.0570068359375,1.00177001953125,2.58697509765625,-4.643096923828125,4.134674072265625,1,1.0,1.0,1.0,1.0,70.00
2021-04-14 12:40:42.792,0.4471233,0.45898047,0.040243424,0.37051693,0.5293707,0.24759758,-0.03496115,0.5041197,0.7815766,0.1136918,-0.12261341,0.6132307,0.2858662,-0.05748246,-0.20192927,0.3147235,-0.1499898,-0.26636907,-0.5942494,-0.09346281,799.41394,800.6227,794.57874,795.38464,834.4689,0.01739501953125,-0.030029296875,0.969970703125,2.811279296875,-5.00946044921875,2.295379638671875,1,1.0,1.0,1.0,1.0,70.00
2021-04-14 12:40:43.142,,,,,,,,,,,,,,,,,,,,,,,,,,,,,,,,,,,,,,/muse/elements/blink
2021-04-14 12:40:43.294,0.3603191,0.31540743,-0.0011905049,0.78238624,0.22589874,0.06814276,-0.023515688,0.70441693,0.58986264,0.1136918,0.08408653,1.0239359,0.35915348,-0.07202281,-0.18475236,0.33037123,-0.12098093,-0.34190342,-0.53849614,-0.05666988,838.0952,796.5934,803.8461,817.9487,735.7509,-0.0113525390625,-0.04052734375,1.0074462890625,2.87109375,-4.90478515625,2.0635986328125,1,1.0,1.0,1.0,1.0,70.00
2021-04-14 12:40:43.803,0.21260063,0.26227424,-0.08402823,1.2436776,-0.044046752,0.25068653,-0.10049304,1.0828178,-0.043295983,0.121121265,0.1758935,1.1580659,0.282096,0.006094868,-0.20472822,0.4483361,0.0016087324,-0.31710035,-0.5012746,-0.032781005,813.5165,793.36993,797.3993,781.28204,743.4066,-0.02044677734375,-0.0084228515625,1.03558349609375,5.72723388671875,-2.818756103515625,-3.30474853515625,1,1.0,1.0,1.0,1.0,70.00
2021-04-14 12:40:44.306,0.2942486,0.21317962,-0.025217708,1.274481,0.18923202,0.26666677,-0.05886356,1.0957692,0.04241834,0.1990709,0.19838624,1.1580659,0.23774235,0.051384598,-0.09873761,0.45614666,-0.07969623,-0.28807804,-0.51040995,-0.03715317,755.09155,784.10254,793.36993,766.77655,680.14655,0.00274658203125,-0.01995849609375,1.02313232421875,4.5758056640625,-2.49725341796875,4.9346923828125,1,1.0,1.0,1.0,1.0,70.00
2021-04-14 12:40:44.832,0.33219445,0.06897902,0.15023395,1.2299106,0.53965354,0.22756125,-0.029738028,1.0965092,0.2527908,0.34222844,0.19838624,1.1516577,0.2997902,0.05508817,-0.06518975,0.47988904,-0.14528617,-0.34002042,-0.5377152,-0.11097314,711.1722,794.57874,794.57874,730.10986,736.9597,-0.00189208984375,-0.01025390625,0.99005126953125,3.925323486328125,1.054229736328125,-0.590667724609375,1,1.0,1.0,1.0,1.0,70.00
2021-04-14 12:40:44.867,,,,,,,,,,,,,,,,,,,,,,,,,,,,,,,,,,,,,,/muse/elements/blink
2021-04-14 12:40:45.058,,,,,,,,,,,,,,,,,,,,,,,,,,,,,,,,,,,,,,/muse/elements/blink
2021-04-14 12:40:45.340,0.33219445,0.26107475,0.5769462,0.45026943,0.53965354,0.48958954,0.14874727,0.57670057,0.2527908,0.53231794,0.26768824,0.39178357,0.2997902,0.048494834,0.082159005,0.43010727,-0.14528617,-0.3357563,-0.5452287,-0.10980121,838.0952,803.0403,802.6374,825.2015,844.1392,-0.0809326171875,-0.052734375,1.00299072265625,1.734619140625,-1.069183349609375,2.31781005859375,1,1.0,1.0,1.0,1.0,70.00
2021-04-14 12:40:45.854,0.3095448,0.47269803,0.732125,0.6131749,0.67131734,0.5471655,0.1606183,0.7162842,0.2527908,0.5250836,0.25341743,0.34860486,0.35718447,0.032607805,0.05338784,0.48509538,-0.12904099,-0.36398718,-0.44792992,-0.11703333,842.9304,803.44324,802.23444,816.7399,705.9341,-0.051025390625,-0.09027099609375,1.00946044921875,2.46734619140625,-2.878570556640625,-6.69921875,1,1.0,1.0,1.0,1.0,70.00
2021-04-14 12:40:46.374,0.3095448,0.5382198,0.69973445,0.6131749,0.67131734,0.5568646,0.14382194,0.7162842,0.2527908,0.5992788,0.3346863,0.34860486,0.35718447,0.03167961,0.07999686,0.48509538,-0.12904099,-0.24961755,-0.3980526,-0.11703333,817.1429,790.9524,792.96704,816.7399,644.68866,-0.022216796875,-0.0450439453125,0.996337890625,3.2598876953125,-0.396270751953125,-1.256103515625,1,1.0,1.0,1.0,1.0,70.00
2021-04-14 12:40:46.902,1.6660088,0.5025579,0.3662173,0.6131749,1.2311732,0.33525845,-0.07333307,0.7162842,1.1394056,0.30405223,0.38438514,0.34860486,0.676848,0.005505642,0.004668257,0.48509538,0.032871403,-0.13325597,-0.38860095,-0.11703333,743.4066,801.02563,787.72894,778.0586,769.59705,-0.12774658203125,-0.14739990234375,0.984619140625,-6.916046142578125,-0.112152099609375,-5.764617919921875,1,1.0,1.0,1.0,1.0,70.00
2021-04-14 12:40:47.428,1.6143985,0.837202,0.5140498,0.6131749,1.1804743,0.50673616,0.097811535,0.7162842,1.1394056,0.4912059,0.44826335,0.34860486,0.6610191,0.089014076,0.04798513,0.48509538,0.019749934,-0.17431754,-0.47273734,-0.11703333,811.0989,800.6227,804.2491,792.5641,734.1392,-0.12371826171875,-0.15167236328125,0.9891357421875,5.525360107421875,-13.1292724609375,-2.773895263671875,1,1.0,1.0,1.0,1.0,70.00
2021-04-14 12:40:47.931,1.4668713,1.0943357,0.84645975,0.6131749,1.0406439,0.70180947,0.3180761,0.7162842,1.1272386,0.53269243,0.3951882,0.34860486,0.6055781,0.070126876,0.0053861896,0.48509538,0.023520928,-0.25872222,-0.45376813,-0.11703333,816.337,772.4176,808.2784,806.6667,859.0476,-0.052001953125,-0.1385498046875,0.99072265625,4.029998779296875,-2.100982666015625,2.093505859375,1,1.0,1.0,1.0,1.0,70.00
2021-04-14 12:40:48.441,1.2721965,1.1516172,0.87441236,0.6131749,1.1422877,0.69256145,0.45890963,0.7162842,1.2927494,0.7130926,0.38630095,0.34860486,0.6183472,0.0707442,-0.034435753,0.48509538,0.009629032,-0.44700727,-0.44420245,-0.11703333,930.3663,823.1868,799.81683,910.2198,695.4579,-0.128662109375,-0.15570068359375,0.97760009765625,8.830108642578125,-4.059906005859375,-1.128997802734375,1,1.0,1.0,1.0,1.0,70.00
2021-04-14 12:40:48.524,,,,,,,,,,,,,,,,,,,,,,,,,,,,,,,,,,,,,,/muse/elements/blink
2021-04-14 12:40:48.955,1.3160303,1.1353862,0.80398726,0.6131749,1.1923101,0.64351434,0.4406252,0.7162842,1.2927494,0.6950573,0.371358,0.34860486,0.62958044,0.078689374,-0.06634245,0.48509538,0.02163453,-0.41169164,-0.44835627,-0.11703333,755.89746,803.8461,792.96704,771.2088,613.2601,-0.14349365234375,-0.053466796875,0.9967041015625,9.76470947265625,-2.58697509765625,2.27294921875,1,1.0,1.0,1.0,1.0,70.00
2021-04-14 12:40:49.002,,,,,,,,,,,,,,,,,,,,,,,,,,,,,,,,,,,,,,/muse/elements/blink
2021-04-14 12:40:49.463,1.5379511,0.9798869,0.57445616,0.6131749,1.4109378,0.40481466,0.31238264,0.7162842,1.2927494,0.6914717,0.27170652,0.34860486,0.72723585,0.14610319,-0.0259421,0.48509538,0.020846654,-0.3430618,-0.5278043,-0.11703333,778.0586,791.75824,799.81683,796.99634,813.91943,-0.13922119140625,-0.0135498046875,0.99554443359375,7.4468994140625,-6.452484130859375,0.231781005859375,1,1.0,1.0,1.0,1.0,70.00
2021-04-14 12:40:49.978,1.5379511,0.917492,0.4666748,0.6131749,1.4109378,0.237183,0.07478011,0.7162842,1.2927494,0.5720801,0.11962089,0.34860486,0.72723585,0.13185628,0.020749733,0.48509538,0.020846654,-0.33880055,-0.61979556,-0.11703333,828.8278,798.20514,804.65204,809.4872,669.67035,-0.1357421875,-0.052978515625,0.988525390625,4.0673828125,-3.940277099609375,0.6280517578125,1,1.0,1.0,1.0,1.0,70.00
2021-04-14 12:40:50.503,0.27156895,0.68606985,0.3106701,0.5001577,0.9596981,0.21178354,-0.042058006,0.87733936,0.37206054,0.22857466,0.038005635,0.29058343,0.48696932,0.053471822,0.027716432,0.1417432,-0.4399835,-0.36615664,-0.6644855,-0.09235951,751.4652,788.5348,805.4579,763.5531,612.8571,-0.12103271484375,-0.0556640625,0.98516845703125,6.243133544921875,-5.301055908203125,0.037384033203125,1,1.0,1.0,1.0,1.0,70.00
2021-04-14 12:40:51.027,0.31559813,0.4868519,-0.17038035,0.54511875,0.7977679,0.22968331,-0.072832115,0.6990829,0.52838653,0.18755889,0.016945563,0.45546386,0.36851034,0.052895706,0.011651209,0.186754,-0.5012728,-0.3251025,-0.63618404,-0.082546055,782.0879,790.9524,792.5641,786.9231,660.40295,-0.11260986328125,-0.03448486328125,0.99700927734375,4.59075927734375,-4.149627685546875,1.308441162109375,1,1.0,1.0,1.0,1.0,70.00
2021-04-14 12:40:51.532,0.22560072,0.11766419,-0.53377414,0.45990214,0.70684314,0.21538964,-0.14375797,0.62917405,0.54123485,0.023971139,0.00955559,0.5379558,0.37608984,0.0927826,-0.034869246,0.31793785,-0.4809402,-0.35682747,-0.51100266,-0.12500831,751.8681,794.17584,794.57874,779.2674,681.3553,-0.1334228515625,-0.03759765625,0.99542236328125,4.104766845703125,-1.487884521484375,0.64300537109375,1,1.0,1.0,1.0,1.0,70.00
2021-04-14 12:40:52.044,0.18401234,0.043107875,-0.51751524,0.44271404,0.4845567,0.049483333,-0.17897317,0.36336982,0.5481915,0.13535935,-0.0033216218,0.47767988,0.29515246,0.20143954,7.068596E-4,0.3312636,-0.42460987,-0.3705983,-0.4148067,-0.18836387,813.91943,802.6374,809.0842,813.91943,827.2161,-0.142822265625,-0.0406494140625,0.99169921875,4.366455078125,-5.62255859375,0.538330078125,1,1.0,1.0,1.0,1.0,70.00
2021-04-14 12:40:52.564,0.03406143,-0.04517615,-0.6851721,0.26664978,0.32460287,-0.27015936,-0.42532116,0.17721978,0.5615028,0.010807519,-0.03297137,0.4459196,0.31755358,0.24858794,-0.020403605,0.29197282,-0.34671798,-0.4257358,-0.3379624,-0.18640266,774.43225,786.9231,801.4286,782.8938,783.69965,-0.13232421875,-0.05072021484375,0.99481201171875,3.99261474609375,-4.209442138671875,0.91217041015625,1,1.0,1.0,1.0,1.0,70.00
2021-04-14 12:40:53.071,0.27118295,0.20781423,-0.15310289,0.24274325,0.32811,-0.05496617,-0.2745259,-0.0754637,0.5267982,0.3785278,0.1320828,0.26003155,0.27621573,0.23029777,-0.06403204,0.14094661,-0.3288624,-0.47510752,-0.33723083,-0.17937066,830.0366,800.2198,813.1135,818.3516,673.69965,-0.145263671875,-0.0543212890625,0.9888916015625,5.480499267578125,-3.22998046875,1.18133544921875,1,1.0,1.0,1.0,1.0,70.00
2021-04-14 12:40:53.573,0.65401125,0.7216647,0.36222813,0.25818336,0.46928632,0.3573585,-0.015889168,0.07787062,0.68867177,0.46131483,0.24004878,0.41407743,0.34185076,0.18631604,-0.11296945,0.21946056,-0.34539992,-0.33862293,-0.35571894,-0.19761002,819.15753,790.14655,804.2491,809.4872,870.32965,-0.151123046875,-0.04302978515625,0.99481201171875,4.807586669921875,-4.463653564453125,1.07666015625,1,1.0,1.0,1.0,1.0,70.00
2021-04-14 12:40:54.105,0.7662218,0.8429972,0.53856915,0.41485906,0.60271096,0.5004302,0.08955571,0.37782824,0.6933259,0.5282341,0.2700438,0.5277298,0.27654868,0.09099293,-0.065728456,0.27603242,-0.39397517,-0.3354486,-0.4727065,-0.26441032,820.7692,794.17584,805.05493,797.3993,882.4176,-0.13665771484375,-0.043212890625,0.99652099609375,4.0673828125,-4.478607177734375,0.620574951171875,1,1.0,1.0,1.0,1.0,70.00
2021-04-14 12:40:54.614,0.7325796,0.8209715,0.54769784,0.48819298,0.72412586,0.5016359,0.055014472,0.6049782,0.6943949,0.5282341,0.2700438,0.53712773,0.24599603,0.046221454,-0.03241792,0.31390035,-0.43208557,-0.2896621,-0.57394123,-0.2666101,810.293,798.60803,802.6374,779.67035,676.52014,-0.157470703125,-0.047119140625,0.9884033203125,3.656158447265625,-3.00567626953125,1.039276123046875,1,1.0,1.0,1.0,1.0,70.00
2021-04-14 12:40:55.118,0.2524948,0.23142144,0.20284325,0.38842955,0.8773796,0.34436694,-0.020010563,0.8219056,0.6163374,0.372452,0.10137126,0.7294293,0.055083033,-0.024344277,-0.05231836,0.2834856,-0.44932768,-0.29993325,-0.66919166,-0.080112666,840.10986,796.5934,800.6227,817.5458,937.619,-0.12652587890625,-0.08648681640625,0.9959716796875,-0.097198486328125,-8.314208984375,9.7198486328125,1,1.0,1.0,1.0,1.0,70.00
2021-04-14 12:40:55.635,-0.024890846,-0.08792503,0.035167895,0.25087735,0.8581409,0.25628644,-0.020111142,0.77380395,0.67894083,-0.19880606,-0.10195951,0.69307667,0.07458394,-0.06896169,-0.09310487,0.26619527,-0.4618088,-0.23861931,-0.5827894,-0.059177656,796.1905,803.0403,792.96704,799.41394,728.9011,-0.14630126953125,-0.08392333984375,0.98040771484375,6.14593505859375,-15.349884033203125,6.990814208984375,1,1.0,1.0,1.0,1.0,70.00
2021-04-14 12:40:56.152,1.2477925,0.29305932,0.17080502,0.89198726,1.1955723,0.23425505,0.14195006,1.0393791,1.14509,0.18519066,0.031853743,1.2957557,0.13503884,-0.049757417,-0.05351839,0.35712934,-0.4389155,-0.28007534,-0.53081346,0.0036707078,749.85345,805.4579,798.20514,777.6557,689.41394,-0.09539794921875,-0.0010986328125,1.04266357421875,13.420867919921875,-0.485992431640625,-9.637603759765625,1,1.0,1.0,1.0,1.0,70.00
2021-04-14 12:40:56.674,1.3976711,0.8294186,0.27848446,1.2659283,1.2621813,0.3367824,0.22168449,1.199166,1.1788708,0.3055456,0.33961067,1.315948,0.17793511,0.01121355,-0.06981798,0.5050541,-0.46673763,-0.37656337,-0.5538532,-0.12338189,821.1722,865.09155,790.9524,809.0842,706.337,-0.06951904296875,0.15618896484375,0.9908447265625,6.901092529296875,-8.194580078125,-0.994415283203125,1,1.0,1.0,1.0,1.0,70.00
2021-04-14 12:40:57.195,1.5976051,0.98692787,0.56409574,1.4228467,1.3739094,0.46645766,0.33308715,1.2861698,1.184261,0.3055456,0.5636477,1.315948,0.30492333,0.077187285,-0.017708644,0.645445,-0.20160457,-0.45595178,-0.66835684,0.13524528,783.69965,778.46155,807.47253,805.4579,704.7253,0.0277099609375,0.0439453125,0.95001220703125,-0.88226318359375,-14.557342529296875,16.845245361328125,1,1.0,1.0,1.0,1.0,70.00
2021-04-14 12:40:57.703,1.4121677,1.2386522,0.5851529,1.2730031,1.115351,0.65362966,0.3043368,1.1018068,1.1133037,0.28158537,0.5630006,1.2102848,0.33449516,0.17689365,0.0024229076,0.5673588,-0.10445199,-0.5461441,-0.6335917,0.09193427,659.59705,803.8461,828.022,761.53845,706.7399,0.01409912109375,0.082275390625,1.0081787109375,-0.58319091796875,-6.018829345703125,16.905059814453125,1,1.0,1.0,1.0,1.0,70.00
2021-04-14 12:40:58.208,1.4475771,1.2386522,1.129359,1.3052725,1.0438919,0.65362966,0.6765607,0.9925846,0.8727526,0.28158537,0.55258,0.85833895,0.40282786,0.17689365,0.048115365,0.52941024,0.00946854,-0.5461441,-0.5009289,0.11132799,778.86444,786.9231,790.54944,796.5934,837.6923,-0.0074462890625,0.0404052734375,1.01153564453125,4.85992431640625,-2.88604736328125,12.299346923828125,1,1.0,1.0,1.0,1.0,70.00
2021-04-14 12:40:58.696,,,,,,,,,,,,,,,,,,,,,,,,,,,,,,,,,,,,,,/muse/elements/blink
2021-04-14 12:40:58.724,1.3057815,1.2386522,1.2397203,1.3458132,1.0615765,0.65362966,0.7832,1.0706292,0.81839114,0.28158537,0.27513042,0.8424754,0.28194693,0.17689365,0.05543136,0.51938754,-0.16248538,-0.5461441,-0.40708297,-0.054022536,919.4872,801.02563,793.36993,855.0183,731.31866,-5.4931640625E-4,0.0948486328125,0.98529052734375,14.5648193359375,-2.086029052734375,-19.880828857421875,1,1.0,1.0,1.0,1.0,70.00
2021-04-14 12:40:59.226,1.3057815,1.2386522,1.6920834,1.5202957,1.0615765,0.65362966,0.97222704,1.1445144,0.81839114,0.28158537,0.5030139,0.8424754,0.28194693,0.17689365,-0.032234535,0.55278903,-0.16248538,-0.5461441,-0.4010944,-0.18536718,802.23444,776.8498,798.20514,805.05493,724.87177,-0.13623046875,0.13250732421875,0.9996337890625,3.00567626953125,-0.859832763671875,2.145843505859375,1,1.0,1.0,1.0,1.0,70.00
2021-04-14 12:40:59.749,1.3057815,1.2386522,1.6175437,1.5202957,1.0615765,0.65362966,0.5650022,1.1445144,0.81839114,0.28158537,0.55968183,0.8424754,0.28194693,0.17689365,0.123199746,0.55278903,-0.16248538,-0.5461441,-0.39379102,-0.18536718,720.4396,808.2784,770.0,778.0586,664.0293,-0.17437744140625,0.1090087890625,0.98846435546875,10.108642578125,-7.237548828125,2.863616943359375,1,1.0,1.0,1.0,1.0,70.00
2021-04-14 12:41:00.255,1.3057815,0.95485455,1.4200721,1.5202957,1.0615765,0.85573745,0.4530367,1.1445144,0.81839114,0.75200254,0.578689,0.8424754,0.28194693,0.064067855,0.041730613,0.55278903,-0.16248538,-0.53737646,-0.42283502,-0.18536718,771.6117,780.4762,794.57874,784.90845,736.55676,0.159423828125,0.12091064453125,0.982177734375,1.532745361328125,-11.716156005859375,-5.106658935546875,1,1.0,1.0,1.0,1.0,70.00
2021-04-14 12:41:00.780,1.3057815,0.95485455,1.0699785,1.5202957,1.0615765,0.85573745,0.30504817,1.1445144,0.81839114,0.75200254,0.45453015,0.8424754,0.28194693,0.064067855,-0.03654564,0.55278903,-0.16248538,-0.53737646,-0.39227915,-0.18536718,830.4396,787.326,792.1612,819.15753,959.3773,0.220703125,0.14569091796875,0.96881103515625,4.7552490234375,-3.94775390625,6.57958984375,1,2.0,1.0,1.0,2.0,70.00
2021-04-14 12:41:01.210,,,,,,,,,,,,,,,,,,,,,,,,,,,,,,,,,,,,,,/muse/elements/blink
2021-04-14 12:41:01.294,1.3057815,0.95699984,1.0414461,1.5202957,1.0615765,0.9413158,0.29000062,1.1445144,0.81839114,0.66029865,0.44872534,0.8424754,0.28194693,0.031798337,-0.16465293,0.55278903,-0.16248538,-0.5885957,-0.46930143,-0.18536718,918.68134,820.3663,796.99634,908.60803,704.7253,0.120849609375,0.1026611328125,0.978271484375,-0.79254150390625,16.845245361328125,10.250701904296875,1,2.0,1.0,1.0,2.0,65.00
2021-04-14 12:41:01.800,1.3057815,0.95468706,1.0382583,1.5202957,1.0615765,1.0050137,0.28398672,1.1445144,0.81839114,0.6066684,0.11182765,0.8424754,0.28194693,0.020622374,-0.22927025,0.55278903,-0.16248538,-0.5860103,-0.4771795,-0.18536718,829.2308,827.2161,788.5348,811.9048,675.7143,-0.0164794921875,0.1058349609375,1.0089111328125,5.5926513671875,-0.171966552734375,-2.534637451171875,1,2.0,1.0,1.0,2.0,65.00
2021-04-14 12:41:02.314,1.3057815,0.95468706,0.8023096,1.5202957,1.0615765,1.0050137,0.24149238,1.1445144,0.81839114,0.6066684,0.05952354,0.8424754,0.28194693,0.020622374,-0.16732362,0.55278903,-0.16248538,-0.5860103,-0.6078037,-0.18536718,758.71796,782.49084,801.4286,790.14655,738.97437,0.09234619140625,0.0926513671875,0.97259521484375,9.28619384765625,-7.43194580078125,3.028106689453125,1,2.0,1.0,1.0,2.0,65.00
2021-04-14 12:41:02.839,1.3057815,0.95468706,1.1486923,1.5202957,1.0615765,1.0050137,0.71945924,1.1445144,0.81839114,0.6066684,0.40934214,0.8424754,0.28194693,0.020622374,-0.06099865,0.55278903,-0.16248538,-0.5860103,-0.40193817,-0.18536718,841.31866,803.44324,803.0403,811.50183,744.21246,0.00732421875,0.129150390625,0.9329833984375,11.910552978515625,-7.574005126953125,3.192596435546875,1,2.0,1.0,1.0,2.0,65.00
2021-04-14 12:41:03.360,1.3057815,0.7145062,0.8995407,1.542855,1.0615765,0.48507532,0.5000482,1.3374367,0.81839114,0.14030653,0.40934214,1.1390786,0.28194693,0.136195,-0.03750642,0.4585042,-0.16248538,-0.17481308,-0.41833934,-0.01066304,820.7692,784.90845,804.65204,804.2491,831.6484,-0.07049560546875,0.00860595703125,0.96893310546875,-13.876953125,-1.71966552734375,5.166473388671875,1,1.0,1.0,1.0,1.0,65.00
2021-04-14 12:41:03.437,,,,,,,,,,,,,,,,,,,,,,,,,,,,,,,,,,,,,,/muse/elements/blink
2021-04-14 12:41:03.872,1.3057815,0.9908794,0.9010818,1.542855,1.0615765,0.40916047,0.53198016,1.3374367,0.81839114,0.65188134,0.6796715,1.1390786,0.28194693,0.12069139,-0.014651924,0.4585042,-0.16248538,-0.21514931,-0.45622212,-0.01066304,811.9048,786.9231,795.38464,797.8022,752.27106,0.00250244140625,-0.037841796875,0.97576904296875,4.762725830078125,-9.390869140625,-8.5833740234375,1,1.0,1.0,1.0,1.0,65.00
2021-04-14 12:41:04.381,1.3057815,1.0242945,0.82621384,1.586669,1.0615765,0.49344453,0.5225742,1.3951718,0.81839114,0.65188134,0.6629609,1.1390786,0.28194693,0.18454123,-0.031068947,0.40844232,-0.16248538,-0.24972123,-0.58300275,0.008711481,769.59705,794.9817,808.2784,788.5348,656.77655,-0.044189453125,0.00714111328125,1.0035400390625,4.299163818359375,-5.061798095703125,0.0299072265625,1,1.0,1.0,1.0,1.0,65.00
2021-04-14 12:41:04.883,1.1619965,0.9632259,0.8519059,1.1365943,0.46643338,0.41975763,0.522074,0.7039045,0.36578935,0.65188134,0.6620575,0.52486277,0.34373516,0.2440293,-0.028682644,0.39237723,-0.276659,-0.41478813,-0.7116296,-0.25354776,763.5531,784.90845,801.02563,784.90845,790.14655,-0.09149169921875,0.0592041015625,1.0447998046875,7.49176025390625,-4.5458984375,-5.66741943359375,1,1.0,1.0,1.0,1.0,65.00
2021-04-14 12:41:05.406,0.96327835,0.62173665,0.63737094,0.99281824,0.37217423,0.3157052,0.29217976,0.46118188,0.47928575,0.35045964,0.55725306,0.59119207,0.30324206,0.24264562,-0.10233476,0.3638122,-0.40358838,-0.35482422,-0.783237,-0.17656296,811.9048,789.34064,804.65204,801.4286,773.22345,0.01348876953125,0.0364990234375,1.00225830078125,7.10296630859375,-10.863800048828125,0.186920166015625,1,1.0,1.0,1.0,1.0,65.00
2021-04-14 12:41:05.922,0.8520864,0.46767977,0.17210367,0.8826432,0.3492512,0.13845453,-0.036999635,0.3492088,0.47928575,0.2477219,-0.018001243,0.59119207,0.2322934,0.13828819,-0.17062569,0.3113377,-0.34536245,-0.33069924,-0.6927138,-0.095805496,802.6374,764.7619,824.3956,788.5348,819.15753,0.01849365234375,0.037109375,1.0096435546875,6.302947998046875,-6.646881103515625,4.5758056640625,1,1.0,1.0,1.0,1.0,65.00
2021-04-14 12:41:06.383,,,,,,,,,,,,,,,,,,,,,,,,,,,,,,,,,,,,,,/muse/elements/blink
2021-04-14 12:41:06.431,0.670525,0.71347183,0.34208074,0.70275635,0.33064803,0.11084499,0.072464004,0.07840833,0.46991634,0.5392172,0.10021084,0.5350612,0.15104872,0.073924355,-0.08791691,0.24645124,-0.36173043,-0.35055846,-0.58840334,-0.05625081,801.8315,804.2491,807.0696,800.6227,778.46155,-0.00213623046875,0.07928466796875,1.0096435546875,2.16827392578125,-7.828216552734375,3.611297607421875,1,1.0,1.0,1.0,1.0,65.00
2021-04-14 12:41:06.943,1.1806067,0.939585,0.6035915,1.1865735,1.0907154,0.4307972,0.33770844,1.0668517,1.4053241,0.69081235,0.27225015,1.288473,0.3038446,0.14827365,0.08767492,0.47562742,-0.24231344,-0.45207956,-0.5366468,-0.012327626,813.1135,795.78754,794.9817,796.5934,690.6227,-0.05438232421875,0.06793212890625,1.00738525390625,3.656158447265625,0.142059326171875,7.3870849609375,1,1.0,1.0,1.0,1.0,65.00
2021-04-14 12:41:07.449,1.4753957,0.92529136,0.6260608,1.3999784,1.4014978,0.45481327,0.36423525,1.3119205,1.4053241,0.6892308,0.29437858,1.288473,0.48811534,0.16948205,0.11866386,0.6200277,-0.22471344,-0.51805836,-0.4761902,-0.04118803,744.21246,796.99634,784.5055,743.00366,794.9817,-0.10528564453125,0.04876708984375,1.00604248046875,5.62255859375,-3.78326416015625,4.762725830078125,1,1.0,1.0,1.0,1.0,65.00
2021-04-14 12:41:07.960,1.5606599,0.78849405,0.49886715,1.5240862,1.575509,0.4295141,0.31742933,1.485053,1.4125766,0.7039522,0.35073188,1.3237371,0.74487865,0.1538786,0.049566936,0.8335699,-0.25036028,-0.42827746,-0.46889928,0.10212107,805.4579,801.8315,794.57874,795.78754,667.25275,-0.1080322265625,0.05828857421875,1.00421142578125,8.007659912109375,-1.712188720703125,-1.4056396484375,1,1.0,1.0,1.0,1.0,65.00
2021-04-14 12:41:08.469,1.222433,0.4558326,0.11676812,1.3786409,1.2119596,0.114512816,0.036089625,1.2698809,1.2096066,0.5214826,0.14287522,1.1265751,0.52434754,0.08398903,-0.09390313,0.76853824,-0.32639033,-0.34779593,-0.47406313,0.17116314,750.2564,800.2198,799.41394,778.0586,648.315,-0.0927734375,0.07061767578125,0.9957275390625,2.7813720703125,-6.781463623046875,1.996307373046875,1,1.0,1.0,1.0,1.0,65.00
2021-04-14 12:41:08.981,1.0314858,0.31098264,-0.09919506,1.2279391,1.0144737,0.034368027,-0.15208246,1.1244485,1.2096066,0.26681778,0.10969409,1.1265751,0.4215618,0.06675237,-0.10825776,0.67362434,-0.3248888,-0.3769774,-0.5058226,0.13897963,786.1172,794.9817,793.7729,792.1612,778.46155,-0.09173583984375,0.06707763671875,1.00048828125,4.284210205078125,-5.00946044921875,0.70281982421875,1,1.0,1.0,1.0,1.0,65.00
2021-04-14 12:41:09.486,0.7888922,0.33734956,0.30109575,0.9428658,0.53254086,-0.09112643,-0.10969918,0.6678135,1.0034614,0.12223021,-0.049129605,0.9658074,0.21977016,0.07795236,-0.0886781,0.43873668,-0.2912646,-0.40864038,-0.52944744,0.06917868,846.1539,787.72894,813.91943,832.4542,812.3077,-0.08770751953125,0.05462646484375,1.009765625,2.930908203125,-8.56842041015625,10.45257568359375,1,1.0,1.0,1.0,1.0,65.00
2021-04-14 12:41:10.008,1.0625241,0.73949105,1.0202669,-0.18713881,0.80845505,0.20255199,0.6932156,0.05809255,0.81122255,0.1808015,0.22992194,0.11159854,0.22638004,-0.007843496,-0.065272585,0.24075323,-0.25701153,-0.49940893,-0.52674687,0.009943976,852.1978,799.41394,803.44324,823.1868,753.8828,-0.0430908203125,0.0074462890625,0.98333740234375,-4.658050537109375,0.7476806640625,15.013427734375,1,1.0,1.0,1.0,1.0,65.00
2021-04-14 12:41:10.533,1.1442364,0.7671883,1.1233455,0.7275422,0.8651471,0.19378237,0.7958731,0.4522072,0.9401176,0.1545821,0.22795904,0.48741108,0.46367526,-0.048613194,0.042758036,0.35103604,0.020425444,-0.42546505,-0.475602,-0.027173003,776.8498,841.7216,737.3626,747.8388,638.24176,-0.08941650390625,0.00146484375,0.99127197265625,4.7552490234375,-10.15350341796875,-13.35357666015625,1,1.0,1.0,1.0,1.0,65.00
2021-04-14 12:41:10.737,,,,,,,,,,,,,,,,,,,,,,,,,,,,,,,,,,,,,,/muse/elements/blink
2021-04-14 12:41:11.060,1.2588867,0.8073343,1.206241,1.1602641,1.0148071,0.28576565,0.9083046,0.89036226,0.9883168,0.22315527,0.23094735,0.95123947,0.5886157,-0.09425128,0.113256045,0.5059315,0.1677466,-0.41403162,-0.45393154,0.1400312,767.1795,796.5934,797.8022,797.8022,695.8608,-0.00787353515625,0.01025390625,0.99578857421875,9.61517333984375,-4.912261962890625,-18.28826904296875,1,1.0,1.0,1.0,1.0,65.00
2021-04-14 12:41:11.585,1.2976831,0.26551074,0.88153666,1.2091599,1.0689257,-0.08521832,0.5925906,0.99583083,1.0801148,0.13584489,-0.1041217,0.97282034,0.5777334,-0.104331575,0.20405482,0.48374057,0.20545986,-0.37062627,-0.36524698,0.1333412,804.2491,788.93774,798.60803,802.23444,758.315,0.0499267578125,0.0516357421875,1.00128173828125,2.52716064453125,-7.005767822265625,-9.25628662109375,1,1.0,1.0,1.0,1.0,65.00
