TimeStamp,Delta_TP9,Delta_AF7,Delta_AF8,Delta_TP10,Theta_TP9,Theta_AF7,Theta_AF8,Theta_TP10,Alpha_TP9,Alpha_AF7,Alpha_AF8,Alpha_TP10,Beta_TP9,Beta_AF7,Beta_AF8,Beta_TP10,Gamma_TP9,Gamma_AF7,Gamma_AF8,Gamma_TP10,RAW_TP9,RAW_AF7,RAW_AF8,RAW_TP10,AUX_RIGHT,Accelerometer_X,Accelerometer_Y,Accelerometer_Z,Gyro_X,Gyro_Y,Gyro_Z,HeadBandOn,HSI_TP9,HSI_AF7,HSI_AF8,HSI_TP10,Battery,Elements
2021-04-04 11:24:50.457,0.74983215,0.9724789,0.18093532,0.7459842,0.757791,0.50044197,-0.21750954,0.57496583,1.1079127,0.8268893,0.0634729,0.8736668,0.49280107,0.27849704,0.037495952,0.80591184,0.30808303,-0.12999609,-0.44216818,0.75301135,872.74725,820.3663,790.9524,776.4469,670.87915,0.278076171875,-0.00994873046875,0.9671630859375,4.65057373046875,-4.628143310546875,0.34393310546875,1,1.0,1.0,1.0,1.0,100.00
2021-04-04 11:24:50.977,0.65509266,0.7640759,-0.04819507,0.6110063,0.6728624,0.37218127,-0.08677781,0.42801583,1.1306947,0.8195717,0.09731184,0.82739234,0.35977852,0.25004247,0.010664223,0.9105084,0.30128294,-0.15466622,-0.5437344,0.84653014,883.22345,806.26373,801.8315,839.707,817.9487,0.26763916015625,-0.00860595703125,0.96343994140625,4.254302978515625,-5.959014892578125,1.435546875,1,1.0,1.0,1.0,1.0,100.00
2021-04-04 11:24:51.500,0.28673324,0.5002913,0.14309865,0.25235707,0.45235285,0.1333625,0.025958104,0.36744735,0.96494323,0.5363977,0.19295768,0.78978014,0.37534305,0.17602476,-0.04583653,0.9417986,0.2061014,-0.14816463,-0.5090797,0.9134517,745.82416,794.9817,803.44324,821.5751,888.46155,0.28448486328125,-0.01617431640625,0.966796875,4.78515625,-4.897308349609375,0.037384033203125,1,1.0,1.0,1.0,1.0,100.00
2021-04-04 11:24:52.014,0.2953528,0.3244719,0.20193204,0.39329857,0.1747518,0.0784889,0.08900667,0.3278388,0.94155854,0.3592274,0.20939381,0.7501475,0.45844713,0.19547771,-0.037794627,0.9085272,0.26762235,-0.008166308,-0.46570754,0.97870487,790.54944,821.978,779.67035,810.293,633.4066,0.27484130859375,-3.0517578125E-4,0.97039794921875,8.73291015625,15.364837646484375,-17.787322998046875,1,1.0,1.0,1.0,1.0,100.00
2021-04-04 11:24:52.525,0.43376884,0.6795489,0.28756908,0.47308058,0.27978313,0.5440633,0.115848966,0.35289416,1.0306634,0.8947133,0.20939381,0.7586656,0.5022661,0.1601461,0.00670667,0.87157357,0.19566664,0.027250284,-0.42518374,0.9641363,831.6484,813.5165,788.93774,839.304,823.5897,0.04840087890625,-0.01971435546875,0.9854736328125,8.8824462890625,5.81695556640625,-70.62591552734375,1,1.0,1.0,1.0,1.0,100.00
2021-04-04 11:24:53.045,0.8550422,0.7459942,0.1637394,1.0602832,0.70232034,0.67455024,0.10111684,0.8507608,1.0616332,0.8947133,0.16542234,0.88082504,0.5435412,0.14099503,0.08506959,0.8063887,0.2571548,0.065285005,-0.47382066,0.85281026,726.08057,710.7692,717.619,742.1978,748.24176,-0.15679931640625,0.1236572265625,0.958984375,1.86920166015625,-9.024505615234375,-9.989013671875,1,1.0,1.0,1.0,1.0,100.00
2021-04-04 11:24:53.576,1.0127769,0.9719232,0.1637394,1.3386618,0.9065961,0.9159912,0.10111684,1.1396093,1.0616332,0.8947133,0.16542234,0.8598705,0.60485935,0.17297453,0.08506959,0.82172596,0.23484105,0.08023105,-0.47382066,0.6335304,708.3516,800.6227,835.2747,716.4103,702.3077,-0.052978515625,0.0799560546875,0.99945068359375,-2.250518798828125,0.3887939453125,4.209442138671875,1,1.0,1.0,1.0,1.0,100.00
2021-04-04 11:24:53.707,,,,,,,,,,,,,,,,,,,,,,,,,,,,,,,,,,,,,,/muse/elements/blink
2021-04-04 11:24:54.098,1.2095282,1.0020515,0.1637394,1.3386618,1.1132421,0.97450304,0.10111684,1.1396093,1.0182974,0.8947133,0.16542234,0.8598705,0.70595115,0.19468768,0.08506959,0.82172596,0.33103955,0.11513444,-0.47382066,0.6335304,811.9048,782.8938,788.93774,811.0989,675.31134,-0.25146484375,0.10406494140625,0.94671630859375,6.68426513671875,3.955230712890625,2.1832275390625,1,1.0,1.0,1.0,1.0,100.00
2021-04-04 11:24:54.599,1.2095282,1.0020515,0.1637394,1.3386618,1.1132421,0.97450304,0.10111684,1.1396093,1.0182974,0.8947133,0.16542234,0.8598705,0.70595115,0.19468768,0.08506959,0.82172596,0.33103955,0.11513444,-0.47382066,0.6335304,809.0842,768.7912,778.86444,784.10254,694.2491,-0.282470703125,0.0325927734375,0.96685791015625,4.366455078125,-4.9945068359375,7.304840087890625,1,1.0,1.0,1.0,1.0,100.00
2021-04-04 11:24:54.952,,,,,,,,,,,,,,,,,,,,,,,,,,,,,,,,,,,,,,/muse/elements/blink
2021-04-04 11:24:55.104,1.2095282,1.0020515,0.1637394,1.3386618,1.1132421,0.97450304,0.10111684,1.1396093,1.0182974,0.8947133,0.16542234,0.8598705,0.70595115,0.19468768,0.08506959,0.82172596,0.33103955,0.11513444,-0.47382066,0.6335304,790.54944,784.10254,826.8132,782.8938,778.86444,-0.15948486328125,0.08685302734375,0.99267578125,8.25439453125,-4.224395751953125,9.70489501953125,1,1.0,1.0,1.0,1.0,100.00
2021-04-04 11:24:55.327,,,,,,,,,,,,,,,,,,,,,,,,,,,,,,,,,,,,,,/muse/elements/blink
2021-04-04 11:24:55.632,1.2095282,1.0020515,0.1637394,1.3386618,1.1132421,0.97450304,0.10111684,1.1396093,1.0182974,0.8947133,0.16542234,0.8598705,0.70595115,0.19468768,0.08506959,0.82172596,0.33103955,0.11513444,-0.47382066,0.6335304,804.65204,788.1319,775.64105,799.81683,780.87915,-0.23516845703125,0.04803466796875,0.98004150390625,4.6954345703125,0.70281982421875,-1.6748046875,1,2.0,1.0,1.0,2.0,100.00
2021-04-04 11:24:56.133,1.2095282,1.1019055,0.1637394,1.3386618,1.1132421,0.99356407,0.10111684,1.1396093,1.0182974,0.80172783,0.16542234,0.8598705,0.70595115,0.43548304,0.08506959,0.82172596,0.33103955,0.05532447,-0.47382066,0.6335304,808.2784,779.2674,770.40295,803.0403,728.49817,-0.2679443359375,0.06072998046875,0.96209716796875,5.48797607421875,-5.659942626953125,1.614990234375,1,2.0,1.0,1.0,2.0,100.00
2021-04-04 11:24:56.650,1.2095282,0.9232911,0.1637394,1.3386618,1.1132421,0.79849964,0.10111684,1.1396093,1.0182974,0.80172783,0.16542234,0.8598705,0.70595115,0.36892158,0.08506959,0.82172596,0.33103955,-0.06291853,-0.47382066,0.6335304,828.8278,795.38464,810.696,819.9634,805.05493,-0.2491455078125,0.0716552734375,0.9765625,4.5159912109375,-6.646881103515625,1.854248046875,1,2.0,1.0,1.0,2.0,100.00
2021-04-04 11:24:57.164,0.74192184,0.8627372,0.1637394,0.46687347,0.53199106,0.60772496,0.10111684,0.17351854,0.65190965,0.6809683,0.16542234,0.51576847,0.30977902,0.3127786,0.08506959,0.856327,0.11329658,-0.10634746,-0.47382066,0.5105896,826.8132,806.26373,799.81683,807.8755,792.5641,-0.24273681640625,0.0645751953125,0.9722900390625,4.613189697265625,-4.29168701171875,1.5252685546875,1,1.0,1.0,1.0,1.0,100.00
2021-04-04 11:24:57.605,,,,,,,,,,,,,,,,,,,,,,,,,,,,,,,,,,,,,,/muse/elements/blink
2021-04-04 11:24:57.670,0.7931763,0.75992244,0.6085045,0.46687347,0.50966847,0.34497657,-0.15290742,0.17351854,0.8240545,0.49866226,-0.038574226,0.51576847,0.3125509,0.31508213,-0.0010024359,0.856327,0.024974175,-0.20878933,0.008178046,0.5105896,793.36993,799.011,787.326,784.90845,680.9524,-0.25299072265625,0.0750732421875,0.97235107421875,5.630035400390625,-3.54400634765625,2.73651123046875,1,1.0,1.0,1.0,1.0,100.00
2021-04-04 11:24:58.197,0.8433665,0.75341934,0.58589137,0.6998597,0.57651585,0.22851239,-0.21847287,0.6274257,1.0061367,0.4721115,0.13281858,0.7173392,0.5418367,0.3516506,0.046731446,0.9364767,0.057088703,-0.17853196,-0.043375663,0.53020895,803.8461,778.46155,799.41394,808.68134,759.92676,-0.24761962890625,0.07684326171875,0.97027587890625,4.97955322265625,-3.12530517578125,1.83929443359375,1,1.0,1.0,1.0,1.0,100.00
2021-04-04 11:24:58.721,1.043695,0.811414,0.90963477,0.8495193,0.5613881,0.19518791,0.0073675066,0.8357069,0.99127865,0.47021213,0.31015277,0.7120832,0.58724314,0.39422143,0.12931462,0.98070884,-0.019874023,-0.2315378,-2.1103233E-4,0.5805739,845.34796,816.7399,780.07324,816.337,774.83514,-0.26934814453125,0.06988525390625,0.96112060546875,3.4991455078125,-4.65057373046875,-3.54400634765625,1,1.0,1.0,1.0,1.0,100.00
2021-04-04 11:24:59.223,1.2144315,0.92053396,1.0156875,0.9101212,0.6824944,0.3595184,0.15437686,0.9224529,1.0003303,0.44143248,0.37911892,0.67799324,0.69678694,0.43144447,0.2078196,1.0343529,0.035319336,-0.010555999,-0.032343812,0.55807,803.8461,800.6227,796.1905,805.05493,806.26373,-0.2830810546875,0.04742431640625,0.96002197265625,9.21142578125,0.755157470703125,-9.398345947265625,1,1.0,1.0,1.0,1.0,100.00
2021-04-04 11:24:59.742,1.3532902,1.0443528,1.0740002,0.9101212,0.71148366,0.4552343,0.36855718,0.9224529,0.83300406,0.34218508,0.34684378,0.67799324,0.6286483,0.44559,0.27273571,1.0343529,-0.040978674,0.04762557,-0.08667132,0.55807,703.5165,726.4835,772.01465,731.31866,733.3333,-0.29876708984375,0.04986572265625,0.95599365234375,3.835601806640625,-3.63372802734375,1.697235107421875,1,1.0,1.0,1.0,1.0,100.00
2021-04-04 11:25:00.253,1.4547688,1.022293,0.9057056,0.9101212,0.82228845,0.5623642,0.36934587,0.9224529,0.83300406,0.31960985,0.26539847,0.67799324,0.7029524,0.4959948,0.26735032,1.0343529,-0.057694394,0.2073763,-0.17883444,0.55807,781.28204,790.14655,798.20514,819.9634,672.8938,-0.30584716796875,0.0440673828125,0.96038818359375,2.833709716796875,-5.66741943359375,3.66363525390625,1,1.0,1.0,1.0,1.0,100.00
2021-04-04 11:25:00.759,1.4547688,1.0965344,0.8988498,0.9101212,0.82228845,0.6035727,0.37091625,0.9224529,0.83300406,0.3093064,0.19463809,0.67799324,0.7029524,0.52119833,0.26415342,1.0343529,-0.057694394,0.23283298,-0.15189594,0.55807,817.1429,773.6264,798.20514,801.02563,711.5751,-0.2841796875,0.03704833984375,0.95367431640625,3.3197021484375,-5.06927490234375,3.27484130859375,1,1.0,1.0,1.0,1.0,100.00
2021-04-04 11:25:01.285,1.4547688,1.0965344,0.86983085,0.9101212,0.82228845,0.6035727,0.36110502,0.9224529,0.83300406,0.3093064,0.12275896,0.67799324,0.7029524,0.52119833,0.26928273,1.0343529,-0.057694394,0.23283298,-0.12515306,0.55807,803.0403,786.52014,773.22345,787.326,781.28204,-0.30242919921875,0.03143310546875,0.95623779296875,3.656158447265625,-2.0037841796875,1.966400146484375,1,1.0,1.0,1.0,1.0,100.00
2021-04-04 11:25:01.796,1.4640667,1.0965344,1.2897507,0.9101212,0.7484002,0.6035727,0.35846505,0.9224529,0.75419384,0.3093064,0.2223712,0.67799324,0.6308344,0.52119833,0.31947133,1.0343529,0.016911676,0.23283298,-0.2781865,0.55807,792.96704,803.0403,772.4176,788.5348,676.1172,-0.31195068359375,0.02850341796875,0.95208740234375,5.42816162109375,-5.03936767578125,-0.904693603515625,1,2.0,1.0,1.0,2.0,100.00
2021-04-04 11:25:02.308,1.4120866,0.958238,1.3466405,0.9101212,0.68517923,0.6115003,0.53400767,0.9224529,0.7703391,0.557599,0.32522473,0.67799324,0.58114046,0.3958868,0.2449638,1.0343529,0.001124892,-0.03623889,-0.18795423,0.55807,781.28204,787.326,801.8315,796.99634,755.89746,-0.30706787109375,0.03070068359375,0.965576171875,4.957122802734375,-4.777679443359375,2.4822998046875,1,1.0,1.0,1.0,1.0,100.00
2021-04-04 11:25:02.832,1.2109567,0.890183,1.3174028,0.8803556,0.81208324,0.6217067,0.49953204,0.49666157,0.90482914,0.45514676,0.3506287,0.67646074,0.44958094,0.39915755,0.21668804,0.57097244,0.0987577,0.043026287,-0.12739332,0.22139646,806.26373,799.011,794.17584,812.3077,726.8865,-0.310302734375,0.0206298828125,0.9552001953125,5.121612548828125,-4.486083984375,0.3887939453125,1,1.0,1.0,1.0,1.0,100.00
2021-04-04 11:25:03.359,0.9281281,0.84037286,1.2593641,0.73134285,0.81695706,0.5717174,0.41831213,0.57165813,1.0785452,0.62593806,0.4021455,0.9359017,0.35272887,0.42451555,0.1428752,0.59623486,0.047374845,0.027920304,-0.077263355,0.3196886,805.05493,790.14655,788.93774,800.2198,822.381,-0.32257080078125,0.03851318359375,0.9542236328125,7.52166748046875,-4.643096923828125,1.697235107421875,1,1.0,1.0,1.0,1.0,100.00
2021-04-04 11:25:03.886,0.7478842,0.6307915,0.95370185,0.6541113,0.8486649,0.45285085,0.27170697,0.5350006,1.1232039,0.6538794,0.22264427,0.9398511,0.35267726,0.45396116,0.11037095,0.62352085,0.04361249,0.01578463,-0.25246614,0.3611812,762.3443,774.0293,784.10254,760.7326,898.5348,-0.29852294921875,0.030029296875,0.96075439453125,3.536529541015625,-5.3533935546875,-0.13458251953125,1,1.0,1.0,1.0,1.0,100.00
2021-04-04 11:25:04.389,0.99805963,0.7539564,0.88257146,0.6563849,0.8198108,0.30210382,0.2888054,0.57706064,1.1076496,0.5492443,0.25900343,0.9379458,0.4525294,0.42157912,0.14631139,0.6728676,-0.063442364,-0.08383827,-0.47630122,0.35517576,827.619,806.6667,791.75824,805.8608,792.1612,-0.2945556640625,0.03460693359375,0.95330810546875,3.96270751953125,-6.14593505859375,1.435546875,1,1.0,1.0,1.0,1.0,100.00
2021-04-04 11:25:04.920,0.9864905,0.78796744,0.83517295,0.7585563,0.79107195,0.26252323,0.3176229,0.5744593,0.97772914,0.5001752,0.17883328,0.63621163,0.50568306,0.34921995,0.106985144,0.6762458,-0.036414463,-0.05488074,-0.5071694,0.2998494,810.696,794.9817,803.44324,812.3077,1012.1612,-0.29107666015625,0.0399169921875,0.9501953125,5.271148681640625,-6.50482177734375,0.34393310546875,1,1.0,1.0,1.0,1.0,100.00
2021-04-04 11:25:05.449,1.2062479,0.8629337,1.0347664,0.90317285,0.8858916,0.4582646,0.37988663,0.8591228,0.8888324,0.4085435,0.17507797,0.6926893,0.5068821,0.31813905,0.11991243,0.594141,0.074453555,-0.042530123,-0.36371586,0.2579476,767.5824,786.9231,776.04395,800.2198,731.31866,-0.2774658203125,0.04351806640625,0.96466064453125,4.299163818359375,-5.704803466796875,2.0635986328125,1,1.0,1.0,1.0,1.0,100.00
2021-04-04 11:25:05.915,,,,,,,,,,,,,,,,,,,,,,,,,,,,,,,,,,,,,,/muse/elements/blink
2021-04-04 11:25:05.978,1.0869262,0.9027822,1.1118542,0.76052296,0.9407228,0.50828344,0.3936099,0.84825045,0.88321435,0.42429316,0.11547934,0.6959994,0.32811853,0.26345924,4.1012195E-4,0.45048854,0.13548,0.006141637,-0.22181739,0.37735036,807.0696,813.5165,799.011,814.7253,827.619,-0.0560302734375,0.073486328125,1.01171875,28.314666748046875,-30.37078857421875,-28.389434814453125,1,1.0,1.0,1.0,1.0,100.00
2021-04-04 11:25:06.501,1.0869262,0.9612437,1.2205178,0.76052296,0.9407228,0.581064,0.48913243,0.84825045,0.88321435,0.40213412,-0.027416613,0.6959994,0.32811853,0.27412513,0.023232369,0.45048854,0.13548,0.0017817025,-0.13236089,0.37735036,728.9011,1024.249,757.50916,718.8278,620.5128,0.46533203125,-0.100341796875,0.88714599609375,-34.969024658203125,-37.092437744140625,71.10443115234375,1,1.0,1.0,1.0,1.0,100.00
2021-04-04 11:25:06.750,,,,,,,,,,,,,,,,,,,,,,,,,,,,,,,,,,,,,,/muse/elements/blink
2021-04-04 11:25:07.027,0.9472268,1.0422273,1.2179548,0.70809186,0.8485413,0.1928906,0.32586032,0.70001036,0.758857,0.2732031,-0.27320898,0.5414681,0.28164014,0.13992418,-0.042949546,0.47322017,0.050402,0.044360597,-0.11750526,0.36836016,813.5165,785.7143,806.26373,801.02563,824.7985,0.2757568359375,-0.21270751953125,0.94329833984375,10.21331787109375,6.302947998046875,-8.575897216796875,1,1.0,1.0,1.0,1.0,100.00
2021-04-04 11:25:07.554,0.9472268,1.0422273,1.2179548,0.70809186,0.8485413,0.1928906,0.32586032,0.70001036,0.758857,0.2732031,-0.27320898,0.5414681,0.28164014,0.13992418,-0.042949546,0.47322017,0.050402,0.044360597,-0.11750526,0.36836016,818.3516,795.38464,799.011,823.1868,766.3736,0.2510986328125,-0.055419921875,0.9625244140625,10.16845703125,-3.00567626953125,2.75146484375,1,1.0,1.0,1.0,1.0,100.00
2021-04-04 11:25:08.080,0.9472268,1.0422273,1.2179548,0.70809186,0.8485413,0.1928906,0.32586032,0.70001036,0.758857,0.2732031,-0.27320898,0.5414681,0.28164014,0.13992418,-0.042949546,0.47322017,0.050402,0.044360597,-0.11750526,0.36836016,831.2454,840.5128,786.52014,817.9487,869.5238,0.25677490234375,-0.09149169921875,0.9534912109375,3.312225341796875,-2.572021484375,-0.01495361328125,1,1.0,1.0,1.0,1.0,100.00
2021-04-04 11:25:08.606,0.9472268,1.0422273,0.5754623,0.70809186,0.8485413,0.1928906,0.021686582,0.70001036,0.758857,0.2732031,0.1476756,0.5414681,0.28164014,0.13992418,0.22673035,0.47322017,0.050402,0.044360597,-0.44227636,0.36836016,825.2015,875.9707,790.14655,809.0842,842.9304,0.2933349609375,-0.08905029296875,0.98895263671875,0.35888671875,-6.512298583984375,-2.70660400390625,1,2.0,1.0,1.0,2.0,100.00
2021-04-04 11:25:08.833,,,,,,,,,,,,,,,,,,,,,,,,,,,,,,,,,,,,,,/muse/elements/blink
2021-04-04 11:25:09.111,0.9472268,1.0422273,0.5665117,0.70809186,0.8485413,0.1928906,-0.014890148,0.70001036,0.758857,0.2732031,0.1476756,0.5414681,0.28164014,0.13992418,0.17468001,0.47322017,0.050402,0.044360597,-0.46748915,0.36836016,886.8498,396.48352,739.7802,848.1685,782.49084,0.0562744140625,0.10400390625,0.95526123046875,32.94281005859375,-23.140716552734375,-14.886322021484375,1,2.0,1.0,1.0,2.0,100.00
2021-04-04 11:25:09.625,0.9472268,1.0422273,0.541257,0.70809186,0.8485413,0.1928906,-0.06500347,0.70001036,0.758857,0.2732031,0.13946638,0.5414681,0.28164014,0.13992418,0.14638197,0.47322017,0.050402,0.044360597,-0.42181876,0.36836016,823.9927,329.19415,449.67032,828.8278,823.9927,0.47100830078125,0.0623779296875,0.60150146484375,3.2000732421875,33.795166015625,29.062347412109375,1,2.0,4.0,1.0,2.0,100.00
2021-04-04 11:25:09.695,,,,,,,,,,,,,,,,,,,,,,,,,,,,,,,,,,,,,,/muse/elements/blink
2021-04-04 11:25:10.149,0.9472268,1.0422273,0.50969726,0.70809186,0.8485413,0.1928906,-0.1414446,0.70001036,0.758857,0.2732031,-0.35739666,0.5414681,0.28164014,0.13992418,-0.047256827,0.47322017,0.050402,0.044360597,-0.5207224,0.36836016,874.7619,653.5531,809.4872,888.86444,541.53845,0.46075439453125,-0.04205322265625,0.87213134765625,11.551666259765625,-25.95947265625,20.733184814453125,1,2.0,2.0,1.0,2.0,100.00
2021-04-04 11:25:10.599,,,,,,,,,,,,,,,,,,,,,,,,,,,,,,,,,,,,,,/muse/elements/blink
2021-04-04 11:25:10.662,0.9472268,1.0422273,0.50969726,0.70809186,0.8485413,0.1928906,-0.1414446,0.70001036,0.758857,0.2732031,-0.35739666,0.5414681,0.28164014,0.13992418,-0.047256827,0.47322017,0.050402,0.044360597,-0.5207224,0.36836016,0.0,1625.4213,0.0,0.0,864.68866,0.2821044921875,0.01947021484375,0.9298095703125,6.68426513671875,12.66571044921875,19.746246337890625,1,2.0,4.0,1.0,2.0,100.00
2021-04-04 11:25:10.755,,,,,,,,,,,,,,,,,,,,,,,,,,,,,,,,,,,,,,/muse/elements/blink
2021-04-04 11:25:11.184,0.9472268,1.0422273,0.50969726,0.70809186,0.8485413,0.1928906,-0.1414446,0.70001036,0.758857,0.2732031,-0.35739666,0.5414681,0.28164014,0.13992418,-0.047256827,0.47322017,0.050402,0.044360597,-0.5207224,0.36836016,992.8205,1382.0513,893.69965,936.4103,1175.348,0.4852294921875,-0.0562744140625,0.960205078125,8.695526123046875,9.19647216796875,-22.826690673828125,1,2.0,4.0,4.0,2.0,100.00
2021-04-04 11:25:11.284,,,,,,,,,,,,,,,,,,,,,,,,,,,,,,,,,,,,,,/muse/elements/blink
2021-04-04 11:25:11.712,0.9472268,1.0422273,0.50969726,0.70809186,0.8485413,0.1928906,-0.1414446,0.70001036,0.758857,0.2732031,-0.35739666,0.5414681,0.28164014,0.13992418,-0.047256827,0.47322017,0.050402,0.044360597,-0.5207224,0.36836016,836.4835,0.0,955.34796,795.78754,871.13556,0.297607421875,0.04754638671875,0.9508056640625,4.164581298828125,-3.6785888671875,-57.2723388671875,1,2.0,4.0,4.0,2.0,100.00
2021-04-04 11:25:11.912,,,,,,,,,,,,,,,,,,,,,,,,,,,,,,,,,,,,,,/muse/elements/blink
2021-04-04 11:25:12.143,,,,,,,,,,,,,,,,,,,,,,,,,,,,,,,,,,,,,,/muse/elements/blink
2021-04-04 11:25:12.239,0.9472268,1.0422273,0.50969726,0.70809186,0.8485413,0.1928906,-0.1414446,0.70001036,0.758857,0.2732031,-0.35739666,0.5414681,0.28164014,0.13992418,-0.047256827,0.47322017,0.050402,0.044360597,-0.5207224,0.36836016,827.619,0.0,1212.4176,843.3333,784.5055,0.20697021484375,0.24267578125,0.960205078125,9.607696533203125,-6.945953369140625,11.312408447265625,1,2.0,2.0,2.0,2.0,100.00
2021-04-04 11:25:12.605,,,,,,,,,,,,,,,,,,,,,,,,,,,,,,,,,,,,,,/muse/elements/blink
2021-04-04 11:25:12.741,0.9472268,1.0422273,0.50969726,0.70809186,0.8485413,0.1928906,-0.1414446,0.70001036,0.758857,0.2732031,-0.35739666,0.5414681,0.28164014,0.13992418,-0.047256827,0.47322017,0.050402,0.044360597,-0.5207224,0.36836016,823.9927,815.9341,746.63007,813.1135,649.5238,0.3634033203125,-0.0308837890625,0.891845703125,-0.411224365234375,-12.060089111328125,46.31134033203125,1,2.0,2.0,2.0,2.0,100.00
2021-04-04 11:25:13.251,0.9472268,1.0422273,0.50969726,0.70809186,0.8485413,0.1928906,-0.1414446,0.70001036,0.758857,0.2732031,-0.35739666,0.5414681,0.28164014,0.13992418,-0.047256827,0.47322017,0.050402,0.044360597,-0.5207224,0.36836016,816.7399,848.97437,790.9524,803.0403,657.1795,0.4017333984375,-0.070068359375,0.9227294921875,5.375823974609375,-7.798309326171875,4.2169189453125,1,2.0,2.0,1.0,2.0,100.00
2021-04-04 11:25:13.763,0.9472268,1.0422273,0.50969726,0.70809186,0.8485413,0.1928906,-0.1414446,0.70001036,0.758857,0.2732031,-0.35739666,0.5414681,0.28164014,0.13992418,-0.047256827,0.47322017,0.050402,0.044360597,-0.5207224,0.36836016,801.02563,881.2088,798.60803,829.6337,857.03296,0.423828125,-0.0537109375,0.90899658203125,5.196380615234375,-3.880462646484375,1.577606201171875,1,2.0,1.0,1.0,2.0,100.00
2021-04-04 11:25:14.277,0.51694226,1.0422273,0.66119665,-0.17803293,0.56594497,0.1928906,-7.9733506E-4,0.3236157,0.68534726,0.2732031,0.17579268,0.40329525,0.2613582,0.13992418,-0.03979508,0.62436694,-0.052102894,0.044360597,-0.43686655,0.40379772,841.31866,846.9597,787.72894,802.6374,742.6007,0.4205322265625,-0.06585693359375,0.90325927734375,-3.170166015625,-7.723541259765625,-0.037384033203125,1,1.0,2.0,1.0,1.0,100.00
2021-04-04 11:25:14.781,0.48087543,1.0422273,0.6932545,0.19586843,0.4731307,0.1928906,0.030980252,0.22964966,0.68863297,0.2732031,0.22504233,0.5419164,0.18270296,0.13992418,-0.13177243,0.51974195,-0.123001985,0.044360597,-0.3224061,0.36128795,813.91943,1608.9011,786.1172,788.93774,662.8205,0.4886474609375,-0.08624267578125,0.87091064453125,2.99072265625,-5.72723388671875,-1.12152099609375,1,1.0,2.0,1.0,1.0,100.00
2021-04-04 11:25:15.292,0.48087543,1.0422273,0.63333136,0.22455285,0.4731307,0.1928906,0.12250399,0.15995032,0.68863297,0.2732031,0.26117808,0.55615115,0.18270296,0.13992418,-0.038853485,0.56788045,-0.123001985,0.044360597,-0.32152522,0.34090856,776.4469,1411.8682,786.52014,800.6227,781.28204,0.47479248046875,-0.09454345703125,0.876953125,4.747772216796875,-4.179534912109375,0.231781005859375,1,1.0,2.0,1.0,1.0,100.00
2021-04-04 11:25:15.804,0.3631775,1.0422273,0.5911707,0.20392317,0.096297495,0.1928906,0.22925445,0.09205106,0.38593084,0.2732031,0.310351,0.578841,0.316335,0.13992418,0.05348533,0.56911784,-0.13826463,0.044360597,-0.34642252,0.29674453,809.89014,867.50916,808.2784,826.4103,783.2967,0.46697998046875,-0.082275390625,0.88214111328125,5.5029296875,-4.957122802734375,1.2860107421875,1,1.0,2.0,1.0,1.0,100.00
2021-04-04 11:25:16.312,0.42957884,1.0422273,0.66147226,0.27975768,-0.1541299,0.1928906,0.20471878,0.018102609,0.31002033,0.2732031,0.26168814,0.5246753,0.40083563,0.13992418,0.059022535,0.59751683,-0.028623486,0.044360597,-0.42567044,0.28240582,851.39197,868.71796,793.7729,827.2161,848.97437,0.4683837890625,-0.08135986328125,0.8778076171875,3.985137939453125,-4.747772216796875,0.8074951171875,1,1.0,1.0,1.0,1.0,100.00
2021-04-04 11:25:16.820,0.41570923,1.0422273,0.58908325,0.26640546,0.028134413,0.1928906,0.07021593,0.059638247,0.81324965,0.2732031,0.29919314,0.70166254,0.37104103,0.13992418,0.03842739,0.560233,-0.08387796,0.044360597,-0.458099,0.33822733,798.20514,832.8571,807.47253,823.1868,829.6337,0.47515869140625,-0.0906982421875,0.87939453125,4.6356201171875,-4.972076416015625,0.82244873046875,1,1.0,1.0,1.0,1.0,100.00
2021-04-04 11:25:17.329,0.45067406,1.0422273,0.5041205,0.36999553,0.067152254,0.1928906,-0.22704111,0.03131112,0.81999207,0.2732031,0.27171552,0.7454472,0.2917781,0.13992418,-0.042059354,0.5687069,-0.15029724,0.044360597,-0.43727124,0.38793772,796.99634,875.56775,802.23444,820.3663,636.2271,0.471435546875,-0.0777587890625,0.88861083984375,6.71417236328125,-4.747772216796875,4.179534912109375,1,1.0,1.0,1.0,1.0,100.00
2021-04-04 11:25:17.842,0.35298002,1.0422273,7.6735055E-4,0.26049635,0.09089753,0.1928906,-0.2619907,0.06033677,0.8215202,0.2732031,0.15841512,0.74507725,0.22934714,0.13992418,0.0016453578,0.55666083,-0.24302615,0.044360597,-0.3718306,0.41760647,796.1905,691.8315,803.8461,827.619,807.0696,0.4913330078125,-0.09649658203125,0.8753662109375,3.828125,-5.00946044921875,0.8673095703125,1,1.0,1.0,1.0,1.0,100.00
2021-04-04 11:25:18.351,0.36740854,1.0422273,0.09503619,0.317602,0.019276809,0.1928906,-0.12824373,0.2103705,0.6655817,0.2732031,0.15014873,0.74400663,0.19702344,0.13992418,-0.044784497,0.4991994,-0.22402142,0.044360597,-0.29596174,0.3857532,829.2308,1137.0696,784.90845,798.20514,697.8755,0.4739990234375,-0.08941650390625,0.88360595703125,4.23187255859375,-3.828125,0.82244873046875,1,1.0,1.0,1.0,1.0,100.00
2021-04-04 11:25:18.859,0.31871465,1.0422273,0.0038191953,0.21149272,-0.09061107,0.1928906,-0.06347595,0.28300986,0.27663314,0.2732031,0.12880974,0.6417376,0.20410831,0.13992418,0.009885451,0.50982016,-0.21300645,0.044360597,-0.30275074,0.36646345,793.36993,1065.348,791.75824,796.1905,633.00366,0.4630126953125,-0.08416748046875,0.8826904296875,4.94964599609375,-4.68048095703125,1.039276123046875,1,1.0,1.0,1.0,1.0,100.00
2021-04-04 11:25:19.208,,,,,,,,,,,,,,,,,,,,,,,,,,,,,,,,,,,,,,/muse/elements/blink
2021-04-04 11:25:19.371,0.39592496,1.0422273,0.39049366,0.18807891,-0.06800404,0.1928906,0.02369572,0.3477383,0.16887894,0.2732031,0.009432322,0.5849947,0.21233836,0.13992418,0.07016366,0.5410499,-0.22069342,0.044360597,-0.38462818,0.35364208,904.57874,514.94507,901.75824,914.65204,774.0293,0.3599853515625,0.2352294921875,0.91534423828125,10.48248291015625,6.9085693359375,-28.35205078125,1,1.0,1.0,1.0,1.0,100.00
2021-04-04 11:25:19.898,0.36963692,1.0422273,0.44735584,-0.111966826,-0.26953784,0.1928906,0.01644428,0.25745007,0.11723656,0.2732031,-0.02121381,0.5539469,0.20772491,0.13992418,0.13973239,0.6664903,-0.26884383,0.044360597,-0.5254873,0.35705557,840.9158,1625.4213,804.2491,816.7399,791.3553,0.26318359375,0.2059326171875,0.91668701171875,0.770111083984375,-4.897308349609375,5.076751708984375,1,1.0,1.0,1.0,1.0,100.00
2021-04-04 11:25:20.409,0.4331021,1.0422273,0.7799462,-0.11260242,-0.27698573,0.1928906,0.14405932,0.12422016,0.10728919,0.2732031,-0.03951837,0.49048054,0.20204674,0.13992418,0.10990047,0.7155721,-0.25995207,0.044360597,-0.58254325,0.3594215,813.5165,319.92673,805.05493,817.1429,726.4835,0.2806396484375,0.1884765625,0.9351806640625,2.452392578125,-8.5833740234375,7.663726806640625,1,1.0,4.0,1.0,1.0,100.00
2021-04-04 11:25:20.939,0.4331021,1.0422273,0.7799462,-0.11260242,-0.27698573,0.1928906,0.14405932,0.12422016,0.10728919,0.2732031,-0.03951837,0.49048054,0.20204674,0.13992418,0.10990047,0.7155721,-0.25995207,0.044360597,-0.58254325,0.3594215,823.9927,0.0,782.0879,813.5165,689.81683,0.3917236328125,-0.1597900390625,0.89312744140625,5.39825439453125,-7.798309326171875,9.64508056640625,1,1.0,4.0,1.0,1.0,100.00
2021-04-04 11:25:21.467,0.4331021,1.0422273,1.102769,-0.11260242,-0.27698573,0.1928906,0.9674166,0.12422016,0.10728919,0.2732031,0.43915004,0.49048054,0.20204674,0.13992418,0.065733574,0.7155721,-0.25995207,0.044360597,-0.11843686,0.3594215,792.1612,1481.1721,799.81683,786.52014,701.0989,0.44036865234375,-0.1195068359375,0.89892578125,6.05621337890625,-9.28619384765625,2.145843505859375,1,1.0,4.0,1.0,1.0,100.00
2021-04-04 11:25:21.995,0.4331021,1.0422273,0.9092493,-0.11260242,-0.27698573,0.1928906,0.8361755,0.12422016,0.10728919,0.2732031,0.44420195,0.49048054,0.20204674,0.13992418,0.107203305,0.7155721,-0.25995207,0.044360597,-0.15853143,0.3594215,792.1612,1605.6776,806.26373,813.91943,759.92676,0.4462890625,-0.12786865234375,0.89544677734375,4.80010986328125,-2.67669677734375,-0.777587890625,1,2.0,2.0,1.0,2.0,100.00
2021-04-04 11:25:22.506,0.49968076,1.0422273,0.6648733,0.4078153,0.3736416,0.1928906,0.6867601,0.3393905,0.22883657,0.2732031,0.44420195,0.20667078,0.34023234,0.13992418,0.05390967,0.5581909,-0.07203666,0.044360597,-0.26972976,0.23459083,790.54944,900.14655,806.26373,815.12823,678.1319,0.429443359375,-0.122314453125,0.90142822265625,4.792633056640625,-5.899200439453125,1.039276123046875,1,1.0,2.0,1.0,1.0,100.00
2021-04-04 11:25:23.009,0.41960585,1.0422273,0.14296727,0.37712574,0.22354558,0.1928906,-0.05318938,0.19598226,0.41756064,0.2732031,0.056503914,0.20790575,0.35934585,0.13992418,0.004350093,0.4760754,-0.1052838,0.044360597,-0.28319317,0.25502688,794.57874,1050.4396,799.41394,811.50183,799.81683,0.43292236328125,-0.1044921875,0.9049072265625,5.659942626953125,-8.05999755859375,-6.078643798828125,1,1.0,2.0,1.0,1.0,100.00
2021-04-04 11:25:23.516,0.45296,1.0422273,0.21871455,0.34814072,0.16143732,0.1928906,-0.27512708,0.12544191,0.5053301,0.2732031,-0.03689139,0.33787552,0.33669776,0.13992418,-0.0024031214,0.47675517,-0.1270208,0.044360597,-0.32374358,0.19717577,833.663,1008.93774,794.9817,819.15753,791.3553,0.44268798828125,-0.11114501953125,0.88916015625,6.557159423828125,-8.49365234375,5.615081787109375,1,1.0,2.0,1.0,1.0,100.00
2021-04-04 11:25:24.027,0.4040793,1.0422273,0.22337596,0.21403821,-0.09232302,0.1928906,-0.32543597,-0.088823676,0.5124729,0.2732031,0.06733448,0.33195093,0.3538408,0.13992418,0.08879246,0.5353214,-0.13506012,0.044360597,-0.297433,0.17443556,780.07324,940.84247,792.96704,813.5165,759.92676,0.4534912109375,-0.12646484375,0.886474609375,3.0206298828125,-5.704803466796875,2.758941650390625,1,1.0,1.0,1.0,1.0,70.00
2021-04-04 11:25:24.528,0.43283126,1.0422273,0.026961854,0.12413414,-0.16787134,0.1928906,-0.4374234,-0.07240395,0.466839,0.2732031,0.0703432,0.4205105,0.40077415,0.13992418,0.12755555,0.5978577,-0.13090916,0.044360597,-0.33640614,0.29784292,807.0696,1104.8352,801.02563,821.978,796.5934,0.458251953125,-0.12237548828125,0.88885498046875,4.717864990234375,-2.9608154296875,0.306549072265625,1,1.0,2.0,1.0,1.0,70.00
2021-04-04 11:25:25.044,0.39758703,1.0422273,-0.12974302,0.18890338,-0.12639502,0.1928906,-0.49695048,0.05560556,0.40937737,0.2732031,-0.08519595,0.4081907,0.364044,0.13992418,0.10935614,0.5664448,-0.13247335,0.044360597,-0.34768182,0.3968846,845.34796,879.59705,805.4579,836.08057,829.2308,0.449462890625,-0.11407470703125,0.8868408203125,4.613189697265625,-4.14215087890625,1.6748046875,1,1.0,2.0,1.0,1.0,70.00
2021-04-04 11:25:25.551,0.36868867,1.0422273,-0.10038511,0.3489352,-0.0056061656,0.1928906,-0.35718313,0.19676451,0.45504296,0.2732031,-0.19399357,0.44444588,0.35182282,0.13992418,0.06803181,0.5018466,-0.013558556,0.044360597,-0.43870234,0.43864277,830.0366,936.0073,788.93774,799.81683,766.77655,0.451171875,-0.10418701171875,0.8939208984375,6.17584228515625,-5.046844482421875,2.52716064453125,1,1.0,1.0,1.0,1.0,70.00
2021-04-04 11:25:26.056,0.33388194,1.0422273,-0.11668137,0.36937454,0.099972725,0.1928906,-0.28543013,0.29662716,0.4799153,0.2732031,-0.19837876,0.4696747,0.24473336,0.13992418,0.015929678,0.51146895,-0.012087537,0.044360597,-0.509527,0.3737832,774.43225,776.4469,826.0073,809.89014,699.0842,0.434326171875,-0.13873291015625,0.89166259765625,5.630035400390625,-0.067291259765625,18.7518310546875,1,1.0,1.0,1.0,1.0,70.00
2021-04-04 11:25:26.127,,,,,,,,,,,,,,,,,,,,,,,,,,,,,,,,,,,,,,/muse/elements/blink
2021-04-04 11:25:26.584,0.29019508,1.0422273,-0.18309651,0.3413037,0.1276348,0.1928906,-0.2833768,0.31923628,0.46629637,0.2732031,-0.2047289,0.4630039,0.2941682,0.13992418,-0.014947256,0.5453704,0.045781948,0.044360597,-0.614019,0.33680153,838.49817,824.7985,798.20514,822.7839,869.12085,0.39788818359375,-0.159423828125,0.9056396484375,3.970184326171875,-5.689849853515625,0.91217041015625,1,1.0,1.0,1.0,1.0,70.00
2021-04-04 11:25:26.947,,,,,,,,,,,,,,,,,,,,,,,,,,,,,,,,,,,,,,/muse/elements/blink
2021-04-04 11:25:27.086,0.2840346,1.0422273,-0.30575943,0.14223917,0.1056113,0.1928906,-0.36845925,0.34028655,0.43285698,0.2732031,-0.2047289,0.41482073,0.22841278,0.13992418,-0.073526494,0.6287931,-0.16568339,0.044360597,-0.628397,0.3413925,844.5421,878.3883,802.6374,833.663,819.5604,0.43450927734375,-0.14739990234375,0.89398193359375,3.768310546875,-5.375823974609375,-0.95703125,1,1.0,1.0,1.0,1.0,70.00
2021-04-04 11:25:27.597,0.2840346,1.0422273,-0.25339943,0.14223917,0.1056113,0.1928906,-0.38803035,0.34028655,0.43285698,0.2732031,-0.2047289,0.41482073,0.22841278,0.13992418,-0.1154078,0.6287931,-0.16568339,0.044360597,-0.6418808,0.3413925,838.0952,865.09155,788.93774,803.0403,788.1319,0.4287109375,-0.1429443359375,0.8985595703125,5.121612548828125,-4.957122802734375,0.994415283203125,1,1.0,1.0,1.0,1.0,70.00
2021-04-04 11:25:28.104,0.2840346,1.0422273,0.8930156,0.14223917,0.1056113,0.1928906,0.25514182,0.34028655,0.43285698,0.2732031,-0.05851499,0.41482073,0.22841278,0.13992418,0.030721575,0.6287931,-0.16568339,0.044360597,-0.31887162,0.3413925,783.69965,814.7253,799.011,813.1135,762.74725,0.4405517578125,-0.13787841796875,0.8863525390625,5.644989013671875,-3.730926513671875,0.43365478515625,1,1.0,1.0,1.0,1.0,70.00
2021-04-04 11:25:28.622,-0.06753859,1.0422273,0.6212992,0.078418866,0.12198597,0.1928906,0.07055476,-0.1691027,0.5332812,0.2732031,0.039053883,0.42198834,0.19010277,0.13992418,-0.0067660864,0.7416148,0.12892361,0.044360597,-0.37941775,0.16369268,835.6777,846.55676,805.4579,831.6484,823.9927,0.4375,-0.1341552734375,0.88690185546875,3.57391357421875,-4.658050537109375,-0.246734619140625,1,1.0,1.0,1.0,1.0,70.00
2021-04-04 11:25:29.133,0.07238446,1.0422273,-0.027621597,0.60240114,0.13338849,0.1928906,-0.093763,-0.07477475,0.5552914,0.2732031,0.2823891,0.43378153,0.29281875,0.13992418,2.3932538E-5,0.69405,0.1192048,0.044360597,-0.4093511,0.23748711,794.57874,810.293,799.011,820.7692,811.50183,0.44110107421875,-0.13238525390625,0.8927001953125,4.59075927734375,-4.553375244140625,0.800018310546875,1,1.0,1.0,1.0,1.0,70.00
2021-04-04 11:25:29.642,0.23935921,1.0422273,0.15657994,0.6010451,0.071967006,0.1928906,0.058804255,-0.009773377,0.569731,0.2732031,0.287363,0.46505517,0.3143783,0.13992418,-0.046419043,0.6840152,0.13200535,0.044360597,-0.4146086,0.30899265,820.3663,867.9121,796.5934,807.8755,724.0659,0.43267822265625,-0.13531494140625,0.89013671875,4.344024658203125,-3.87298583984375,1.12152099609375,1,1.0,1.0,1.0,1.0,70.00
2021-04-04 11:25:30.145,0.33506784,1.0422273,0.2576445,0.607373,0.03473949,0.1928906,0.0691695,0.067638114,0.59495467,0.2732031,0.287363,0.56133014,0.25888622,0.13992418,-0.09633193,0.6414946,0.060254626,0.044360597,-0.39066902,0.43941337,788.93774,859.45056,801.4286,811.50183,649.5238,0.4404296875,-0.12841796875,0.896484375,4.852447509765625,-4.104766845703125,1.502838134765625,1,1.0,1.0,1.0,1.0,70.00
2021-04-04 11:25:30.661,0.27364418,1.0422273,0.2364507,0.34988827,0.07256767,0.1928906,-0.04939805,0.14330727,0.6298636,0.2732031,0.17615785,0.5529619,0.12354513,0.13992418,-0.1401829,0.60277337,0.043098576,0.044360597,-0.4015835,0.4674534,846.55676,892.49084,796.5934,811.0989,804.2491,0.428955078125,-0.138427734375,0.90283203125,3.828125,-3.431854248046875,-0.2392578125,1,1.0,1.0,1.0,1.0,70.00
2021-04-04 11:25:31.173,0.12297522,1.0422273,0.003235602,0.15550806,0.14974415,0.1928906,-0.26463437,0.09746892,0.65694493,0.2732031,0.054220494,0.5529619,0.080637954,0.13992418,-0.1513681,0.5927223,0.009765364,0.044360597,-0.46198785,0.44635826,828.8278,853.8095,792.5641,815.5311,1032.3077,0.4366455078125,-0.13653564453125,0.8917236328125,4.015045166015625,-6.063690185546875,-0.67291259765625,1,1.0,1.0,1.0,1.0,70.00
2021-04-04 11:25:31.683,0.060605824,1.0422273,0.016069204,0.11250632,0.21959375,0.1928906,-0.2741081,0.107598,0.6703648,0.2732031,0.20319802,0.486209,0.13288304,0.13992418,-0.113830775,0.62359065,0.0134421615,0.044360597,-0.42893744,0.40397245,836.08057,949.707,789.34064,811.9048,743.00366,0.4580078125,-0.1263427734375,0.8863525390625,4.777679443359375,-5.30853271484375,0.79254150390625,1,1.0,1.0,1.0,1.0,70.00
2021-04-04 11:25:32.207,0.10436053,1.0422273,0.41863883,0.03305588,0.1598167,0.1928906,0.040398825,0.08603623,0.61408454,0.2732031,0.5149508,0.4428518,0.16970804,0.13992418,0.043261874,0.66862726,-0.09319216,0.044360597,-0.40690616,0.41424614,793.7729,847.3626,798.60803,809.89014,761.13556,0.44061279296875,-0.13336181640625,0.89190673828125,5.78704833984375,-4.448699951171875,2.691650390625,1,1.0,1.0,1.0,1.0,70.00
2021-04-04 11:25:32.709,0.14852555,1.0422273,0.461132,-0.13427263,0.20188037,0.1928906,0.09530661,0.15996848,0.48698083,0.2732031,0.5437536,0.6511795,0.21313798,0.13992418,0.090680525,0.67392856,-0.32547686,0.044360597,-0.38727552,0.40671778,786.1172,818.7546,795.38464,804.2491,667.6557,0.45037841796875,-0.12786865234375,0.89349365234375,3.81317138671875,-4.164581298828125,1.1663818359375,1,1.0,1.0,1.0,1.0,70.00
2021-04-04 11:25:33.228,0.3054062,1.0422273,0.44346914,0.14411463,0.33851695,0.1928906,0.24004814,0.28267178,0.42865202,0.2732031,0.544349,0.6886204,0.23388807,0.13992418,0.10187265,0.65381354,-0.3467711,0.044360597,-0.42303827,0.37853,838.9011,887.6557,792.96704,805.8608,738.1685,0.44268798828125,-0.1309814453125,0.89520263671875,6.38519287109375,-4.897308349609375,2.093505859375,1,1.0,1.0,1.0,1.0,70.00
2021-04-04 11:25:33.750,0.3309093,1.0422273,0.12490587,0.22553068,0.41309163,0.1928906,0.07645934,0.3057918,0.4790293,0.2732031,0.27855977,0.6977936,0.19430135,0.13992418,-0.056514617,0.6436496,-0.28618553,0.044360597,-0.4779474,0.3798685,801.8315,857.8388,800.2198,805.4579,686.1905,0.4400634765625,-0.1240234375,0.894775390625,4.725341796875,-3.9776611328125,0.82244873046875,1,1.0,1.0,1.0,1.0,70.00
2021-04-04 11:25:34.278,0.45775908,1.0422273,0.1768068,0.3702229,0.35863426,0.1928906,0.12712994,0.27476993,0.37890765,0.2732031,0.17162097,0.6719661,0.062034488,0.13992418,-0.1442498,0.517861,-0.22323099,0.044360597,-0.43073133,0.35031074,819.15753,877.98535,792.5641,803.8461,666.4469,0.43414306640625,-0.12127685546875,0.89434814453125,4.807586669921875,-3.656158447265625,0.777587890625,1,1.0,1.0,1.0,1.0,100.00
2021-04-04 11:25:34.792,0.35105333,1.0422273,0.32300013,0.36899158,0.24031568,0.1928906,-0.028358463,0.1869167,0.38463995,0.2732031,0.04996541,0.48425576,0.014382366,0.13992418,-0.12190113,0.54872096,-0.207721,0.044360597,-0.40537772,0.25009865,794.57874,805.05493,805.4579,797.3993,721.6484,0.41448974609375,-0.144775390625,0.89019775390625,4.0972900390625,-5.226287841796875,0.8673095703125,1,1.0,1.0,1.0,1.0,100.00
2021-04-04 11:25:35.299,0.31164977,1.0422273,0.27101445,0.35178944,0.32626098,0.1928906,0.1230089,0.37034512,0.4297463,0.2732031,0.065633275,0.4679644,0.06155395,0.13992418,-0.089523405,0.54666007,-0.06102589,0.044360597,-0.3256337,0.11275339,801.02563,792.96704,814.7253,823.1868,722.0513,0.420166015625,-0.14532470703125,0.8948974609375,3.12530517578125,-5.585174560546875,0.3289794921875,1,1.0,1.0,1.0,1.0,100.00
2021-04-04 11:25:35.825,0.15556557,1.0422273,0.25196502,0.29970872,0.3349628,0.1928906,0.1359215,0.34219155,0.4489912,0.2732031,0.3623796,0.4542478,0.14655618,0.13992418,-0.047029603,0.59932834,0.035938703,0.044360597,-0.29650652,0.13213739,828.022,869.12085,804.2491,826.0073,859.0476,0.43499755859375,-0.12530517578125,0.89459228515625,4.478607177734375,-3.27484130859375,2.22808837890625,1,1.0,1.0,1.0,1.0,100.00
2021-04-04 11:25:36.354,0.18654636,1.0422273,0.19424306,0.212254,0.26238087,0.1928906,0.13294074,0.2392192,0.48414755,0.2732031,0.37218282,0.4158908,0.25946718,0.13992418,-0.09262058,0.4818506,0.03246908,0.044360597,-0.3207202,0.20437066,834.0659,877.98535,798.60803,802.6374,851.79486,0.4290771484375,-0.16650390625,0.8922119140625,3.46923828125,-4.605712890625,0.710296630859375,1,1.0,1.0,1.0,1.0,100.00
2021-04-04 11:25:36.856,0.4108981,1.0422273,0.3824563,0.30817977,0.09632112,0.1928906,-0.0015182686,-0.1512761,0.45507187,0.2732031,0.35145965,0.5458257,0.29635832,0.13992418,-0.07849138,0.45991775,-0.02387598,0.044360597,-0.37036192,0.3295386,799.011,896.52014,792.1612,788.1319,602.381,0.4189453125,-0.16436767578125,0.89862060546875,3.461761474609375,-3.566436767578125,1.854248046875,1,1.0,1.0,1.0,1.0,100.00
2021-04-04 11:25:37.370,0.37781316,1.0422273,0.36109832,0.29835716,0.2585788,0.1928906,-0.13709876,-0.071840525,0.4060929,0.2732031,0.184718,0.6812276,0.2977882,0.13992418,-0.15640354,0.4584946,-0.118431434,0.044360597,-0.40854463,0.308107,790.54944,797.8022,811.0989,815.9341,714.3956,0.41015625,-0.15936279296875,0.90142822265625,5.211334228515625,-4.78515625,0.55328369140625,1,1.0,1.0,1.0,1.0,100.00
2021-04-04 11:25:37.896,0.41305742,1.0422273,0.22965688,0.30966341,0.43160504,0.1928906,-0.10085433,0.15544036,0.5386249,0.2732031,0.11554027,0.7067776,0.24335513,0.13992418,-0.11129695,0.44213298,-0.13139278,0.044360597,-0.41436782,0.285105,800.2198,889.67035,803.44324,805.05493,809.0842,0.461181640625,-0.13372802734375,0.89556884765625,8.5235595703125,-9.951629638671875,1.472930908203125,1,1.0,1.0,1.0,1.0,100.00
2021-04-04 11:25:38.423,0.2621079,1.0422273,0.07611588,0.38017607,0.4238089,0.1928906,-0.060526107,0.23385462,0.57637084,0.2732031,0.0956771,0.6860259,0.16781256,0.13992418,-0.05346468,0.46258906,-0.18333356,0.044360597,-0.40643987,0.2347327,802.6374,882.4176,796.99634,803.44324,689.011,0.435546875,-0.1409912109375,0.8956298828125,-1.951446533203125,-1.024322509765625,-1.2860107421875,1,1.0,1.0,1.0,1.0,100.00
2021-04-04 11:25:38.928,0.2626319,1.0422273,0.0038985466,0.4813444,0.31879118,0.1928906,-0.06146124,0.2978055,0.57637084,0.2732031,0.09623038,0.6572135,0.068591565,0.13992418,0.008131446,0.56125695,-0.15579599,0.044360597,-0.33894187,0.34275943,829.6337,916.26373,798.20514,811.50183,740.58606,0.4232177734375,-0.1597900390625,0.901123046875,4.78515625,-4.26177978515625,1.2860107421875,1,1.0,1.0,1.0,1.0,100.00
2021-04-04 11:25:39.446,0.13579302,1.0422273,0.12580301,0.4271127,0.10353794,0.1928906,-0.16083263,0.4006677,0.38751128,0.2732031,0.14563143,0.67060274,0.1793868,0.13992418,0.029614963,0.5908079,-0.1477317,0.044360597,-0.31557143,0.47967258,793.7729,879.19415,797.8022,804.65204,632.1978,0.41693115234375,-0.1630859375,0.90277099609375,6.02630615234375,-3.686065673828125,0.85235595703125,1,1.0,1.0,1.0,1.0,100.00
2021-04-04 11:25:39.953,0.15222816,1.0422273,0.15044054,0.24133359,0.12266657,0.1928906,-0.14877574,0.36057687,0.3767275,0.2732031,0.07312506,0.66623765,0.21870522,0.13992418,0.05775741,0.55088747,-0.17129661,0.044360597,-0.33777454,0.5865463,812.3077,874.7619,787.72894,798.60803,736.1539,0.4298095703125,-0.13690185546875,0.89825439453125,6.220703125,-5.241241455078125,-0.665435791015625,1,1.0,1.0,1.0,1.0,100.00
2021-04-04 11:25:40.479,0.1592805,1.0422273,0.16881633,-0.0145981535,0.098317765,0.1928906,0.015928026,0.3167332,0.36103526,0.2732031,0.14930417,0.48235267,0.25872234,0.13992418,0.08474229,0.5110829,-0.2094757,0.044360597,-0.3129835,0.61136514,823.5897,809.0842,801.02563,805.05493,805.05493,0.4139404296875,-0.11871337890625,0.9049072265625,4.605712890625,-4.358978271484375,2.340240478515625,1,1.0,1.0,1.0,1.0,100.00
2021-04-04 11:25:41.007,0.4211672,1.0422273,0.2541698,0.2713529,0.10718241,0.1928906,0.094369896,0.20317441,0.2687381,0.2732031,0.0012634059,0.3538518,0.15942673,0.13992418,0.075065784,0.6039722,-0.21132304,0.044360597,-0.16222951,0.5890428,826.8132,879.19415,782.8938,791.75824,805.05493,0.4169921875,-0.119384765625,0.8956298828125,6.676788330078125,-6.6094970703125,0.022430419921875,1,1.0,1.0,1.0,1.0,100.00
2021-04-04 11:25:41.516,0.4637087,1.0422273,0.21843287,0.36682758,0.32782525,0.1928906,0.061110895,0.35792103,0.16263443,0.2732031,0.121075325,0.31730878,0.1648118,0.13992418,0.008396253,0.6471439,-0.27841735,0.044360597,-0.10584948,0.49576852,820.7692,833.663,790.9524,794.9817,765.16486,0.43572998046875,-0.0958251953125,0.89959716796875,7.005767822265625,-6.50482177734375,1.218719482421875,1,1.0,1.0,1.0,1.0,100.00
2021-04-04 11:25:42.018,0.50668544,1.0422273,0.11932066,0.36941153,0.3757062,0.1928906,-0.036123987,0.31302652,0.20038684,0.2732031,0.12279494,0.2667363,0.17739774,0.13992418,0.04396368,0.6245687,-0.27355275,0.044360597,-0.13042992,0.41261506,785.7143,787.72894,802.6374,819.15753,643.0769,0.4322509765625,-0.0904541015625,0.896240234375,4.598236083984375,-4.912261962890625,3.028106689453125,1,1.0,1.0,1.0,1.0,100.00
2021-04-04 11:25:42.539,0.344948,1.0422273,-0.11267475,0.18608217,0.3188903,0.1928906,-0.17347497,0.27697468,0.38926527,0.2732031,0.051987056,0.20920607,0.28320724,0.13992418,0.07703929,0.58954513,-0.23659955,0.044360597,-0.24654074,0.41328567,789.34064,794.17584,801.8315,819.5604,797.8022,0.438720703125,-0.083740234375,0.89825439453125,4.74029541015625,-5.405731201171875,0.19439697265625,1,1.0,1.0,1.0,1.0,100.00
2021-04-04 11:25:43.042,0.28245866,1.0422273,-0.19755155,0.07109409,0.01533317,0.1928906,-0.24004617,0.0359796,0.38926527,0.2732031,0.06175372,0.41324982,0.30875948,0.13992418,0.14449318,0.55712515,-0.19078511,0.044360597,-0.30731454,0.407912,829.6337,823.5897,804.2491,829.2308,884.0293,0.445556640625,-0.0716552734375,0.90228271484375,4.366455078125,-4.91973876953125,1.547698974609375,1,1.0,1.0,1.0,1.0,100.00
2021-04-04 11:25:43.559,0.14772354,1.0422273,-0.121040516,-0.010550727,-0.22732182,0.1928906,-0.24157895,0.06450249,0.38926527,0.2732031,-0.16446146,0.41572964,0.27491495,0.13992418,0.098478526,0.56284356,-0.18862353,0.044360597,-0.36054593,0.3943819,826.8132,915.8608,786.52014,807.0696,793.7729,0.45819091796875,-0.09039306640625,0.894775390625,3.45428466796875,-4.2767333984375,-0.979461669921875,1,1.0,1.0,1.0,1.0,100.00
2021-04-04 11:25:44.061,-0.22492081,1.0422273,-0.20162567,-0.15000702,-0.21798818,0.1928906,-0.091875136,-0.105322264,-0.06509323,0.2732031,-0.11056384,0.40436846,0.078698546,0.13992418,0.012288391,0.508568,-0.24487525,0.044360597,-0.4020037,0.30371022,805.05493,862.27106,791.3553,801.4286,585.05493,0.4337158203125,-0.0821533203125,0.8983154296875,3.66363525390625,-5.2935791015625,1.353302001953125,1,1.0,1.0,1.0,1.0,100.00
2021-04-04 11:25:44.569,-0.2172615,1.0422273,-0.13590506,-0.17726511,-0.14264353,0.1928906,-0.13695596,-0.0782869,0.40403736,0.2732031,0.032610588,0.46055362,0.09972345,0.13992418,-0.023452131,0.47948417,-0.23586974,0.044360597,-0.47922912,0.3372319,781.28204,803.44324,803.8461,810.293,713.9927,0.45513916015625,-0.09002685546875,0.88897705078125,5.4132080078125,-4.844970703125,-1.742095947265625,1,1.0,1.0,1.0,1.0,100.00
2021-04-04 11:25:45.083,0.35042924,1.0422273,0.43983808,0.33730826,0.0034310597,0.1928906,-0.004860863,-0.11765255,0.47009593,0.2732031,0.1762559,0.40015823,0.19958472,0.13992418,0.006873762,0.45833054,-0.16343431,0.044360597,-0.41018012,0.2865146,796.1905,840.10986,798.60803,802.23444,888.0586,0.43963623046875,-0.07757568359375,0.89788818359375,5.09918212890625,-4.11224365234375,1.973876953125,1,1.0,1.0,1.0,1.0,100.00
2021-04-04 11:25:45.593,0.4250292,1.0422273,0.46574014,0.3960455,0.022774292,0.1928906,-0.045593474,0.078358546,0.53061897,0.2732031,0.19332768,0.6645127,0.25683457,0.13992418,0.034083556,0.5157374,-0.11201889,0.044360597,-0.448103,0.25465265,848.1685,850.18317,802.23444,820.3663,803.8461,0.434326171875,-0.0810546875,0.90045166015625,4.598236083984375,-4.32159423828125,0.530853271484375,1,1.0,1.0,1.0,1.0,100.00
2021-04-04 11:25:46.105,0.42650437,1.0422273,0.48887497,0.3845567,0.18952022,0.1928906,0.05386029,0.16663758,0.51070756,0.2732031,0.14902505,0.69763124,0.2359332,0.13992418,-0.0034142663,0.5856157,-0.11548509,0.044360597,-0.44013503,0.20892623,786.52014,772.4176,805.05493,796.5934,691.02563,0.43475341796875,-0.0859375,0.89141845703125,4.254302978515625,-5.046844482421875,2.056121826171875,1,1.0,1.0,1.0,1.0,100.00
2021-04-04 11:25:46.610,0.07482488,0.023676904,0.07436517,-0.026844561,0.18425329,0.276715,7.677408E-4,0.28803533,0.47260833,-0.088321775,0.14452545,0.7171932,0.19018716,1.1881121,0.06894746,0.64627445,-0.13822998,0.69282246,-0.5619248,0.20701638,799.011,793.36993,797.8022,815.9341,728.9011,0.43670654296875,-0.07037353515625,0.90728759765625,5.330963134765625,-5.465545654296875,0.76263427734375,1,1.0,1.0,1.0,1.0,100.00
2021-04-04 11:25:47.123,0.168523,0.1764573,0.18788885,-0.07871348,0.1638393,0.29803154,-0.005941442,0.27032816,0.4819693,0.17471799,0.16300237,0.73339933,0.2049812,1.1051,0.14852802,0.6915605,-0.09339562,0.69180447,-0.45851,0.21022864,835.2747,837.28937,802.23444,825.6044,814.3223,0.43280029296875,-0.07354736328125,0.90338134765625,4.17205810546875,-5.166473388671875,1.3458251953125,1,1.0,1.0,1.0,1.0,100.00
2021-04-04 11:25:47.637,0.1796631,0.1764573,0.10793518,5.95985E-5,0.013553893,0.29803154,-0.104262345,0.22047545,0.42466134,0.17471799,0.06940897,0.575322,0.2355354,1.1051,0.13701987,0.6086132,-0.06669089,0.69180447,-0.40929344,0.19261257,832.8571,997.6557,788.93774,816.7399,758.71796,0.4324951171875,-0.07086181640625,0.8994140625,4.68048095703125,-4.1571044921875,1.308441162109375,1,1.0,1.0,1.0,1.0,100.00
2021-04-04 11:25:48.143,0.21541716,0.28925398,0.09784186,0.5445022,0.27908754,0.31835052,-0.11221789,0.24482527,0.57548535,0.15957426,0.07159566,0.629226,0.30152422,1.0023795,0.05690545,0.57216144,-0.036998287,0.69078404,-0.42374247,0.2687915,801.02563,946.08057,796.1905,805.4579,672.8938,0.4305419921875,-0.08331298828125,0.90899658203125,2.295379638671875,-6.198272705078125,-0.6280517578125,1,1.0,1.0,1.0,1.0,100.00
2021-04-04 11:25:48.672,0.011849621,0.28925398,-0.08854483,0.61978596,0.34642658,0.31835052,-0.14946534,0.34963763,0.56894845,0.15957426,0.21241924,0.627203,0.26772183,1.0023795,-0.019022236,0.4402125,-0.034729484,0.69078404,-0.51052564,0.31933057,835.2747,887.25275,795.38464,808.68134,828.8278,0.4534912109375,-0.06585693359375,0.9029541015625,3.342132568359375,-4.007568359375,0.336456298828125,1,1.0,1.0,1.0,1.0,100.00
2021-04-04 11:25:49.196,0.15982327,0.28925398,-0.014014727,0.63811874,0.31942096,0.31835052,-0.048164643,0.3157602,0.59064096,0.15957426,0.24298722,0.52018565,0.2149177,1.0023795,0.027665107,0.45326164,-0.077488095,0.69078404,-0.4647138,0.28597948,822.7839,1002.0879,809.4872,827.619,806.26373,0.4320068359375,-0.068603515625,0.9017333984375,4.83001708984375,-3.476715087890625,0.76263427734375,1,1.0,1.0,1.0,1.0,100.00
2021-04-04 11:25:49.723,0.28015384,0.28925398,8.3317485E-4,0.2697015,-0.015293824,0.31835052,-0.13572678,0.17141841,0.4586397,0.15957426,0.25032285,0.5084649,0.1696649,1.0023795,-0.011216456,0.416127,-0.1857802,0.69078404,-0.3582281,0.3898298,828.8278,1056.0806,790.9524,811.0989,747.8388,0.42596435546875,-0.074951171875,0.8995361328125,4.5758056640625,-4.687957763671875,1.65985107421875,1,1.0,1.0,1.0,1.0,100.00
2021-04-04 11:25:50.253,0.41867703,0.28925398,0.07282419,0.19758493,0.12373637,0.31835052,-0.09988197,0.0062184627,0.67864627,0.15957426,0.3125091,0.5607207,0.290689,1.0023795,-0.02628237,0.4692206,-0.21322086,0.69078404,-0.32293907,0.46895,825.6044,923.5165,799.41394,820.7692,907.8022,0.43359375,-0.06915283203125,0.911865234375,5.06927490234375,-3.641204833984375,1.973876953125,1,1.0,1.0,1.0,1.0,100.00
2021-04-04 11:25:50.780,0.48447162,0.28925398,-0.05657142,0.06756781,0.23661785,0.31835052,-0.21514408,-0.0024164044,0.6834093,0.15957426,0.3308354,0.5966849,0.38889128,1.0023795,-0.008615009,0.5971417,-0.16464818,0.69078404,-0.30431774,0.53609467,829.2308,985.9707,782.49084,795.78754,696.26373,0.4256591796875,-0.0693359375,0.9041748046875,5.330963134765625,-5.196380615234375,1.33087158203125,1,1.0,1.0,1.0,1.0,100.00
2021-04-04 11:25:51.281,0.45833445,0.28925398,-0.2567326,0.080372036,0.28261068,0.31835052,-0.193972,0.053258378,0.6541011,0.15957426,0.3388036,0.6354027,0.40906888,1.0023795,0.064837255,0.6445191,-0.10289845,0.69078404,-0.33292556,0.46950477,801.8315,863.8828,802.23444,807.0696,660.40295,0.425537109375,-0.0618896484375,0.907958984375,5.166473388671875,-4.56085205078125,0.740203857421875,1,1.0,1.0,1.0,1.0,100.00
2021-04-04 11:25:51.816,0.33838645,0.28925398,-0.122210495,0.083642006,0.101996936,0.31835052,-0.34475014,-0.03803003,0.62862325,0.15957426,0.23064825,0.5125605,0.33947548,1.0023795,0.07105744,0.6540703,-0.0635514,0.69078404,-0.33959457,0.438288,788.93774,833.663,797.8022,813.1135,996.4469,0.43084716796875,-0.06207275390625,0.90185546875,3.6187744140625,-5.39825439453125,1.084136962890625,1,1.0,1.0,1.0,1.0,100.00
2021-04-04 11:25:52.341,0.050815623,0.28925398,-0.07289116,0.08321398,-0.12638165,0.31835052,-0.44753417,-0.14635058,-0.08790875,0.15957426,-0.09377511,0.53411937,0.33855045,1.0023795,0.0037254754,0.6185601,-0.02302476,0.69078404,-0.41684374,0.3584145,800.6227,958.5714,796.99634,827.619,767.1795,0.4239501953125,-0.068603515625,0.9053955078125,5.084228515625,-4.209442138671875,1.428070068359375,1,1.0,1.0,1.0,1.0,100.00
2021-04-04 11:25:52.841,0.18561855,0.28925398,0.049449712,0.16408634,0.028252684,0.31835052,-0.6853343,-0.22854455,0.4291201,0.15957426,-0.2469044,0.41876587,0.32243156,1.0023795,-0.084126025,0.6306979,-0.017234113,0.69078404,-0.4503102,0.3052454,849.7802,862.674,800.2198,819.15753,817.5458,0.4073486328125,-0.05517578125,0.91485595703125,1.03179931640625,-11.103057861328125,-0.650482177734375,1,1.0,1.0,1.0,1.0,100.00
2021-04-04 11:25:53.352,0.2876913,0.28925398,0.03557733,0.17264366,0.12417681,0.31835052,-0.37819418,-0.1466949,0.43978056,0.15957426,0.07546025,0.4975237,0.324781,1.0023795,-0.102504335,0.73414433,-0.08644085,0.69078404,-0.45423242,0.37516272,822.381,1519.8535,791.75824,797.8022,686.99634,0.462890625,-0.067626953125,0.882568359375,7.476806640625,-3.297271728515625,1.128997802734375,1,1.0,1.0,1.0,1.0,100.00
2021-04-04 11:25:53.865,0.42201707,0.28925398,0.22439139,0.31234598,0.16664682,0.31835052,-0.19901022,0.013182135,0.4519982,0.15957426,0.21770863,0.50406486,0.38614252,1.0023795,-0.045376923,0.71991694,-0.10577464,0.69078404,-0.44619772,0.44679877,682.96704,1488.4249,745.0183,673.69965,699.4872,0.36932373046875,0.0526123046875,0.89105224609375,24.28466796875,15.903167724609375,-64.92111206054688,1,1.0,2.0,1.0,1.0,100.00
2021-04-04 11:25:53.966,,,,,,,,,,,,,,,,,,,,,,,,,,,,,,,,,,,,,,/muse/elements/blink
2021-04-04 11:25:54.384,0.43330133,0.28925398,0.27360585,0.34164366,0.16764796,0.31835052,-0.09010686,0.059628654,0.41484764,0.15957426,0.21770863,0.41986287,0.44035098,1.0023795,-0.050533883,0.7429894,-0.14898273,0.69078404,-0.43291104,0.5145663,579.41394,835.6777,853.00366,622.52747,792.5641,0.17022705078125,0.281982421875,0.98681640625,-10.72174072265625,26.497802734375,-5.674896240234375,1,1.0,4.0,1.0,1.0,100.00
2021-04-04 11:25:54.569,,,,,,,,,,,,,,,,,,,,,,,,,,,,,,,,,,,,,,/muse/elements/blink
2021-04-04 11:25:54.798,,,,,,,,,,,,,,,,,,,,,,,,,,,,,,,,,,,,,,/muse/elements/blink
2021-04-04 11:25:54.897,0.52078795,0.28925398,0.34586588,0.47445256,0.07912799,0.31835052,-0.080969065,0.12668948,0.16538887,0.15957426,0.21770863,0.3360195,0.5817792,1.0023795,0.049319055,0.7413867,-0.07963325,0.69078404,-0.47183904,0.5334643,802.6374,0.0,795.78754,779.67035,749.45056,-0.18096923828125,0.16046142578125,0.95355224609375,10.5572509765625,16.172332763671875,9.4207763671875,1,1.0,4.0,1.0,1.0,100.00
2021-04-04 11:25:55.403,,,,,,,,,,,,,,,,,,,,,,,,,,,,,,,,,,,,,,/muse/elements/blink
2021-04-04 11:25:55.405,0.52078795,0.28925398,0.3518937,0.47445256,0.07912799,0.31835052,-0.14892635,0.12668948,0.16538887,0.15957426,0.20277773,0.3360195,0.5817792,1.0023795,0.09155774,0.7413867,-0.07963325,0.69078404,-0.49113744,0.5334643,732.9304,307.03296,683.7729,730.5128,832.0513,-0.09564208984375,0.23284912109375,0.9578857421875,27.866058349609375,-21.69769287109375,2.743988037109375,1,1.0,2.0,1.0,1.0,100.00
2021-04-04 11:25:55.928,0.52078795,0.28925398,0.3518937,0.47445256,0.07912799,0.31835052,-0.14892635,0.12668948,0.16538887,0.15957426,0.20277773,0.3360195,0.5817792,1.0023795,0.09155774,0.7413867,-0.07963325,0.69078404,-0.49113744,0.5334643,791.75824,381.17215,739.3773,787.72894,668.0586,0.0771484375,0.43310546875,0.931884765625,7.7459716796875,-11.6339111328125,8.052520751953125,1,1.0,2.0,1.0,1.0,100.00
2021-04-04 11:25:56.453,0.52078795,0.28925398,0.3518937,0.47445256,0.07912799,0.31835052,-0.14892635,0.12668948,0.16538887,0.15957426,0.20277773,0.3360195,0.5817792,1.0023795,0.09155774,0.7413867,-0.07963325,0.69078404,-0.49113744,0.5334643,782.8938,587.8755,791.3553,791.3553,674.90845,0.1591796875,0.38446044921875,0.9052734375,2.03369140625,-9.159088134765625,2.878570556640625,1,2.0,2.0,1.0,2.0,100.00
2021-04-04 11:25:56.980,0.52078795,0.28925398,0.3518937,0.47445256,0.07912799,0.31835052,-0.14892635,0.12668948,0.16538887,0.15957426,0.20277773,0.3360195,0.5817792,1.0023795,0.09155774,0.7413867,-0.07963325,0.69078404,-0.49113744,0.5334643,795.38464,649.92676,773.6264,778.46155,796.1905,0.228271484375,0.3701171875,0.9129638671875,3.401947021484375,-5.959014892578125,2.572021484375,1,2.0,1.0,1.0,2.0,100.00
2021-04-04 11:25:57.229,,,,,,,,,,,,,,,,,,,,,,,,,,,,,,,,,,,,,,/muse/elements/blink
2021-04-04 11:25:57.484,0.52078795,0.28925398,0.3518937,1.2566843,0.07912799,0.31835052,-0.14892635,1.0001593,0.16538887,0.15957426,0.20277773,0.927206,0.5817792,1.0023795,0.09155774,0.4940663,-0.07963325,0.69078404,-0.49113744,-0.33088976,855.42126,738.1685,784.90845,820.7692,782.49084,0.2420654296875,0.338623046875,0.9112548828125,4.059906005859375,-4.822540283203125,2.691650390625,1,1.0,2.0,1.0,1.0,100.00
2021-04-04 11:25:57.990,0.52078795,0.28925398,0.59323245,1.2566843,0.07912799,0.31835052,0.4198962,1.0001593,0.16538887,0.15957426,0.5689281,0.927206,0.5817792,1.0023795,0.16672242,0.4940663,-0.07963325,0.69078404,-0.21573204,-0.33088976,846.9597,734.5421,796.1905,824.7985,724.4689,0.24365234375,0.33551025390625,0.9034423828125,3.22998046875,-5.1739501953125,0.9271240234375,1,1.0,2.0,1.0,1.0,100.00
2021-04-04 11:25:58.504,1.0925182,0.28925398,0.50522107,1.2252891,1.1734531,0.31835052,0.3524098,1.0777084,1.1183499,0.15957426,0.6607603,1.0058844,0.8061457,1.0023795,0.17221104,0.7014916,0.41529107,0.69078404,-0.2875437,0.076609775,801.8315,60.03663,825.6044,836.4835,719.6337,0.27093505859375,0.16131591796875,0.948974609375,-51.582489013671875,1.966400146484375,75.2764892578125,1,1.0,2.0,1.0,1.0,100.00
2021-04-04 11:25:59.020,1.1767465,0.28925398,0.63207185,1.2158701,1.188094,0.31835052,0.34809268,1.0408907,1.2037387,0.15957426,0.58436686,0.8852126,0.8886055,1.0023795,0.16230014,0.75232595,-0.12981445,0.69078404,-0.31488174,0.32010505,816.337,332.82053,806.6667,815.5311,788.5348,0.1591796875,-0.16766357421875,0.97637939453125,9.16656494140625,4.373931884765625,8.53851318359375,1,1.0,2.0,1.0,1.0,100.00
2021-04-04 11:25:59.533,1.1962537,0.28925398,0.7535473,1.2158701,1.0449623,0.31835052,0.43777555,1.0408907,1.2037387,0.15957426,0.55430514,0.8852126,0.7160951,1.0023795,0.16816443,0.75232595,-0.14180039,0.69078404,-0.31982067,0.32010505,795.78754,880.40295,799.81683,819.15753,844.5421,0.091552734375,-0.0992431640625,0.99090576171875,11.925506591796875,-0.889739990234375,21.48834228515625,1,1.0,2.0,1.0,1.0,100.00
2021-04-04 11:26:00.034,1.2242779,0.28925398,1.0231577,1.2415872,1.0787065,0.31835052,0.8090392,1.0498103,1.153669,0.15957426,0.54414254,1.0939889,0.6172961,1.0023795,0.12615933,0.8324053,-0.13065006,0.69078404,-0.1647722,0.66976005,814.7253,475.8608,790.54944,806.6667,715.2015,0.11187744140625,-0.048828125,0.9959716796875,12.508697509765625,-5.510406494140625,7.140350341796875,1,1.0,2.0,1.0,1.0,100.00
2021-04-04 11:26:00.549,1.1254222,0.28925398,0.9357683,0.9910969,1.0496917,0.31835052,0.6899371,0.8690328,1.0668088,0.15957426,0.48161012,1.0821925,0.43376163,1.0023795,0.12625538,0.81626016,-0.11703898,0.69078404,-0.22094096,0.55427665,787.72894,628.1685,796.99634,797.3993,670.87915,0.12384033203125,-0.0040283203125,1.00146484375,7.843170166015625,-2.938385009765625,3.30474853515625,1,1.0,1.0,1.0,1.0,100.00
2021-04-04 11:26:01.057,1.0432332,0.28925398,0.8488738,0.9695432,1.0315378,0.31835052,0.52720696,0.7405354,1.0712835,0.15957426,0.5191357,1.0932103,0.41398033,1.0023795,0.09104416,0.777967,-0.1621151,0.69078404,-0.2483847,0.48063025,786.52014,658.7912,793.36993,780.4762,708.3516,0.106689453125,0.01739501953125,0.99896240234375,5.076751708984375,-4.0972900390625,2.4224853515625,1,1.0,1.0,1.0,1.0,100.00
2021-04-04 11:26:01.570,0.9700055,0.28925398,0.6488146,0.88132876,0.8120908,0.31835052,-8.7159744E-4,0.56239295,0.86009514,0.15957426,0.2164916,0.74449396,0.36907116,1.0023795,0.084293514,0.7201023,-0.18259871,0.69078404,-0.29452533,0.29847887,769.59705,687.3993,794.9817,805.8608,884.83514,0.0697021484375,0.0057373046875,0.99920654296875,5.443115234375,-2.983245849609375,3.78326416015625,1,1.0,1.0,1.0,1.0,100.00
2021-04-04 11:26:02.076,1.0162685,0.28925398,0.58070934,0.9320589,0.69276625,0.31835052,-0.058009658,0.4561997,0.83415234,0.15957426,0.16260648,0.660041,0.28710854,1.0023795,0.07508167,0.7198265,-0.23580822,0.69078404,-0.22543994,0.32403007,833.663,738.97437,784.10254,793.7729,790.54944,0.07208251953125,0.0323486328125,1.0076904296875,5.016937255859375,-2.87109375,3.611297607421875,1,1.0,1.0,1.0,1.0,100.00
2021-04-04 11:26:02.582,1.0358204,0.28925398,0.5878235,0.97566974,0.73847973,0.31835052,-0.043620948,0.42953762,0.77442205,0.15957426,0.08546611,0.6078775,0.26560733,1.0023795,0.119446605,0.72476447,-0.14739735,0.69078404,-0.16697596,0.17997883,810.293,716.4103,804.2491,810.293,847.76556,0.0615234375,0.03057861328125,0.9986572265625,5.60760498046875,-5.570220947265625,-4.0673828125,1,1.0,1.0,1.0,1.0,100.00
2021-04-04 11:26:03.109,0.55967635,0.28925398,0.8535847,0.34306675,0.44257176,0.31835052,0.04456511,0.40740532,0.31850582,0.15957426,0.20525758,0.081653066,-0.0063770204,1.0023795,-0.011206098,0.4446259,-0.5030614,0.69078404,-0.7709893,0.29908305,776.4469,658.7912,811.0989,807.47253,862.674,0.125,0.16497802734375,0.99249267578125,8.4039306640625,-5.345916748046875,-23.8958740234375,1,1.0,1.0,1.0,1.0,100.00
2021-04-04 11:26:03.615,0.55967635,0.28925398,0.8535847,0.34306675,0.44257176,0.31835052,0.04456511,0.40740532,0.31850582,0.15957426,0.20525758,0.081653066,-0.0063770204,1.0023795,-0.011206098,0.4446259,-0.5030614,0.69078404,-0.7709893,0.29908305,803.0403,562.49084,805.4579,801.4286,746.63007,0.10296630859375,0.14453125,0.98919677734375,1.816864013671875,-10.325469970703125,0.9869384765625,1,1.0,1.0,1.0,1.0,100.00
2021-04-04 11:26:04.124,0.55967635,0.28925398,0.9766604,0.34306675,0.44257176,0.31835052,0.08782258,0.40740532,0.31850582,0.15957426,0.19218414,0.081653066,-0.0063770204,1.0023795,-0.014317923,0.4446259,-0.5030614,0.69078404,-0.80480456,0.29908305,834.4689,807.0696,796.99634,810.293,794.57874,0.12457275390625,0.05340576171875,0.984375,0.418701171875,-6.886138916015625,18.490142822265625,1,1.0,1.0,1.0,1.0,100.00
2021-04-04 11:26:04.645,0.55967635,0.28925398,1.1873046,0.34306675,0.44257176,0.31835052,0.68907267,0.40740532,0.31850582,0.15957426,0.3740006,0.081653066,-0.0063770204,1.0023795,0.04830696,0.4446259,-0.5030614,0.69078404,-0.677805,0.29908305,817.9487,786.9231,794.17584,801.8315,798.60803,0.1934814453125,0.0322265625,0.9833984375,6.796417236328125,-6.0113525390625,0.949554443359375,1,1.0,1.0,1.0,1.0,100.00
2021-04-04 11:26:05.154,0.55967635,0.28925398,0.8325198,0.34306675,0.44257176,0.31835052,0.5713049,0.40740532,0.31850582,0.15957426,0.4328988,0.081653066,-0.0063770204,1.0023795,0.02644927,0.4446259,-0.5030614,0.69078404,-0.50175476,0.29908305,786.52014,817.5458,806.26373,803.44324,709.9634,0.198974609375,0.052734375,0.98455810546875,5.899200439453125,-4.08233642578125,-2.235565185546875,1,1.0,1.0,1.0,1.0,100.00
2021-04-04 11:26:05.675,-0.0561349,0.28925398,0.65010625,0.5525278,0.52130586,0.31835052,0.48468658,0.14690347,0.5671197,0.15957426,0.46752,0.59023434,0.31426346,1.0023795,0.047971632,0.47103852,-0.14612328,0.69078404,-0.5031651,-0.062023915,828.4249,919.4872,799.81683,805.05493,837.28937,0.2109375,0.05218505859375,0.9781494140625,7.237548828125,-5.495452880859375,-3.33465576171875,1,1.0,1.0,1.0,1.0,100.00
2021-04-04 11:26:06.042,,,,,,,,,,,,,,,,,,,,,,,,,,,,,,,,,,,,,,/muse/elements/blink
2021-04-04 11:26:06.203,-0.06527172,0.28925398,0.36520368,0.62472963,0.5250038,0.31835052,0.23493406,0.30161425,0.61886334,0.15957426,0.3237789,0.6115288,0.41368347,1.0023795,-0.028601564,0.53000194,-0.14703628,0.69078404,-0.54318476,-0.016325815,812.3077,996.4469,805.05493,816.7399,774.0293,0.22637939453125,0.03076171875,0.98138427734375,3.6187744140625,-4.987030029296875,7.140350341796875,1,1.0,1.0,1.0,1.0,100.00
2021-04-04 11:26:06.719,-0.124367975,0.28925398,0.35306922,0.66581446,0.44494742,0.31835052,0.24707566,0.38095212,0.5481953,0.15957426,-0.009534698,0.53003764,0.5209234,1.0023795,-0.056319945,0.5443121,-0.12033324,0.69078404,-0.5469452,0.02300067,818.3516,884.0293,806.26373,822.381,823.1868,0.23095703125,0.01824951171875,0.97894287109375,2.75146484375,-5.54779052734375,1.2860107421875,1,1.0,1.0,1.0,1.0,100.00
2021-04-04 11:26:07.224,-0.17384711,0.28925398,0.4029601,0.72338986,0.4537302,0.31835052,0.042382456,0.5015819,0.48459214,0.15957426,-0.12162328,0.5149512,0.6170244,1.0023795,-0.14886378,0.60904956,-0.104462735,0.69078404,-0.59119105,0.08802394,803.0403,898.5348,799.81683,795.78754,709.9634,0.235107421875,0.0267333984375,0.9752197265625,4.972076416015625,-2.519683837890625,5.00946044921875,1,1.0,1.0,1.0,1.0,100.00
2021-04-04 11:26:07.750,0.45733416,0.28925398,-0.11579035,0.66187394,0.16998959,0.31835052,-0.14256032,0.13297375,0.29444963,0.15957426,-0.008325477,0.32573715,0.15893254,1.0023795,-0.091097586,0.7707511,-0.12793678,0.69078404,-0.56450236,0.0031913947,785.7143,808.2784,799.81683,805.05493,704.3223,0.19891357421875,0.00115966796875,0.98675537109375,5.495452880859375,1.6748046875,1.8841552734375,1,1.0,1.0,1.0,1.0,100.00
2021-04-04 11:26:08.276,0.2694635,0.28925398,-0.21925516,0.47549435,0.2403923,0.31835052,-0.22910629,0.27742273,0.3584707,0.15957426,-0.008325477,0.34221998,0.21929443,1.0023795,-0.08316411,0.67532897,-0.17722565,0.69078404,-0.5663602,0.009953623,796.1905,764.35895,816.7399,837.6923,817.1429,0.08343505859375,0.03875732421875,0.99676513671875,7.753448486328125,1.562652587890625,-3.087921142578125,1,1.0,1.0,1.0,1.0,100.00
2021-04-04 11:26:08.783,0.3158851,0.28925398,-0.046348847,0.49378687,0.26052785,0.31835052,-0.1162619,0.22423206,0.3474589,0.15957426,0.0292876,0.42114675,0.15668768,1.0023795,-0.07764062,0.6562934,-0.18671766,0.69078404,-0.41614768,0.1678885,811.9048,801.02563,782.49084,799.011,923.1135,-0.02410888671875,0.109375,1.033203125,15.723724365234375,-10.3179931640625,14.213409423828125,1,1.0,1.0,1.0,1.0,100.00
2021-04-04 11:26:09.288,0.33592218,0.28925398,0.5496746,0.4428874,0.22813587,0.31835052,-0.0067754933,0.21963817,0.26151773,0.15957426,-0.042869195,0.4147969,0.10656138,1.0023795,0.09807991,0.5785,-0.19168143,0.69078404,-0.43279374,0.2169932,797.8022,714.3956,720.84247,766.3736,718.8278,0.0281982421875,0.07879638671875,1.04022216796875,-4.2767333984375,-13.7872314453125,23.050994873046875,1,1.0,1.0,1.0,1.0,100.00
2021-04-04 11:26:09.805,0.909725,0.28925398,0.68267524,0.5407818,0.24727921,0.31835052,0.092250645,0.1507263,0.5228057,0.15957426,-0.042869195,0.3793812,0.02860974,1.0023795,0.15324761,0.5985096,-0.16395403,0.69078404,-0.38257304,0.2786798,712.381,651.53845,789.7436,806.26373,768.7912,0.11285400390625,-0.11773681640625,0.92047119140625,-1.016845703125,-2.04864501953125,2.7215576171875,1,1.0,1.0,1.0,1.0,100.00
2021-04-04 11:26:10.332,1.153709,0.28925398,0.9660383,0.6070821,0.15571906,0.31835052,0.16275948,0.23200555,0.5058041,0.15957426,-0.21990286,0.28058526,0.09179035,1.0023795,0.3386289,0.5779524,-0.11111227,0.69078404,-0.6949099,0.07311468,742.1978,585.4579,784.10254,794.57874,705.9341,-0.14794921875,0.1922607421875,1.2298583984375,26.086578369140625,17.533111572265625,4.269256591796875,1,1.0,4.0,1.0,1.0,100.00
2021-04-04 11:26:10.828,,,,,,,,,,,,,,,,,,,,,,,,,,,,,,,,,,,,,,/muse/elements/blink
2021-04-04 11:26:10.855,1.153709,0.28925398,0.9660383,0.6070821,0.15571906,0.31835052,0.16275948,0.23200555,0.5058041,0.15957426,-0.21990286,0.28058526,0.09179035,1.0023795,0.3386289,0.5779524,-0.11111227,0.69078404,-0.6949099,0.07311468,609.2308,640.65936,694.65204,644.2857,871.9414,-0.2686767578125,0.3114013671875,0.85528564453125,-1.5850830078125,-6.4599609375,2.01873779296875,1,1.0,2.0,1.0,1.0,100.00
2021-04-04 11:26:11.384,1.153709,0.28925398,0.9660383,0.6070821,0.15571906,0.31835052,0.16275948,0.23200555,0.5058041,0.15957426,-0.21990286,0.28058526,0.09179035,1.0023795,0.3386289,0.5779524,-0.11111227,0.69078404,-0.6949099,0.07311468,852.6007,1046.4103,787.326,810.696,871.53845,0.170654296875,-0.29022216796875,1.08349609375,4.47113037109375,-6.706695556640625,3.207550048828125,1,1.0,2.0,1.0,1.0,100.00
2021-04-04 11:26:11.420,,,,,,,,,,,,,,,,,,,,,,,,,,,,,,,,,,,,,,/muse/elements/blink
2021-04-04 11:26:11.893,1.153709,0.28925398,0.9660383,0.6070821,0.15571906,0.31835052,0.16275948,0.23200555,0.5058041,0.15957426,-0.21990286,0.28058526,0.09179035,1.0023795,0.3386289,0.5779524,-0.11111227,0.69078404,-0.6949099,0.07311468,803.8461,634.61536,781.685,783.2967,765.16486,-0.1561279296875,0.170166015625,0.96136474609375,16.209716796875,-6.53472900390625,5.084228515625,1,1.0,2.0,1.0,1.0,100.00
2021-04-04 11:26:12.396,1.153709,0.28925398,0.9660383,0.6070821,0.15571906,0.31835052,0.16275948,0.23200555,0.5058041,0.15957426,-0.21990286,0.28058526,0.09179035,1.0023795,0.3386289,0.5779524,-0.11111227,0.69078404,-0.6949099,0.07311468,811.0989,741.79486,809.4872,813.1135,758.71796,0.12347412109375,0.14715576171875,1.0516357421875,1.12152099609375,-22.093963623046875,3.028106689453125,1,2.0,2.0,1.0,2.0,100.00
2021-04-04 11:26:12.912,1.153709,0.28925398,0.9660383,0.6070821,0.15571906,0.31835052,0.16275948,0.23200555,0.5058041,0.15957426,-0.21990286,0.28058526,0.09179035,1.0023795,0.3386289,0.5779524,-0.11111227,0.69078404,-0.6949099,0.07311468,801.02563,704.3223,807.0696,819.15753,774.0293,0.00848388671875,0.0927734375,1.01898193359375,1.293487548828125,-6.639404296875,-1.27105712890625,1,2.0,1.0,1.0,2.0,100.00
2021-04-04 11:26:13.427,1.1948732,0.28925398,0.99754167,0.91323674,0.9679964,0.31835052,0.6589009,0.63717884,0.9959069,0.15957426,0.7042956,0.9327744,0.5137609,1.0023795,0.31865916,0.7776817,0.021602651,0.69078404,-0.22380401,0.4590199,800.2198,724.0659,818.7546,848.1685,749.45056,-0.0203857421875,-0.13421630859375,0.998046875,-18.961181640625,1.816864013671875,-2.026214599609375,1,1.0,1.0,1.0,1.0,100.00
2021-04-04 11:26:13.933,1.1679223,0.28925398,0.99754167,0.963159,0.86836225,0.31835052,0.6589009,0.59720486,1.029926,0.15957426,0.7042956,0.9468783,0.52818394,1.0023795,0.31865916,0.81881464,0.036183268,0.69078404,-0.22380401,0.46608964,792.1612,821.5751,716.4103,726.8865,796.5934,0.22802734375,-0.2386474609375,0.835205078125,32.561492919921875,-8.32916259765625,22.96875,1,1.0,1.0,1.0,1.0,100.00
2021-04-04 11:26:13.946,,,,,,,,,,,,,,,,,,,,,,,,,,,,,,,,,,,,,,/muse/elements/blink
2021-04-04 11:26:14.436,1.1454763,0.28925398,0.9334518,0.93195367,0.48074242,0.31835052,-0.09332438,0.28787932,0.80531144,0.15957426,0.17785223,0.70963943,0.49508977,1.0023795,0.16692361,0.8023077,0.04443202,0.69078404,-0.2754143,0.42186558,792.5641,869.5238,782.49084,790.14655,744.21246,-0.02655029296875,0.0286865234375,0.9571533203125,14.587249755859375,-5.390777587890625,-2.4822998046875,1,1.0,1.0,1.0,1.0,100.00
2021-04-04 11:26:14.939,1.0569675,0.28925398,1.0901375,1.0569085,0.225453,0.31835052,-0.27683732,0.32554674,0.79298276,0.15957426,-0.15191483,0.2636581,0.5759818,1.0023795,0.2202578,0.8935189,0.065727495,0.69078404,-0.29983205,0.4964062,778.46155,691.8315,809.89014,813.91943,784.10254,0.0198974609375,0.208984375,1.02569580078125,18.161163330078125,6.53472900390625,2.205657958984375,1,1.0,1.0,1.0,1.0,100.00
2021-04-04 11:26:15.441,1.0569675,0.28925398,1.0901375,1.0569085,0.225453,0.31835052,-0.27683732,0.32554674,0.79298276,0.15957426,-0.15191483,0.2636581,0.5759818,1.0023795,0.2202578,0.8935189,0.065727495,0.69078404,-0.29983205,0.4964062,740.18317,784.10254,734.5421,768.3883,1074.6154,-0.160888671875,0.1397705078125,0.9910888671875,16.73309326171875,-2.579498291015625,-10.64697265625,1,1.0,1.0,1.0,1.0,100.00
2021-04-04 11:26:15.970,1.0569675,0.28925398,1.0901375,1.0569085,0.225453,0.31835052,-0.27683732,0.32554674,0.79298276,0.15957426,-0.15191483,0.2636581,0.5759818,1.0023795,0.2202578,0.8935189,0.065727495,0.69078404,-0.29983205,0.4964062,792.96704,754.2857,782.49084,788.1319,713.1868,-0.1195068359375,0.15460205078125,0.9842529296875,-0.5682373046875,-3.312225341796875,-7.29736328125,1,1.0,1.0,1.0,1.0,100.00
2021-04-04 11:26:16.495,1.0569675,0.28925398,1.0901375,1.0569085,0.225453,0.31835052,-0.27683732,0.32554674,0.79298276,0.15957426,-0.15191483,0.2636581,0.5759818,1.0023795,0.2202578,0.8935189,0.065727495,0.69078404,-0.29983205,0.4964062,814.7253,754.68866,803.8461,811.50183,746.2271,-0.1029052734375,0.1732177734375,1.01702880859375,7.125396728515625,-1.36077880859375,6.53472900390625,1,2.0,1.0,1.0,2.0,100.00
2021-04-04 11:26:17.009,1.0569675,0.28925398,1.0901375,1.0569085,0.225453,0.31835052,-0.27683732,0.32554674,0.79298276,0.15957426,-0.15191483,0.2636581,0.5759818,1.0023795,0.2202578,0.8935189,0.065727495,0.69078404,-0.29983205,0.4964062,820.3663,788.1319,823.1868,840.9158,861.4652,-0.1343994140625,0.16827392578125,0.9940185546875,1.652374267578125,-7.91046142578125,-3.529052734375,1,2.0,1.0,1.0,2.0,100.00
2021-04-04 11:26:17.535,1.0569675,0.28925398,1.0901375,1.0569085,0.225453,0.31835052,-0.27683732,0.32554674,0.79298276,0.15957426,-0.15191483,0.2636581,0.5759818,1.0023795,0.2202578,0.8935189,0.065727495,0.69078404,-0.29983205,0.4964062,761.53845,738.5714,745.0183,753.47986,775.2381,-0.0706787109375,0.1494140625,0.9737548828125,5.7421875,-4.844970703125,4.687957763671875,1,2.0,1.0,1.0,2.0,100.00
2021-04-04 11:26:18.059,1.0569675,0.28925398,1.0901375,1.0569085,0.225453,0.31835052,-0.27683732,0.32554674,0.79298276,0.15957426,-0.15191483,0.2636581,0.5759818,1.0023795,0.2202578,0.8935189,0.065727495,0.69078404,-0.29983205,0.4964062,799.41394,766.77655,806.6667,803.44324,788.5348,-0.09906005859375,0.1402587890625,0.9912109375,4.209442138671875,-3.887939453125,0.478515625,1,2.0,1.0,1.0,2.0,100.00
2021-04-04 11:26:18.563,1.0569675,0.28925398,1.0901375,1.0569085,0.225453,0.31835052,-0.27683732,0.32554674,0.79298276,0.15957426,-0.15191483,0.2636581,0.5759818,1.0023795,0.2202578,0.8935189,0.065727495,0.69078404,-0.29983205,0.4964062,801.4286,790.9524,796.1905,795.38464,717.619,-0.079833984375,0.139404296875,0.98150634765625,5.166473388671875,-6.10107421875,-3.043060302734375,1,2.0,1.0,1.0,2.0,100.00
2021-04-04 11:26:19.084,1.0569675,0.28925398,1.1895807,1.0569085,0.225453,0.31835052,0.6227165,0.32554674,0.79298276,0.15957426,0.2968218,0.2636581,0.5759818,1.0023795,0.19746363,0.8935189,0.065727495,0.69078404,-0.32374197,0.4964062,794.17584,796.99634,803.0403,806.6667,786.52014,-0.0045166015625,0.15625,1.02374267578125,5.9515380859375,-6.89361572265625,-22.183685302734375,1,2.0,1.0,1.0,2.0,100.00
2021-04-04 11:26:19.591,1.0569675,0.28925398,1.1525824,1.0569085,0.225453,0.31835052,0.5345302,0.32554674,0.79298276,0.15957426,0.3043912,0.2636581,0.5759818,1.0023795,0.24983323,0.8935189,0.065727495,0.69078404,-0.388274,0.4964062,716.8132,736.55676,755.09155,714.7985,757.9121,-0.04144287109375,0.104736328125,1.0057373046875,0.01495361328125,3.887939453125,12.27691650390625,1,2.0,1.0,1.0,2.0,100.00
2021-04-04 11:26:19.754,,,,,,,,,,,,,,,,,,,,,,,,,,,,,,,,,,,,,,/muse/elements/blink
2021-04-04 11:26:20.094,1.0569675,0.28925398,1.1525824,1.0569085,0.225453,0.31835052,0.5345302,0.32554674,0.79298276,0.15957426,0.3043912,0.2636581,0.5759818,1.0023795,0.24983323,0.8935189,0.065727495,0.69078404,-0.388274,0.4964062,801.4286,814.7253,796.1905,813.91943,779.2674,0.00634765625,0.102294921875,1.0047607421875,11.536712646484375,-11.97784423828125,15.56671142578125,1,2.0,1.0,1.0,2.0,100.00
2021-04-04 11:26:20.601,1.0569675,0.28925398,1.1522163,1.0569085,0.225453,0.31835052,0.50115454,0.32554674,0.79298276,0.15957426,0.27025032,0.2636581,0.5759818,1.0023795,0.33792338,0.8935189,0.065727495,0.69078404,-0.4210537,0.4964062,816.337,797.8022,811.50183,824.3956,805.05493,-0.05523681640625,0.08697509765625,0.99786376953125,-1.92901611328125,-1.98883056640625,11.05072021484375,1,2.0,1.0,1.0,2.0,100.00
2021-04-04 11:26:21.110,1.0569675,0.28925398,1.1522163,1.0569085,0.225453,0.31835052,0.50115454,0.32554674,0.79298276,0.15957426,0.27025032,0.2636581,0.5759818,1.0023795,0.33792338,0.8935189,0.065727495,0.69078404,-0.4210537,0.4964062,804.65204,753.47986,818.7546,817.1429,813.91943,-0.086669921875,0.0528564453125,1.00469970703125,1.293487548828125,1.428070068359375,-2.848663330078125,1,2.0,1.0,1.0,2.0,100.00
2021-04-04 11:26:21.626,0.46449116,0.28925398,0.17261253,0.19547883,0.30755433,0.31835052,-0.22893625,0.18016425,0.6004402,0.15957426,-0.15466519,0.4016303,0.35807994,1.0023795,-0.013733609,0.20547104,-0.005717363,0.69078404,-0.3416908,-0.09740358,804.2491,802.23444,796.5934,804.2491,804.2491,-0.04302978515625,0.08294677734375,1.0169677734375,7.91046142578125,-7.6263427734375,0.22430419921875,1,1.0,1.0,1.0,1.0,100.00
2021-04-04 11:26:22.135,0.5347241,0.28925398,0.11865626,0.23493724,0.6036306,0.31835052,-0.17689519,0.18522805,1.164489,0.15957426,0.020889467,0.48754844,0.34286493,1.0023795,-0.013150496,0.23082203,-0.07999875,0.69078404,-0.41327554,-0.11579228,807.47253,784.5055,807.0696,823.1868,823.1868,-0.0550537109375,0.06573486328125,0.9949951171875,4.418792724609375,-8.7030029296875,-2.0037841796875,1,1.0,1.0,1.0,1.0,100.00
2021-04-04 11:26:22.640,0.5111651,0.28925398,0.19241758,0.21026428,0.5987538,0.31835052,0.06764233,0.13280587,1.1233929,0.15957426,0.18892208,0.48754844,0.33428994,1.0023795,-0.006034876,0.24561131,-0.10194716,0.69078404,-0.49108687,-0.081254415,816.7399,835.6777,805.8608,808.68134,712.381,-0.010986328125,0.038818359375,0.9969482421875,-5.136566162109375,-11.304931640625,38.856964111328125,1,1.0,1.0,1.0,1.0,100.00
2021-04-04 11:26:23.164,1.5801278,0.28925398,0.50388664,1.5730758,1.3190566,0.31835052,0.30117214,1.2984374,1.1861764,0.15957426,0.16207457,1.1242601,0.4828697,1.0023795,-0.012114619,0.32136014,-0.112185314,0.69078404,-0.5857938,-0.04235832,799.81683,819.15753,801.8315,802.23444,646.7033,0.02264404296875,0.0126953125,1.004638671875,2.878570556640625,-5.854339599609375,-2.28790283203125,1,1.0,1.0,1.0,1.0,100.00
2021-04-04 11:26:23.678,1.9052064,0.28925398,0.6498852,1.8062291,1.5845196,0.31835052,0.32729477,1.5267788,1.0587537,0.15957426,0.26406163,1.115444,0.6257803,1.0023795,-0.023875033,0.38544065,-0.013405665,0.69078404,-0.6628746,0.018017529,785.31134,786.1172,803.0403,815.9341,838.49817,0.03851318359375,0.02081298828125,0.9951171875,4.613189697265625,-4.224395751953125,-4.448699951171875,1,1.0,1.0,1.0,1.0,100.00
2021-04-04 11:26:24.190,1.6088072,0.28925398,0.5963153,1.5749558,1.3206426,0.31835052,0.08818061,1.3069763,1.0587537,0.15957426,0.17343679,1.1053729,0.46042827,1.0023795,0.015390541,0.40695432,-0.17470565,0.69078404,-0.7050717,-0.06499293,813.91943,835.6777,800.2198,819.9634,866.7033,0.05828857421875,0.04296875,1.00579833984375,8.95721435546875,-6.519775390625,-3.416900634765625,1,1.0,1.0,1.0,1.0,100.00
2021-04-04 11:26:24.698,0.48310232,0.28925398,0.44274408,0.3155891,0.48480564,0.31835052,-0.059102286,0.27549368,0.37691632,0.15957426,0.1417485,0.39116642,0.16535985,1.0023795,0.0315539,0.45175594,-0.47405553,0.69078404,-0.6195852,-0.13137075,819.9634,790.54944,809.0842,817.5458,767.5824,0.046875,0.1119384765625,1.0147705078125,8.830108642578125,-8.441314697265625,-4.20196533203125,1,1.0,1.0,1.0,1.0,100.00
2021-04-04 11:26:25.228,0.574623,0.28925398,0.803446,0.3155891,0.49359265,0.31835052,0.33370283,0.27549368,0.47023413,0.15957426,0.20915256,0.39116642,0.19642061,1.0023795,0.063853554,0.45175594,-0.42782065,0.69078404,-0.50451154,-0.13137075,804.65204,749.45056,804.2491,811.9048,1012.5641,0.04742431640625,0.1209716796875,0.9954833984375,4.83001708984375,-5.443115234375,2.743988037109375,1,1.0,1.0,1.0,1.0,100.00
2021-04-04 11:26:25.527,,,,,,,,,,,,,,,,,,,,,,,,,,,,,,,,,,,,,,/muse/elements/blink
2021-04-04 11:26:25.742,0.8019032,0.28925398,0.81749773,0.19644487,0.54190856,0.31835052,0.40540427,0.14638981,0.48294082,0.15957426,0.4016794,0.29782066,0.29858336,1.0023795,-0.03483452,0.4783974,-0.25377977,0.69078404,-0.45987585,-0.082040496,807.0696,793.36993,797.8022,799.81683,666.8498,0.02862548828125,0.11712646484375,0.9881591796875,4.5758056640625,-3.551483154296875,-1.09161376953125,1,1.0,1.0,1.0,1.0,100.00
2021-04-04 11:26:26.264,0.8643301,0.46295366,0.7027487,0.19644487,0.62323475,0.63426626,0.30362162,0.14638981,0.48294082,0.4727929,0.3980971,0.29782066,0.37161604,0.74675834,-0.035019662,0.4783974,-0.15806389,0.48034468,-0.4873309,-0.082040496,889.67035,780.4762,831.6484,900.14655,831.2454,0.01544189453125,0.10504150390625,1.0087890625,5.286102294921875,-2.983245849609375,5.7122802734375,1,1.0,1.0,1.0,1.0,100.00
2021-04-04 11:26:26.770,0.8643301,0.51366425,0.5471345,0.19644487,0.62323475,0.57362765,0.22728142,0.14638981,0.48294082,0.6056939,0.38162968,0.29782066,0.37161604,0.7557138,-0.046405688,0.4783974,-0.15806389,0.451542,-0.5530778,-0.082040496,822.381,830.4396,803.0403,806.6667,767.5824,0.05419921875,0.1036376953125,1.00372314453125,7.140350341796875,-4.71038818359375,5.18890380859375,1,1.0,1.0,1.0,1.0,100.00
2021-04-04 11:26:27.288,0.8643301,0.60285515,0.73739296,0.19644487,0.62323475,0.53838915,0.3454223,0.14638981,0.48294082,0.5983394,0.1959395,0.29782066,0.37161604,0.7614356,0.018603452,0.4783974,-0.15806389,0.45085344,-0.58717316,-0.082040496,816.337,832.0513,797.8022,802.23444,601.1722,0.08087158203125,0.0797119140625,1.00042724609375,3.81317138671875,-6.033782958984375,3.409423828125,1,1.0,1.0,1.0,1.0,100.00
2021-04-04 11:26:27.767,,,,,,,,,,,,,,,,,,,,,,,,,,,,,,,,,,,,,,/muse/elements/blink
2021-04-04 11:26:27.793,0.8643301,0.65682954,0.7829978,0.19644487,0.62323475,0.27349365,0.4101254,0.14638981,0.48294082,0.5819495,0.25797936,0.29782066,0.37161604,0.7821255,-0.029280132,0.4783974,-0.15806389,0.32450503,-0.5503744,-0.082040496,824.3956,793.36993,805.4579,808.68134,723.663,0.09173583984375,0.10125732421875,0.9971923828125,6.063690185546875,-2.669219970703125,-0.874786376953125,1,2.0,1.0,1.0,2.0,100.00
2021-04-04 11:26:28.308,0.8643301,0.65682954,0.9983223,0.19644487,0.62323475,0.27349365,0.6802784,0.14638981,0.48294082,0.5819495,0.62441415,0.29782066,0.37161604,0.7821255,-5.3178525E-4,0.4783974,-0.15806389,0.32450503,-0.5282427,-0.082040496,808.68134,829.2308,802.23444,807.8755,830.0366,0.10107421875,0.099365234375,1.00018310546875,4.35150146484375,-3.970184326171875,-1.31591796875,1,2.0,1.0,1.0,2.0,100.00
2021-04-04 11:26:28.560,,,,,,,,,,,,,,,,,,,,,,,,,,,,,,,,,,,,,,/muse/elements/blink
2021-04-04 11:26:28.809,0.8643301,0.65682954,1.0465711,0.19644487,0.62323475,0.27349365,0.7695149,0.14638981,0.48294082,0.5819495,0.62441415,0.29782066,0.37161604,0.7821255,0.007979528,0.4783974,-0.15806389,0.32450503,-0.46987033,-0.082040496,835.2747,1625.4213,835.6777,836.4835,730.5128,0.03350830078125,0.19818115234375,1.00335693359375,11.79840087890625,4.822540283203125,-33.1072998046875,1,2.0,1.0,1.0,2.0,100.00
2021-04-04 11:26:29.318,0.8643301,0.65682954,1.2660198,0.19644487,0.62323475,0.27349365,0.98003536,0.14638981,0.48294082,0.5819495,0.62441415,0.29782066,0.37161604,0.7821255,0.10425893,0.4783974,-0.15806389,0.32450503,-0.48237392,-0.082040496,940.84247,240.95238,836.08057,971.06226,794.57874,-0.03411865234375,0.16668701171875,0.97906494140625,-1.15142822265625,-4.80010986328125,27.746429443359375,1,2.0,1.0,1.0,2.0,100.00
2021-04-04 11:26:29.368,,,,,,,,,,,,,,,,,,,,,,,,,,,,,,,,,,,,,,/muse/elements/blink
2021-04-04 11:26:29.830,0.8643301,0.65682954,1.2660198,0.19644487,0.62323475,0.27349365,0.98003536,0.14638981,0.48294082,0.5819495,0.62441415,0.29782066,0.37161604,0.7821255,0.10425893,0.4783974,-0.15806389,0.32450503,-0.48237392,-0.082040496,828.4249,716.4103,809.4872,820.7692,831.6484,-0.00469970703125,0.149658203125,0.9798583984375,3.3197021484375,-10.549774169921875,17.047119140625,1,2.0,2.0,1.0,2.0,100.00
2021-04-04 11:26:30.232,,,,,,,,,,,,,,,,,,,,,,,,,,,,,,,,,,,,,,/muse/elements/blink
2021-04-04 11:26:30.366,0.8643301,0.65682954,1.2660198,0.19644487,0.62323475,0.27349365,0.98003536,0.14638981,0.48294082,0.5819495,0.62441415,0.29782066,0.37161604,0.7821255,0.10425893,0.4783974,-0.15806389,0.32450503,-0.48237392,-0.082040496,808.2784,760.32965,807.47253,826.0073,754.2857,0.0360107421875,0.10467529296875,1.0,4.41131591796875,-6.183319091796875,5.450592041015625,1,2.0,1.0,1.0,2.0,100.00
2021-04-04 11:26:30.592,,,,,,,,,,,,,,,,,,,,,,,,,,,,,,,,,,,,,,/muse/elements/blink
2021-04-04 11:26:30.881,0.8643301,0.65682954,0.57738125,0.19644487,0.62323475,0.27349365,0.43781596,0.14638981,0.48294082,0.5819495,0.44561043,0.29782066,0.37161604,0.7821255,0.12728369,0.4783974,-0.15806389,0.32450503,-0.7354018,-0.082040496,800.6227,745.82416,786.1172,802.23444,794.17584,0.0189208984375,0.1260986328125,0.9996337890625,4.5758056640625,-2.235565185546875,1.248626708984375,1,2.0,1.0,1.0,2.0,100.00
2021-04-04 11:26:31.398,0.8643301,0.65682954,0.67499137,0.19644487,0.62323475,0.27349365,0.36312324,0.14638981,0.48294082,0.5819495,0.55685145,0.29782066,0.37161604,0.7821255,0.20307891,0.4783974,-0.15806389,0.32450503,-0.5253019,-0.082040496,796.99634,755.4945,777.25275,774.83514,629.7802,-0.028564453125,0.1146240234375,0.99871826171875,5.36834716796875,-3.96270751953125,-0.710296630859375,1,2.0,1.0,1.0,2.0,100.00
2021-04-04 11:26:31.899,0.8643301,0.65682954,1.1495022,0.19644487,0.62323475,0.27349365,0.45626464,0.14638981,0.48294082,0.5819495,0.6150873,0.29782066,0.37161604,0.7821255,0.19816554,0.4783974,-0.15806389,0.32450503,-0.37524807,-0.082040496,812.3077,737.3626,805.8608,819.15753,789.7436,-0.029541015625,0.11126708984375,0.99017333984375,4.77020263671875,-5.465545654296875,-0.605621337890625,1,2.0,1.0,1.0,2.0,100.00
2021-04-04 11:26:32.316,,,,,,,,,,,,,,,,,,,,,,,,,,,,,,,,,,,,,,/muse/elements/blink
2021-04-04 11:26:32.427,1.3118676,0.65682954,1.3463917,1.397878,0.77689254,0.27349365,0.66336304,0.9258962,0.91013205,0.5819495,0.48627952,0.51294315,0.46483618,0.7821255,0.2672548,0.60056186,-0.10524469,0.32450503,-0.27971765,0.07417654,787.326,770.80585,783.69965,787.72894,662.4176,-0.01287841796875,0.11688232421875,0.98858642578125,6.243133544921875,-9.70489501953125,1.33087158203125,1,1.0,1.0,1.0,1.0,100.00
2021-04-04 11:26:32.567,,,,,,,,,,,,,,,,,,,,,,,,,,,,,,,,,,,,,,/muse/elements/blink
2021-04-04 11:26:32.924,,,,,,,,,,,,,,,,,,,,,,,,,,,,,,,,,,,,,,/muse/elements/blink
2021-04-04 11:26:32.938,1.3118676,0.65682954,1.4589404,1.397878,0.77689254,0.27349365,0.7703635,0.9258962,0.91013205,0.5819495,0.45980766,0.51294315,0.46483618,0.7821255,0.2645049,0.60056186,-0.10524469,0.32450503,-0.25314978,0.07417654,799.011,758.71796,792.96704,804.2491,769.19415,0.021240234375,0.17205810546875,1.0059814453125,11.58905029296875,-16.38916015625,2.97576904296875,1,1.0,1.0,1.0,1.0,100.00
2021-04-04 11:26:33.451,1.275878,0.65682954,1.4104657,1.3798794,0.8209863,0.27349365,0.89182323,0.9750715,0.90185696,0.5819495,0.456421,0.5102934,0.47301337,0.7821255,0.3245203,0.6326762,-0.10999088,0.32450503,-0.32816118,0.10125195,810.293,781.685,798.20514,805.05493,801.8315,0.05322265625,0.1685791015625,0.9957275390625,1.487884521484375,-3.00567626953125,-3.24493408203125,1,1.0,1.0,1.0,1.0,100.00
2021-04-04 11:26:33.778,,,,,,,,,,,,,,,,,,,,,,,,,,,,,,,,,,,,,,/muse/elements/blink
2021-04-04 11:26:33.958,1.275878,0.65682954,1.4104657,1.3798794,0.8209863,0.27349365,0.89182323,0.9750715,0.90185696,0.5819495,0.456421,0.5102934,0.47301337,0.7821255,0.3245203,0.6326762,-0.10999088,0.32450503,-0.32816118,0.10125195,808.68134,794.9817,802.6374,816.337,723.663,-0.02850341796875,0.150390625,0.9925537109375,1.697235107421875,4.9346923828125,2.280426025390625,1,1.0,1.0,1.0,1.0,100.00
2021-04-04 11:26:34.464,1.275878,0.65682954,1.4104657,1.3798794,0.8209863,0.27349365,0.89182323,0.9750715,0.90185696,0.5819495,0.456421,0.5102934,0.47301337,0.7821255,0.3245203,0.6326762,-0.10999088,0.32450503,-0.32816118,0.10125195,800.2198,782.49084,802.23444,807.8755,767.1795,-0.02264404296875,0.1324462890625,0.99261474609375,6.258087158203125,-3.828125,1.42059326171875,1,1.0,1.0,1.0,1.0,100.00
2021-04-04 11:26:34.968,1.275878,0.6148928,0.28983086,1.3798794,0.8209863,0.15081537,-0.18072462,0.9750715,0.90185696,0.46682164,0.4034292,0.5102934,0.47301337,0.86662644,0.15240552,0.6326762,-0.10999088,0.2267576,-0.25792992,0.10125195,826.4103,779.67035,809.4872,856.2271,873.5531,0.01556396484375,0.1318359375,1.0008544921875,-2.130889892578125,-8.037567138671875,13.74237060546875,1,2.0,1.0,1.0,2.0,100.00
2021-04-04 11:26:35.174,,,,,,,,,,,,,,,,,,,,,,,,,,,,,,,,,,,,,,/muse/elements/blink
2021-04-04 11:26:35.475,1.275878,0.5656688,0.7579641,1.3798794,0.8209863,0.15513639,-0.031210765,0.9750715,0.90185696,0.52109283,0.40345308,0.5102934,0.47301337,0.7065638,0.071480595,0.6326762,-0.10999088,0.25926384,-0.2758157,0.10125195,805.8608,821.978,800.2198,806.26373,763.1502,0.027099609375,0.07098388671875,1.001708984375,2.714080810546875,-6.766510009765625,6.945953369140625,1,2.0,1.0,1.0,2.0,100.00
2021-04-04 11:26:35.989,1.275878,0.690131,0.84356517,1.3798794,0.8209863,0.38198692,0.30557677,0.9750715,0.90185696,0.6331518,0.29342982,0.5102934,0.47301337,0.691012,-0.017350258,0.6326762,-0.10999088,0.35237643,-0.32558173,0.10125195,826.0073,807.8755,800.2198,810.293,775.2381,0.072265625,0.069580078125,0.98907470703125,5.24871826171875,-10.09368896484375,4.927215576171875,1,2.0,1.0,1.0,2.0,100.00
2021-04-04 11:26:36.496,1.275878,0.6821557,0.90488046,1.3798794,0.8209863,0.47534502,0.36887282,0.9750715,0.90185696,0.51238155,0.25274864,0.5102934,0.47301337,0.6388026,-0.063222244,0.6326762,-0.10999088,0.43228585,-0.36459628,0.10125195,785.31134,793.7729,800.2198,817.1429,874.35895,0.106689453125,0.09149169921875,0.98858642578125,2.572021484375,-1.861724853515625,-2.03369140625,1,2.0,1.0,1.0,2.0,100.00
2021-04-04 11:26:36.998,0.93504953,0.736471,0.8194132,1.3798794,0.5725078,0.56694007,0.38523638,0.9750715,0.66816294,0.51238155,0.25238007,0.5102934,0.37299794,0.67165035,0.07022307,0.6326762,-0.29511207,0.4851673,-0.47312304,0.10125195,812.3077,804.2491,805.05493,809.4872,739.7802,0.0550537109375,0.0819091796875,0.99920654296875,3.75335693359375,-1.1663818359375,-0.426177978515625,1,1.0,1.0,1.0,1.0,100.00
2021-04-04 11:26:37.527,0.81950086,0.6643977,0.46489838,5.705472E-5,0.38512748,0.54835314,0.07699316,-0.14349513,0.66816294,0.5776755,0.25832257,0.46811816,0.25660196,0.6948199,0.13817257,0.34146535,-0.31427586,0.44811055,-0.47153515,-0.08023439,829.2308,801.8315,809.4872,827.2161,698.68134,0.04620361328125,0.0723876953125,1.002197265625,4.59075927734375,-4.23187255859375,-0.725250244140625,1,1.0,1.0,1.0,1.0,100.00
2021-04-04 11:26:38.038,0.7110801,0.55424225,0.64522916,0.34018165,0.24190125,0.4243595,0.20025721,0.13758682,0.6351973,0.54368263,0.38930166,0.48335364,0.2338992,0.6478758,0.15703088,0.35736296,-0.31059942,0.3073971,-0.49987292,-0.11997096,803.0403,816.337,791.3553,796.1905,704.7253,0.06475830078125,0.08868408203125,0.99713134765625,7.61138916015625,-4.119720458984375,-2.684173583984375,1,1.0,1.0,1.0,1.0,100.00
2021-04-04 11:26:38.545,1.2761697,0.55424225,0.7684198,0.34018165,0.6339743,0.4243595,0.32689363,0.13758682,0.8297985,0.54368263,0.34924772,0.48335364,0.32559508,0.6478758,0.11101192,0.35736296,-0.35740823,0.3073971,-0.4906373,-0.11997096,815.5311,793.7729,802.6374,831.2454,644.68866,0.09637451171875,0.0955810546875,1.00225830078125,-0.321502685546875,-5.016937255859375,13.1591796875,1,1.0,1.0,1.0,1.0,100.00
2021-04-04 11:26:39.057,1.5342911,0.55424225,1.0036639,0.47598058,0.8840793,0.4243595,0.48097083,0.2681331,0.82726,0.54368263,0.31629172,0.27885872,0.46645108,0.6478758,0.10584324,0.38410816,-0.3512169,0.3073971,-0.5156165,-0.19473843,801.4286,785.7143,806.26373,827.619,870.32965,0.100341796875,0.07366943359375,0.9815673828125,2.99072265625,-2.504730224609375,2.594451904296875,1,1.0,1.0,1.0,1.0,100.00
2021-04-04 11:26:39.565,1.627398,0.55424225,1.0036639,0.47598058,0.971683,0.4243595,0.48097083,0.2681331,0.82726,0.54368263,0.31629172,0.27885872,0.509951,0.6478758,0.10584324,0.38410816,-0.36682802,0.3073971,-0.5156165,-0.19473843,818.7546,810.293,803.44324,814.7253,804.65204,0.0908203125,0.08477783203125,0.98236083984375,4.433746337890625,-5.719757080078125,-3.22998046875,1,1.0,1.0,1.0,1.0,100.00
2021-04-04 11:26:40.078,1.2367104,0.55424225,1.1304767,0.47598058,0.71032053,0.4243595,0.38393897,0.2681331,0.43574297,0.54368263,-0.16493931,0.27885872,0.519925,0.6478758,0.3044443,0.38410816,-0.09578677,0.3073971,-0.4259785,-0.19473843,793.36993,798.20514,800.2198,812.3077,744.21246,0.0921630859375,0.09124755859375,0.9971923828125,1.428070068359375,-4.059906005859375,-5.001983642578125,1,1.0,1.0,1.0,1.0,100.00
2021-04-04 11:26:40.605,1.1070876,0.55424225,1.1310341,0.47598058,0.7263745,0.4243595,0.47557968,0.2681331,0.6888149,0.54368263,0.4024791,0.27885872,0.41003233,0.6478758,0.20442364,0.38410816,-0.17553681,0.3073971,-0.35901874,-0.19473843,795.78754,777.6557,793.7729,792.96704,779.2674,0.0958251953125,0.0518798828125,1.0084228515625,3.117828369140625,-8.620758056640625,-1.906585693359375,1,1.0,1.0,1.0,1.0,100.00
2021-04-04 11:26:41.130,1.0595057,0.55424225,1.0771254,0.47598058,0.6870967,0.4243595,0.50982666,0.2681331,0.6888149,0.54368263,0.41773948,0.27885872,0.36171052,0.6478758,0.20173718,0.38410816,-0.25015727,0.3073971,-0.37899694,-0.19473843,822.381,802.6374,811.0989,863.8828,801.4286,0.13848876953125,0.05584716796875,0.99346923828125,3.730926513671875,-4.463653564453125,11.940460205078125,1,1.0,1.0,1.0,1.0,100.00
2021-04-04 11:26:41.643,1.032201,0.55424225,1.0933347,0.47598058,0.69975317,0.4243595,0.5791384,0.2681331,0.6677456,0.54368263,0.42151374,0.27885872,0.2781498,0.6478758,0.1300104,0.38410816,-0.3228263,0.3073971,-0.39581174,-0.19473843,789.34064,768.7912,814.3223,804.2491,783.2967,0.105224609375,0.02532958984375,1.00433349609375,5.36834716796875,-2.0635986328125,0.441131591796875,1,1.0,1.0,1.0,1.0,100.00
2021-04-04 11:26:42.172,1.044724,0.55424225,1.0168765,0.47598058,0.5762998,0.4243595,0.57113004,0.2681331,0.55760235,0.54368263,0.25048652,0.27885872,0.25074783,0.6478758,0.097578235,0.38410816,-0.38746187,0.3073971,-0.46395501,-0.19473843,823.1868,813.1135,789.34064,803.44324,767.98535,0.0963134765625,0.0140380859375,0.99835205078125,4.9945068359375,-6.08612060546875,-1.435546875,1,1.0,1.0,1.0,1.0,100.00
2021-04-04 11:26:42.679,0.8215874,0.55424225,0.9816821,0.47598058,0.18324341,0.4243595,0.49765435,0.2681331,0.5523073,0.54368263,0.27589136,0.27885872,0.15249139,0.6478758,0.12072725,0.38410816,-0.27912626,0.3073971,-0.43559825,-0.19473843,777.25275,809.4872,774.83514,771.6117,630.989,0.123291015625,0.0604248046875,0.98675537109375,13.0694580078125,-9.82452392578125,-21.99676513671875,1,1.0,1.0,1.0,1.0,100.00
2021-04-04 11:26:42.691,,,,,,,,,,,,,,,,,,,,,,,,,,,,,,,,,,,,,,/muse/elements/blink
2021-04-04 11:26:43.192,0.2578625,0.55424225,0.792911,0.47598058,-0.13184637,0.4243595,0.33307996,0.2681331,0.4726903,0.54368263,0.23621927,0.27885872,0.10703039,0.6478758,0.10645458,0.38410816,-0.31565195,0.3073971,-0.42424786,-0.19473843,818.7546,762.74725,798.60803,807.8755,934.3956,0.11383056640625,0.10321044921875,0.99334716796875,5.465545654296875,-6.0711669921875,3.312225341796875,1,1.0,1.0,1.0,1.0,100.00
2021-04-04 11:26:43.713,0.19430725,0.55424225,0.7452975,0.47598058,-0.20715946,0.4243595,0.19921802,0.2681331,0.42076167,0.54368263,0.21273729,0.27885872,0.08344251,0.6478758,0.24421187,0.38410816,-0.2916444,0.3073971,-0.36715025,-0.19473843,827.2161,797.8022,826.4103,873.1502,770.40295,0.13677978515625,0.0966796875,0.9935302734375,7.439422607421875,-3.4393310546875,20.29205322265625,1,1.0,1.0,1.0,1.0,100.00
2021-04-04 11:26:44.241,0.19430725,0.55424225,0.7452975,0.47598058,-0.20715946,0.4243595,0.19921802,0.2681331,0.42076167,0.54368263,0.21273729,0.27885872,0.08344251,0.6478758,0.24421187,0.38410816,-0.2916444,0.3073971,-0.36715025,-0.19473843,787.326,830.4396,769.19415,777.25275,727.28937,0.10791015625,0.053955078125,0.9951171875,2.041168212890625,-4.18701171875,-8.47869873046875,1,1.0,1.0,1.0,1.0,100.00
2021-04-04 11:26:44.744,0.19430725,0.55424225,0.7452975,0.47598058,-0.20715946,0.4243595,0.19921802,0.2681331,0.42076167,0.54368263,0.21273729,0.27885872,0.08344251,0.6478758,0.24421187,0.38410816,-0.2916444,0.3073971,-0.36715025,-0.19473843,827.2161,804.2491,801.8315,805.05493,695.05493,0.15179443359375,0.07623291015625,0.983642578125,2.1832275390625,-10.190887451171875,-6.602020263671875,1,1.0,1.0,1.0,1.0,100.00
2021-04-04 11:26:44.770,,,,,,,,,,,,,,,,,,,,,,,,,,,,,,,,,,,,,,/muse/elements/blink
2021-04-04 11:26:44.953,,,,,,,,,,,,,,,,,,,,,,,,,,,,,,,,,,,,,,/muse/elements/blink
2021-04-04 11:26:45.246,0.19430725,0.55424225,0.7452975,0.47598058,-0.20715946,0.4243595,0.19921802,0.2681331,0.42076167,0.54368263,0.21273729,0.27885872,0.08344251,0.6478758,0.24421187,0.38410816,-0.2916444,0.3073971,-0.36715025,-0.19473843,811.50183,818.7546,791.75824,794.17584,700.293,0.09967041015625,0.10406494140625,0.99200439453125,8.306732177734375,-5.899200439453125,0.538330078125,1,2.0,1.0,1.0,2.0,100.00
2021-04-04 11:26:45.747,0.19430725,0.55424225,0.7452975,0.47598058,-0.20715946,0.4243595,0.19921802,0.2681331,0.42076167,0.54368263,0.21273729,0.27885872,0.08344251,0.6478758,0.24421187,0.38410816,-0.2916444,0.3073971,-0.36715025,-0.19473843,798.60803,771.2088,810.293,823.1868,864.2857,0.07867431640625,0.18963623046875,0.9840087890625,14.176025390625,-10.594635009765625,-4.74029541015625,1,2.0,1.0,1.0,2.0,100.00
2021-04-04 11:26:46.266,0.19430725,0.55424225,0.7452975,0.47598058,-0.20715946,0.4243595,0.19921802,0.2681331,0.42076167,0.54368263,0.21273729,0.27885872,0.08344251,0.6478758,0.24421187,0.38410816,-0.2916444,0.3073971,-0.36715025,-0.19473843,840.10986,840.9158,827.2161,862.674,876.77655,0.11138916015625,0.13079833984375,0.991943359375,3.521575927734375,-2.519683837890625,0.897216796875,1,2.0,1.0,1.0,2.0,100.00
2021-04-04 11:26:46.442,,,,,,,,,,,,,,,,,,,,,,,,,,,,,,,,,,,,,,/muse/elements/blink
2021-04-04 11:26:46.774,0.19430725,0.55424225,0.7452975,0.47598058,-0.20715946,0.4243595,0.19921802,0.2681331,0.42076167,0.54368263,0.21273729,0.27885872,0.08344251,0.6478758,0.24421187,0.38410816,-0.2916444,0.3073971,-0.36715025,-0.19473843,803.44324,821.5751,792.96704,795.78754,734.94507,0.0555419921875,0.11126708984375,1.0009765625,4.18701171875,-3.5888671875,0.695343017578125,1,2.0,1.0,1.0,2.0,100.00
2021-04-04 11:26:47.281,0.19430725,0.55424225,0.7452975,0.47598058,-0.20715946,0.4243595,0.19921802,0.2681331,0.42076167,0.54368263,0.21273729,0.27885872,0.08344251,0.6478758,0.24421187,0.38410816,-0.2916444,0.3073971,-0.36715025,-0.19473843,832.0513,801.4286,794.9817,813.5165,808.2784,0.0601806640625,0.06768798828125,1.00927734375,1.114044189453125,-1.622467041015625,19.178009033203125,1,2.0,1.0,1.0,2.0,100.00
2021-04-04 11:26:47.789,0.19430725,0.55424225,0.7452975,0.47598058,-0.20715946,0.4243595,0.19921802,0.2681331,0.42076167,0.54368263,0.21273729,0.27885872,0.08344251,0.6478758,0.24421187,0.38410816,-0.2916444,0.3073971,-0.36715025,-0.19473843,797.8022,813.5165,797.3993,797.3993,759.12085,0.06488037109375,0.0499267578125,1.0015869140625,5.016937255859375,-3.342132568359375,1.218719482421875,1,2.0,1.0,1.0,2.0,100.00
2021-04-04 11:26:48.295,0.19430725,0.55424225,0.7452975,0.47598058,-0.20715946,0.4243595,0.19921802,0.2681331,0.42076167,0.54368263,0.21273729,0.27885872,0.08344251,0.6478758,0.24421187,0.38410816,-0.2916444,0.3073971,-0.36715025,-0.19473843,806.26373,838.9011,778.86444,785.31134,652.3443,0.03070068359375,0.03125,0.99658203125,7.67120361328125,-4.68048095703125,-4.80010986328125,1,2.0,1.0,1.0,2.0,100.00
2021-04-04 11:26:48.812,0.9558587,1.0403174,1.1231334,1.2514145,0.4701008,0.8360895,0.43959486,0.80576056,0.54485905,0.4935341,0.27863157,0.9274289,0.529181,0.72413933,0.09879178,0.6206843,0.018854912,0.09896954,-0.38507038,-0.020731071,786.1172,812.3077,795.78754,808.2784,779.67035,0.17681884765625,0.1033935546875,1.01043701171875,7.559051513671875,-10.489959716796875,1.0467529296875,1,1.0,1.0,1.0,1.0,100.00
2021-04-04 11:26:49.314,1.027454,1.0403174,0.9981913,1.1737682,0.6042684,0.8360895,0.3520412,0.8716222,0.6551673,0.4935341,0.3085825,0.9530537,0.47081244,0.72413933,0.18760073,0.60463345,-0.014380931,0.09896954,-0.328005,0.06793956,788.5348,789.34064,791.75824,807.0696,689.81683,0.11773681640625,0.11328125,0.97021484375,5.450592041015625,0.097198486328125,-2.91595458984375,1,1.0,1.0,1.0,1.0,100.00
2021-04-04 11:26:49.828,1.0569224,1.0403174,0.89575225,1.1048164,0.6843222,0.8360895,0.51357925,0.8660559,0.6627747,0.4935341,0.6262587,1.0083601,0.47118112,0.72413933,0.28717512,0.6037304,-0.003092998,0.09896954,-0.3015971,0.12986673,752.674,823.1868,760.32965,751.06226,754.2857,0.127197265625,0.080322265625,0.96002197265625,-0.545806884765625,-21.353759765625,-12.2021484375,1,1.0,1.0,1.0,1.0,100.00
2021-04-04 11:26:50.341,1.1120535,1.0403174,0.8350956,0.91694427,0.8088245,0.8360895,0.6434473,0.7964499,0.6527793,0.4935341,0.64813656,0.9367281,0.4150505,0.72413933,0.33739072,0.57817864,-0.17041089,0.09896954,-0.2745686,0.24654138,801.02563,791.75824,809.89014,817.1429,861.8681,0.12115478515625,0.15411376953125,0.9810791015625,10.8563232421875,-5.615081787109375,-11.043243408203125,1,1.0,1.0,1.0,1.0,100.00
2021-04-04 11:26:50.848,1.1120535,1.0403174,0.81621474,0.8410851,0.8088245,0.8360895,0.7936355,0.76292086,0.6527793,0.4935341,0.64813656,0.7811024,0.4150505,0.72413933,0.39522174,0.60467243,-0.17041089,0.09896954,-0.28529298,0.29452416,827.619,822.7839,806.6667,818.7546,693.8461,0.07257080078125,0.14117431640625,1.0006103515625,3.745880126953125,-4.2169189453125,5.121612548828125,1,1.0,1.0,1.0,1.0,100.00
2021-04-04 11:26:51.355,1.1120535,1.0403174,0.8963355,0.8410851,0.8088245,0.8360895,0.6895792,0.76292086,0.6527793,0.4935341,0.56369275,0.7811024,0.4150505,0.72413933,0.39304182,0.60467243,-0.17041089,0.09896954,-0.29147336,0.29452416,829.2308,810.293,819.5604,829.6337,683.7729,0.07672119140625,0.123779296875,0.97332763671875,2.43743896484375,-3.715972900390625,1.1962890625,1,1.0,1.0,1.0,1.0,100.00
2021-04-04 11:26:51.886,0.7723785,0.5680287,0.54552495,0.8410851,0.80957544,0.6319609,0.5313044,0.76292086,0.6441817,0.5790992,0.53869253,0.7811024,0.6454243,0.89500666,0.31835243,0.60467243,0.27413896,0.33235493,-0.18936935,0.29452416,826.8132,790.54944,813.5165,846.9597,893.69965,0.07891845703125,0.113037109375,0.99493408203125,2.968292236328125,-3.30474853515625,2.6318359375,1,1.0,1.0,1.0,1.0,100.00
2021-04-04 11:26:52.389,0.9214289,0.5485093,0.54974127,1.0301398,0.7755784,0.66451275,0.5755376,1.0829372,0.739504,0.58030355,0.65022266,1.1391277,0.6081841,0.86891276,0.38401514,0.72089225,0.26468757,0.3431165,-0.2041848,-0.011392205,799.81683,830.84247,792.96704,807.47253,763.95605,0.1148681640625,0.13958740234375,1.015625,4.807586669921875,-14.198455810546875,4.029998779296875,1,1.0,1.0,1.0,1.0,100.00
2021-04-04 11:26:52.903,0.9400427,0.67472017,0.4514397,1.1608174,0.79088056,0.7437498,0.6667017,1.0612282,0.9424133,0.86764264,0.8305243,1.1391277,0.5437096,0.8319748,0.3699734,0.7461099,0.2510016,0.3027448,-0.18910046,0.0028587435,801.02563,805.05493,809.4872,805.4579,860.65936,0.07415771484375,0.1126708984375,1.0367431640625,5.211334228515625,-2.400054931640625,-2.332763671875,1,1.0,1.0,1.0,1.0,100.00
2021-04-04 11:26:53.408,1.0882888,0.7740006,0.5044967,1.1841803,1.0468721,0.82172215,0.7498408,1.1612637,0.96857977,0.87553084,0.85037243,1.1203129,0.5202503,0.78650284,0.350848,0.66400725,0.1794598,0.33307356,-0.27208114,0.035264,814.3223,779.67035,802.23444,817.5458,1029.4872,0.08685302734375,0.1158447265625,0.99114990234375,3.5888671875,-3.611297607421875,-0.59814453125,1,1.0,1.0,1.0,1.0,100.00
2021-04-04 11:26:53.920,1.1743042,0.77567667,0.4967099,1.3529999,1.1055247,0.8071142,0.68135613,1.1835544,1.045238,0.87688124,0.86083096,1.1292461,0.57176316,0.75638187,0.26252198,0.6504639,0.15298076,0.42776403,-0.22883326,0.15640973,813.5165,800.2198,807.0696,825.6044,769.19415,0.0838623046875,0.10833740234375,1.0,5.166473388671875,-5.9814453125,1.92901611328125,1,1.0,1.0,1.0,1.0,100.00
2021-04-04 11:26:54.429,1.2761929,0.72049505,0.7734034,1.3914192,1.0797913,0.74819005,0.53543985,1.1436273,1.1343063,0.7900578,0.7618531,1.1025279,0.68549615,0.6756285,0.25905356,0.5738634,0.24367426,0.5546283,-0.12270929,0.27900198,788.5348,824.3956,799.41394,804.65204,740.989,0.13623046875,0.09417724609375,1.0015869140625,4.8748779296875,-5.4730224609375,2.85614013671875,1,1.0,1.0,1.0,1.0,100.00
2021-04-04 11:26:54.940,1.3514656,0.6585012,0.8803762,1.3530856,0.80332595,0.63404125,0.4271358,0.98154086,1.110975,0.6346467,0.56652707,1.1028689,0.70920473,0.59722257,0.3086654,0.6397226,0.31524917,0.5502739,-0.07508504,0.23135804,791.3553,792.96704,806.26373,820.3663,829.6337,0.10430908203125,0.12799072265625,0.986572265625,5.99639892578125,-6.41510009765625,5.944061279296875,1,1.0,1.0,1.0,1.0,100.00
2021-04-04 11:26:55.393,,,,,,,,,,,,,,,,,,,,,,,,,,,,,,,,,,,,,,/muse/elements/blink
2021-04-04 11:26:55.445,1.3208568,0.7577591,0.9004635,1.2518489,0.7485064,0.6121041,0.4573246,0.91222006,1.0381721,0.53378236,0.54699695,1.0692534,0.68181795,0.41427118,0.31690204,0.64301205,0.34748176,0.44440675,-0.057457354,0.20358588,944.4689,815.5311,786.9231,938.022,749.0476,0.08514404296875,0.09759521484375,0.99151611328125,2.691650390625,-1.12152099609375,1.62994384765625,1,1.0,1.0,1.0,1.0,100.00
2021-04-04 11:26:55.837,,,,,,,,,,,,,,,,,,,,,,,,,,,,,,,,,,,,,,/muse/elements/blink
2021-04-04 11:26:55.963,1.4114711,0.7828292,0.7974418,0.9927691,0.798608,0.4937362,0.5601266,0.81781363,1.0247368,0.5107217,0.4147704,0.7535507,0.6279378,0.45851457,0.31047353,0.66245323,0.37274808,0.0714614,-0.11417548,0.0789067,795.78754,813.1135,797.8022,802.23444,790.9524,0.122314453125,0.09661865234375,0.99066162109375,4.20196533203125,-2.444915771484375,-4.777679443359375,1,1.0,1.0,1.0,1.0,100.00
2021-04-04 11:26:56.474,1.4114711,0.6048707,0.5060163,0.48031896,0.798608,0.8250036,0.5097354,0.74526006,1.0247368,0.9321411,0.4128472,0.54699165,0.6279378,0.6724256,0.19237192,0.72633106,0.37274808,0.326737,-0.059120543,0.11769874,807.47253,790.9524,810.696,825.2015,817.9487,0.1044921875,0.10601806640625,0.99761962890625,7.349700927734375,-4.20196533203125,1.816864013671875,1,1.0,1.0,1.0,1.0,100.00
2021-04-04 11:26:57.002,1.4114711,0.3448821,0.5007762,0.48031896,0.798608,1.0756898,0.5896752,0.74526006,1.0247368,0.9011254,0.4473773,0.54699165,0.6279378,0.8113672,0.1155263,0.72633106,0.37274808,0.5610501,-0.090841584,0.11769874,814.3223,798.20514,801.4286,808.2784,840.5128,0.09136962890625,0.09619140625,0.99884033203125,3.12530517578125,-4.254302978515625,-0.79254150390625,1,1.0,1.0,1.0,1.0,100.00
2021-04-04 11:26:57.527,0.7258689,0.3742399,0.56980044,0.4357632,0.7336556,0.90913016,0.4725429,0.7145792,0.77123445,0.90335876,0.4473773,0.84080625,0.4211576,0.80859286,0.12470762,0.593479,0.1244203,0.54181206,-0.11824486,0.09347173,824.7985,830.0366,811.0989,823.9927,780.4762,0.09515380859375,0.0750732421875,0.99505615234375,4.9945068359375,-4.194488525390625,0.620574951171875,1,1.0,1.0,1.0,1.0,100.00
2021-04-04 11:26:58.031,0.8324887,0.37766886,0.56482327,0.7343375,0.59239596,0.7966963,0.27957016,0.6421006,0.8606042,0.80026823,0.5542989,0.84889334,0.47551256,0.8041779,0.13686784,0.5884559,0.014015464,0.43368602,-0.215381,0.060007334,814.7253,809.89014,807.47253,827.2161,841.31866,0.06414794921875,0.080078125,0.996337890625,8.01513671875,-6.02630615234375,-4.762725830078125,1,1.0,1.0,1.0,1.0,100.00
2021-04-04 11:26:58.545,0.8939611,0.48587453,0.5985969,0.8983407,0.7902805,0.7461932,0.24912387,0.72815335,1.0003427,0.80530864,0.51524615,0.9494729,0.5145583,0.80220217,0.17800467,0.6293968,-0.04617243,0.36175558,-0.2954766,0.14171639,772.4176,802.6374,806.26373,796.5934,753.8828,0.09954833984375,0.0777587890625,0.991943359375,4.089813232421875,-5.435638427734375,-2.175750732421875,1,1.0,1.0,1.0,1.0,100.00
2021-04-04 11:26:59.049,1.1872871,0.5828514,0.648008,1.3980201,1.0634884,0.8447148,0.4765231,1.0109648,1.2674226,0.9303225,0.5179561,0.9411269,0.65384746,0.79427326,0.20845196,0.64222944,-0.12697528,0.20231302,-0.3885571,0.09644959,777.25275,806.6667,802.23444,798.20514,728.0952,0.113037109375,0.08355712890625,0.99755859375,7.529144287109375,-3.0206298828125,3.132781982421875,1,1.0,1.0,1.0,1.0,100.00
2021-04-04 11:26:59.568,1.1666818,0.6771156,0.6654655,1.3947281,1.2090812,0.8889895,0.5168412,1.1919878,1.3455536,0.8372567,0.57669723,0.991594,0.71033543,0.7686943,0.21423663,0.6906162,0.0021936465,0.20862155,-0.39952534,0.09842093,817.1429,807.0696,799.011,803.8461,852.1978,0.10223388671875,0.10186767578125,0.9969482421875,6.407623291015625,-5.390777587890625,3.297271728515625,1,1.0,1.0,1.0,1.0,100.00
2021-04-04 11:27:00.077,1.3030938,0.6847918,0.571976,1.4584844,1.3650192,0.7265483,0.53863865,1.3255751,1.4424961,0.7575677,0.5135293,1.0237433,0.7429578,0.70183855,0.22966851,0.6780625,-0.022477666,0.16815007,-0.38707975,0.04239028,810.696,838.49817,795.38464,794.57874,692.23444,0.10528564453125,0.0938720703125,0.99932861328125,3.506622314453125,-5.69732666015625,-0.7177734375,1,1.0,1.0,1.0,1.0,100.00
2021-04-04 11:27:00.581,1.2453033,0.6856139,0.38369855,1.2228746,1.421981,0.69902724,0.3569406,1.3543532,1.4375796,0.8745513,0.5074203,1.0147978,0.7696356,0.64414835,0.24816427,0.69237685,0.038286213,0.36639327,-0.38529897,0.05558453,799.41394,802.6374,804.2491,804.2491,723.663,0.1387939453125,0.10394287109375,0.9921875,5.495452880859375,-4.32159423828125,5.241241455078125,1,1.0,1.0,1.0,1.0,100.00
2021-04-04 11:27:01.091,1.1783905,0.5550961,0.26914662,1.0553046,1.2870612,0.7199747,0.36479205,1.1076075,1.3893126,0.8462368,0.4668984,0.9634583,0.5341595,0.6628808,0.24695288,0.48435667,-0.21811746,0.36470434,-0.18544859,0.034543928,817.9487,801.02563,815.9341,830.4396,814.7253,0.09295654296875,0.08935546875,0.98809814453125,5.14404296875,-2.73651123046875,-1.31591796875,1,1.0,1.0,1.0,1.0,100.00
2021-04-04 11:27:01.609,0.5271389,0.6854376,0.6466185,0.6980133,0.6926226,0.91330457,0.3296963,0.72896785,0.5114841,0.87085027,0.6416697,0.69090605,0.30993885,0.7482401,0.1193689,0.3393772,-0.21843417,0.32186013,-0.16962783,-0.023571717,807.47253,825.2015,791.3553,806.26373,728.9011,0.10919189453125,0.087646484375,0.99005126953125,4.3963623046875,-6.497344970703125,-0.4486083984375,1,1.0,1.0,1.0,1.0,100.00
2021-04-04 11:27:02.133,0.5271389,0.7132411,0.90097755,0.745786,0.6926226,0.978579,0.39239287,0.6221198,0.5114841,0.81114906,0.66555834,0.56838167,0.30993885,0.782467,0.04345158,0.313728,-0.21843417,0.21879977,-0.13788351,-0.05350501,796.1905,808.2784,794.17584,777.25275,747.4359,0.09637451171875,0.090087890625,0.9940185546875,4.388885498046875,-7.888031005859375,7.962799072265625,1,1.0,1.0,1.0,1.0,100.00
2021-04-04 11:27:02.660,0.59953904,0.8565084,1.0912627,0.80444556,0.7553159,1.0414536,0.36679667,0.48542988,0.4567874,0.83853567,0.6643066,0.44443437,0.25310257,0.84443307,0.03410746,0.20860127,-0.2608311,0.32003728,-0.2823643,-0.03727126,813.1135,805.8608,801.02563,802.6374,785.31134,0.1258544921875,0.08453369140625,0.96221923828125,4.59075927734375,-4.94964599609375,-6.198272705078125,1,1.0,1.0,1.0,1.0,100.00
2021-04-04 11:27:03.025,,,,,,,,,,,,,,,,,,,,,,,,,,,,,,,,,,,,,,/muse/elements/blink
2021-04-04 11:27:03.189,1.2819278,0.9321924,1.0378007,0.80444556,1.0899025,0.90807444,0.43895572,0.48542988,0.89559996,0.83927304,0.72825205,0.44443437,0.71974355,0.8195251,0.27497432,0.20860127,0.16602804,0.3792023,-0.17960256,-0.03727126,945.6777,825.6044,787.72894,942.8571,700.696,0.10809326171875,0.08038330078125,0.99505615234375,3.372039794921875,-3.0804443359375,1.83929443359375,1,1.0,1.0,1.0,1.0,100.00
2021-04-04 11:27:03.714,1.2819278,0.9321924,1.0669339,0.80444556,1.0899025,0.90807444,0.59362435,0.48542988,0.89559996,0.83927304,0.7205314,0.44443437,0.71974355,0.8195251,0.3352355,0.20860127,0.16602804,0.3792023,-0.009864972,-0.03727126,785.7143,804.2491,793.36993,803.0403,951.7216,0.14349365234375,0.07879638671875,0.98724365234375,5.824432373046875,-8.785247802734375,-2.444915771484375,1,1.0,1.0,1.0,1.0,100.00
2021-04-04 11:27:04.225,1.2819278,0.9321924,1.0973066,0.80444556,1.0899025,0.90807444,0.6213701,0.48542988,0.89559996,0.83927304,0.790086,0.44443437,0.71974355,0.8195251,0.27430505,0.20860127,0.16602804,0.3792023,-9.115276E-4,-0.03727126,774.0293,784.10254,822.381,822.7839,778.0586,0.16424560546875,0.0611572265625,0.99456787109375,5.196380615234375,-7.484283447265625,1.4056396484375,1,1.0,1.0,1.0,1.0,100.00
2021-04-04 11:27:04.735,1.2819278,0.9321924,1.1272999,0.80444556,1.0899025,0.90807444,0.6524336,0.48542988,0.89559996,0.83927304,0.5765723,0.44443437,0.71974355,0.8195251,0.31869623,0.20860127,0.16602804,0.3792023,-0.03544572,-0.03727126,848.5714,823.1868,815.12823,826.0073,695.8608,0.1163330078125,0.07220458984375,0.99322509765625,4.62066650390625,-3.970184326171875,2.94586181640625,1,1.0,1.0,1.0,1.0,100.00
2021-04-04 11:27:04.768,,,,,,,,,,,,,,,,,,,,,,,,,,,,,,,,,,,,,,/muse/elements/blink
2021-04-04 11:27:05.045,,,,,,,,,,,,,,,,,,,,,,,,,,,,,,,,,,,,,,/muse/elements/blink
2021-04-04 11:27:05.247,1.2819278,0.9321924,1.184399,0.80444556,1.0899025,0.90807444,0.7341244,0.48542988,0.89559996,0.83927304,0.59795403,0.44443437,0.71974355,0.8195251,0.33721998,0.20860127,0.16602804,0.3792023,-0.096086346,-0.03727126,819.9634,798.60803,803.44324,806.26373,797.8022,0.12109375,0.06951904296875,0.99713134765625,4.9346923828125,-5.555267333984375,2.67669677734375,1,1.0,1.0,1.0,1.0,100.00
2021-04-04 11:27:05.768,1.2819278,0.9321924,1.1453023,0.80444556,1.0899025,0.90807444,0.7656053,0.48542988,0.89559996,0.83927304,0.71772605,0.44443437,0.71974355,0.8195251,0.3544071,0.20860127,0.16602804,0.3792023,-0.1896509,-0.03727126,791.3553,801.8315,800.6227,799.41394,747.4359,0.12725830078125,0.07086181640625,0.99688720703125,6.093597412109375,-4.44122314453125,0.770111083984375,1,2.0,1.0,1.0,2.0,100.00
2021-04-04 11:27:06.275,1.2819278,0.78979915,1.061088,1.4787426,1.0899025,0.7853632,0.6884988,1.2830491,0.89559996,0.9490688,0.7349312,1.3237674,0.71974355,0.649427,0.23949467,0.77578646,0.16602804,0.008474548,-0.2873476,-0.14708667,800.2198,794.57874,803.0403,805.05493,772.01465,0.1171875,0.0716552734375,0.99072265625,4.17205810546875,-3.94775390625,-0.31402587890625,1,2.0,1.0,1.0,2.0,100.00
2021-04-04 11:27:06.793,0.9590015,0.78979915,0.8113658,1.245889,0.232897,0.7853632,0.42794707,1.1041974,0.39669558,0.9490688,0.7137409,1.3237674,0.64102316,0.649427,0.2446876,0.71460664,-0.2818011,0.008474548,-0.49440673,0.021075726,806.26373,808.2784,806.6667,816.337,796.5934,0.12286376953125,0.06549072265625,0.98876953125,4.38140869140625,-5.001983642578125,0.022430419921875,1,1.0,1.0,1.0,1.0,100.00
2021-04-04 11:27:07.303,0.9366818,0.78979915,0.90910095,0.96267,0.4141705,0.7853632,0.3440357,0.75135607,0.70334667,0.9490688,0.5773236,0.5663892,0.54965895,0.649427,0.22129558,0.61224294,-0.12626188,0.008474548,-0.39400983,0.06386431,823.5897,802.23444,813.5165,830.4396,770.80585,0.104248046875,0.0716552734375,0.9918212890625,4.687957763671875,-4.83001708984375,1.15142822265625,1,1.0,1.0,1.0,1.0,100.00
2021-04-04 11:27:07.826,0.8296587,0.78979915,1.1086465,1.002513,0.5355148,0.7853632,0.47021034,0.7935963,0.77214396,0.9490688,0.45483157,0.55967236,0.5629903,0.649427,0.21208864,0.58845544,-0.11640427,0.008474548,-0.2843775,0.10907851,817.9487,805.8608,803.8461,800.2198,676.52014,0.118896484375,0.07232666015625,0.9893798828125,5.00946044921875,-4.284210205078125,1.0467529296875,1,1.0,1.0,1.0,1.0,100.00
2021-04-04 11:27:08.329,0.70993394,0.78979915,1.1132455,1.0671635,0.6252615,0.7853632,0.4773283,0.7259456,0.85366344,0.9490688,0.47259265,0.91735065,0.47095168,0.649427,0.108644985,0.54046285,-0.13485159,0.008474548,-0.2722013,0.028085193,815.12823,808.2784,811.9048,805.8608,685.38464,0.10003662109375,0.07012939453125,0.98992919921875,4.314117431640625,-4.2767333984375,0.904693603515625,1,1.0,1.0,1.0,1.0,100.00
2021-04-04 11:27:08.841,0.4996586,0.78979915,1.1446381,0.9091022,0.6859019,0.7853632,0.38689595,0.906993,0.93635744,0.9490688,0.6236067,0.96659815,0.5047532,0.649427,0.23297167,0.628587,-0.20119178,0.008474548,-0.2550275,-0.08164708,844.1392,804.65204,795.78754,823.1868,828.8278,0.12054443359375,0.0750732421875,0.9984130859375,4.53094482421875,-5.0543212890625,0.19439697265625,1,1.0,1.0,1.0,1.0,100.00
2021-04-04 11:27:09.344,0.63693553,0.78979915,1.0087134,0.81272066,0.92122114,0.7853632,0.20313853,0.9971788,0.92600733,0.9490688,0.5679317,0.97295284,0.4335701,0.649427,0.26835772,0.5572727,-0.14389043,0.008474548,-0.25974357,0.03706076,782.8938,789.34064,809.89014,815.9341,845.34796,0.10198974609375,0.07147216796875,0.995361328125,5.084228515625,-4.837493896484375,2.01873779296875,1,1.0,1.0,1.0,1.0,100.00
2021-04-04 11:27:09.853,0.6411348,0.78979915,1.1759037,0.82879215,1.0367593,0.7853632,0.2463464,1.1255863,0.8326002,0.9490688,0.55527693,0.9274405,0.4400025,0.649427,0.3208827,0.521651,-0.04107373,0.008474548,-0.14018333,0.06335037,806.26373,816.337,787.326,809.4872,773.22345,0.10101318359375,0.07037353515625,0.99560546875,4.089813232421875,-3.506622314453125,-2.1832275390625,1,1.0,1.0,1.0,1.0,100.00
2021-04-04 11:27:09.918,,,,,,,,,,,,,,,,,,,,,,,,,,,,,,,,,,,,,,/muse/elements/blink
2021-04-04 11:27:10.360,0.8279988,0.78979915,1.2738893,0.79216707,1.2447942,0.7853632,0.68881166,1.1955159,0.7776761,0.9490688,0.39218408,0.8063216,0.4001254,0.649427,0.2238283,0.42501706,0.046592515,0.008474548,-0.14026146,0.11673559,813.91943,819.15753,800.6227,813.91943,706.7399,0.106689453125,0.0614013671875,0.99407958984375,3.895416259765625,-4.44122314453125,-1.428070068359375,1,1.0,1.0,1.0,1.0,100.00
2021-04-04 11:27:10.814,,,,,,,,,,,,,,,,,,,,,,,,,,,,,,,,,,,,,,/muse/elements/blink
2021-04-04 11:27:10.863,0.8279988,0.78979915,1.1879835,0.9416205,1.2447942,0.7853632,0.6985777,1.3023068,0.7776761,0.9490688,0.4771574,0.7554758,0.4001254,0.649427,0.20690876,0.43958387,0.046592515,0.008474548,-0.27847877,0.06367946,759.5238,789.7436,806.26373,747.03296,724.87177,0.10833740234375,0.08099365234375,1.0059814453125,5.929107666015625,-6.160888671875,-0.485992431640625,1,1.0,1.0,1.0,1.0,100.00
2021-04-04 11:27:11.127,,,,,,,,,,,,,,,,,,,,,,,,,,,,,,,,,,,,,,/muse/elements/blink
2021-04-04 11:27:11.394,0.8279988,0.78979915,1.2977167,0.9416205,1.2447942,0.7853632,0.8392049,1.3023068,0.7776761,0.9490688,0.49694493,0.7554758,0.4001254,0.649427,0.18646151,0.43958387,0.046592515,0.008474548,-0.35134056,0.06367946,819.5604,805.8608,790.54944,805.05493,656.3736,0.1168212890625,0.06243896484375,1.00250244140625,3.760833740234375,-4.344024658203125,-0.127105712890625,1,1.0,1.0,1.0,1.0,100.00
2021-04-04 11:27:11.906,0.8279988,0.78979915,1.1983314,0.9416205,1.2447942,0.7853632,0.7360326,1.3023068,0.7776761,0.9490688,0.51248175,0.7554758,0.4001254,0.649427,0.25827906,0.43958387,0.046592515,0.008474548,-0.38053584,0.06367946,826.4103,810.293,796.99634,800.2198,693.0403,0.1126708984375,0.06195068359375,1.000732421875,2.85614013671875,-3.7384033203125,7.177734375,1,1.0,1.0,1.0,1.0,100.00
2021-04-04 11:27:12.434,0.8279988,0.78979915,1.1040543,0.9416205,1.2447942,0.7853632,0.70941913,1.3023068,0.7776761,0.9490688,0.5035824,0.7554758,0.4001254,0.649427,0.32317558,0.43958387,0.046592515,0.008474548,-0.29665548,0.06367946,805.4579,810.696,799.81683,804.65204,656.3736,0.10052490234375,0.01983642578125,0.99603271484375,-1.398162841796875,-2.811279296875,19.207916259765625,1,2.0,1.0,1.0,2.0,100.00
2021-04-04 11:27:12.939,0.57052803,0.8080692,0.70938075,0.9416205,0.5828682,0.12908146,0.47499865,1.3023068,0.34146795,0.5520522,0.2208502,0.7554758,0.22166069,0.5349765,0.3004535,0.43958387,-0.34412172,0.10757037,-0.3410113,0.06367946,784.5055,809.89014,793.36993,817.1429,801.02563,0.10870361328125,-0.0069580078125,0.99761962890625,4.687957763671875,-4.015045166015625,-0.11962890625,1,2.0,1.0,1.0,2.0,100.00
2021-04-04 11:27:13.453,0.7234208,0.6229489,0.60417354,0.9511495,0.5183397,0.20094584,0.38631135,0.34434995,0.42242038,0.5591011,0.2390146,0.13266948,0.2687259,0.5218434,0.1718545,0.25173658,-0.35997006,0.08910969,-0.4145894,0.1311116,807.47253,800.2198,791.75824,816.337,867.1062,0.0926513671875,-0.01580810546875,1.00238037109375,4.403839111328125,-4.246826171875,2.1234130859375,1,1.0,1.0,1.0,1.0,100.00
2021-04-04 11:27:13.962,0.8413277,0.48546562,0.6153767,1.0330083,0.7681307,0.2290137,0.42378867,0.75884545,0.7495338,0.18123278,0.37750188,0.63601834,0.25270373,0.53624886,-0.0098701175,0.29266,-0.3473529,0.08054935,-0.5187433,0.061726686,801.8315,816.7399,786.52014,788.5348,681.3553,0.09735107421875,6.7138671875E-4,0.9984130859375,5.48797607421875,-5.360870361328125,2.1234130859375,1,1.0,1.0,1.0,1.0,100.00
