TimeStamp,Delta_TP9,Delta_AF7,Delta_AF8,Delta_TP10,Theta_TP9,Theta_AF7,Theta_AF8,Theta_TP10,Alpha_TP9,Alpha_AF7,Alpha_AF8,Alpha_TP10,Beta_TP9,Beta_AF7,Beta_AF8,Beta_TP10,Gamma_TP9,Gamma_AF7,Gamma_AF8,Gamma_TP10,RAW_TP9,RAW_AF7,RAW_AF8,RAW_TP10,AUX_RIGHT,Accelerometer_X,Accelerometer_Y,Accelerometer_Z,Gyro_X,Gyro_Y,Gyro_Z,HeadBandOn,HSI_TP9,HSI_AF7,HSI_AF8,HSI_TP10,Battery,Elements
2021-04-15 09:13:36.825,0.66447836,0.8920946,0.52745765,0.39382917,0.10081424,0.70102334,0.34621176,0.27581838,0.04261616,0.38340047,0.5596529,0.07817278,1.035775,0.9792332,0.95595014,1.1628923,0.5529537,0.4850699,0.30592418,0.7383672,771.6117,821.978,781.28204,743.8095,841.31866,-0.34912109375,0.01202392578125,0.93829345703125,4.673004150390625,-4.867401123046875,1.18133544921875,1,2.0,1.0,1.0,2.0,100.00
2021-04-15 09:13:37.346,0.66447836,0.5158141,0.73974615,0.39382917,0.10081424,0.3268821,0.42460307,0.27581838,0.04261616,0.31318957,0.4565577,0.07817278,1.035775,0.86287075,0.88034487,1.1628923,0.5529537,0.13935342,0.31441832,0.7383672,787.72894,819.15753,826.0073,807.0696,866.30035,-0.35247802734375,0.0137939453125,0.9427490234375,4.91973876953125,-5.899200439453125,0.43365478515625,1,2.0,1.0,1.0,2.0,100.00
2021-04-15 09:13:37.868,0.66447836,0.55294025,0.7766292,0.39382917,0.10081424,0.29729676,0.36968315,0.27581838,0.04261616,0.3534314,0.3001296,0.07817278,1.035775,0.8968612,0.8807308,1.1628923,0.5529537,0.15349065,0.32943735,0.7383672,827.2161,860.2564,818.7546,783.2967,754.68866,-0.33758544921875,0.026123046875,0.93951416015625,9.398345947265625,-7.77587890625,-15.850830078125,1,2.0,1.0,1.0,2.0,100.00
2021-04-15 09:13:38.399,0.66447836,0.55294025,0.8343843,0.39382917,0.10081424,0.29729676,0.3301532,0.27581838,0.04261616,0.3534314,0.31786925,0.07817278,1.035775,0.8968612,0.88681674,1.1628923,0.5529537,0.15349065,0.32856342,0.7383672,823.9927,844.1392,798.60803,800.6227,808.2784,-0.32568359375,0.033935546875,0.942138671875,12.3516845703125,-6.213226318359375,-24.830474853515625,1,2.0,1.0,1.0,2.0,100.00
2021-04-15 09:13:38.922,0.66447836,0.59054774,0.88265085,0.39382917,0.10081424,0.27076063,0.35246167,0.27581838,0.04261616,0.22642753,0.52010167,0.07817278,1.035775,0.94944054,0.88400286,1.1628923,0.5529537,0.16224554,0.4068951,0.7383672,812.3077,827.2161,837.6923,788.1319,676.52014,-0.2698974609375,-0.02734375,0.945068359375,7.05810546875,-12.08251953125,-14.751739501953125,1,2.0,1.0,1.0,2.0,100.00
2021-04-15 09:13:39.450,0.66447836,0.59054774,0.8912254,0.39382917,0.10081424,0.27076063,0.408886,0.27581838,0.04261616,0.22642753,0.5750683,0.07817278,1.035775,0.94944054,0.86041224,1.1628923,0.5529537,0.16224554,0.42500362,0.7383672,811.0989,821.978,816.337,786.52014,782.0879,-0.21453857421875,-0.03204345703125,0.98016357421875,7.245025634765625,-6.123504638671875,-11.835784912109375,1,2.0,1.0,1.0,2.0,100.00
2021-04-15 09:13:39.966,0.66447836,0.59054774,0.8728635,0.39382917,0.10081424,0.27076063,0.5140761,0.27581838,0.04261616,0.22642753,0.5728049,0.07817278,1.035775,0.94944054,0.80232894,1.1628923,0.5529537,0.16224554,0.4618767,0.7383672,770.0,842.1245,827.619,767.98535,745.0183,-0.1800537109375,-0.03955078125,0.9830322265625,6.975860595703125,-7.768402099609375,-5.263671875,1,2.0,1.0,1.0,2.0,100.00
2021-04-15 09:13:40.471,0.66447836,0.59054774,0.5716025,0.39382917,0.10081424,0.27076063,0.4447729,0.27581838,0.04261616,0.22642753,0.5451109,0.07817278,1.035775,0.94944054,0.8424758,1.1628923,0.5529537,0.16224554,0.27832335,0.7383672,801.02563,838.9011,815.12823,817.9487,789.34064,-0.1248779296875,-0.03167724609375,1.00799560546875,4.418792724609375,-6.6693115234375,9.682464599609375,1,2.0,1.0,1.0,2.0,100.00
2021-04-15 09:13:40.996,0.66447836,0.16327572,0.22570276,0.39382917,0.10081424,-0.6466929,0.14666462,0.27581838,0.04261616,0.0013845143,0.19522165,0.07817278,1.035775,0.8112117,0.88034457,1.1628923,0.5529537,0.30371547,0.24344376,0.7383672,772.8205,796.99634,857.03296,792.5641,801.8315,-0.20916748046875,-0.0545654296875,0.98590087890625,-3.06549072265625,1.742095947265625,29.316558837890625,1,2.0,1.0,1.0,2.0,100.00
2021-04-15 09:13:41.529,0.66447836,0.16327572,0.09325263,0.39382917,0.10081424,-0.6466929,0.11907277,0.27581838,0.04261616,0.0013845143,0.12917575,0.07817278,1.035775,0.8112117,0.889025,1.1628923,0.5529537,0.30371547,0.2396654,0.7383672,776.4469,869.5238,824.3956,759.5238,747.4359,-0.2298583984375,0.0167236328125,0.99017333984375,3.566436767578125,-7.364654541015625,21.735076904296875,1,2.0,1.0,1.0,2.0,100.00
2021-04-15 09:13:42.040,0.66447836,0.15140788,-0.1391211,0.39382917,0.10081424,-0.6706118,-0.18231228,0.27581838,0.04261616,-0.033441562,-0.0164665,0.07817278,1.035775,0.80414057,0.88950986,1.1628923,0.5529537,0.24529408,0.19590329,0.7383672,811.50183,831.2454,808.68134,773.22345,758.71796,-0.23297119140625,0.0528564453125,0.96417236328125,15.738677978515625,-11.521759033203125,5.203857421875,1,2.0,1.0,1.0,2.0,100.00
2021-04-15 09:13:42.578,0.66447836,0.19979143,-0.34318626,0.39382917,0.10081424,-0.6309735,-0.33632293,0.27581838,0.04261616,-0.03529543,0.033525124,0.07817278,1.035775,0.7995822,0.9067321,1.1628923,0.5529537,0.21182011,0.20091766,0.7383672,735.34796,815.5311,812.3077,791.75824,758.71796,0.0740966796875,0.21551513671875,1.0447998046875,10.265655517578125,-7.334747314453125,6.68426513671875,1,2.0,1.0,1.0,2.0,100.00
2021-04-15 09:13:43.085,0.66447836,0.19979143,0.23357366,0.39382917,0.10081424,-0.6309735,-0.13968354,0.27581838,0.04261616,-0.03529543,0.06901121,0.07817278,1.035775,0.7995822,0.8831546,1.1628923,0.5529537,0.21182011,0.4002143,0.7383672,784.5055,849.3773,816.7399,781.685,815.12823,-0.0438232421875,0.15948486328125,1.059814453125,-1.9140625,-4.66552734375,6.168365478515625,1,2.0,1.0,1.0,2.0,100.00
2021-04-15 09:13:43.597,0.66447836,0.19979143,0.23357366,0.39382917,0.10081424,-0.6309735,-0.13968354,0.27581838,0.04261616,-0.03529543,0.06901121,0.07817278,1.035775,0.7995822,0.8831546,1.1628923,0.5529537,0.21182011,0.4002143,0.7383672,718.022,872.3443,815.12823,788.1319,665.64105,-0.24188232421875,0.1571044921875,0.9429931640625,4.164581298828125,7.91046142578125,6.92352294921875,1,2.0,1.0,1.0,2.0,95.00
2021-04-15 09:13:44.130,0.66447836,0.19979143,0.43442494,0.39382917,0.10081424,-0.6309735,-0.028652001,0.27581838,0.04261616,-0.03529543,-0.06275331,0.07817278,1.035775,0.7995822,0.8633253,1.1628923,0.5529537,0.21182011,0.51228815,0.7383672,785.31134,848.5714,832.8571,754.2857,750.65936,-0.28619384765625,0.15447998046875,0.95452880859375,0.478515625,7.783355712890625,-6.901092529296875,1,2.0,1.0,1.0,2.0,95.00
2021-04-15 09:13:44.651,0.66447836,0.19979143,0.49109438,0.39382917,0.10081424,-0.6309735,-0.023759522,0.27581838,0.04261616,-0.03529543,-0.18445756,0.07817278,1.035775,0.7995822,0.8731349,1.1628923,0.5529537,0.21182011,0.549644,0.7383672,807.0696,836.08057,790.54944,758.315,820.7692,-0.4161376953125,0.19122314453125,0.94561767578125,7.70111083984375,-3.416900634765625,-0.418701171875,1,2.0,1.0,1.0,2.0,95.00
2021-04-15 09:13:45.164,0.66447836,0.19979143,0.49109438,0.39382917,0.10081424,-0.6309735,-0.023759522,0.27581838,0.04261616,-0.03529543,-0.18445756,0.07817278,1.035775,0.7995822,0.8731349,1.1628923,0.5529537,0.21182011,0.549644,0.7383672,668.86444,733.73627,697.47253,670.87915,867.9121,-0.46136474609375,0.07366943359375,0.85174560546875,2.026214599609375,-0.4486083984375,5.4730224609375,1,2.0,1.0,1.0,2.0,95.00
2021-04-15 09:13:45.675,0.66447836,0.19979143,0.49109438,0.39382917,0.10081424,-0.6309735,-0.023759522,0.27581838,0.04261616,-0.03529543,-0.18445756,0.07817278,1.035775,0.7995822,0.8731349,1.1628923,0.5529537,0.21182011,0.549644,0.7383672,778.46155,862.674,853.4066,801.4286,758.71796,-0.39599609375,0.064453125,0.94415283203125,5.824432373046875,-11.701202392578125,6.6094970703125,1,2.0,1.0,1.0,2.0,95.00
2021-04-15 09:13:46.219,0.66447836,0.19979143,0.49109438,0.39382917,0.10081424,-0.6309735,-0.023759522,0.27581838,0.04261616,-0.03529543,-0.18445756,0.07817278,1.035775,0.7995822,0.8731349,1.1628923,0.5529537,0.21182011,0.549644,0.7383672,745.0183,813.5165,796.99634,812.3077,809.89014,-0.4205322265625,0.0379638671875,0.91632080078125,-3.289794921875,3.072967529296875,2.250518798828125,1,2.0,1.0,1.0,2.0,95.00
2021-04-15 09:13:46.759,0.66447836,0.19979143,0.49109438,0.39382917,0.10081424,-0.6309735,-0.023759522,0.27581838,0.04261616,-0.03529543,-0.18445756,0.07817278,1.035775,0.7995822,0.8731349,1.1628923,0.5529537,0.21182011,0.549644,0.7383672,761.13556,850.989,836.08057,786.52014,784.5055,-0.39166259765625,0.1217041015625,0.92584228515625,8.3441162109375,-6.1309814453125,11.058197021484375,1,2.0,1.0,1.0,2.0,95.00
2021-04-15 09:13:47.275,0.66447836,0.19979143,0.49109438,0.39382917,0.10081424,-0.6309735,-0.023759522,0.27581838,0.04261616,-0.03529543,-0.18445756,0.07817278,1.035775,0.7995822,0.8731349,1.1628923,0.5529537,0.21182011,0.549644,0.7383672,761.9414,811.0989,788.5348,753.0769,779.67035,-0.4486083984375,0.08642578125,0.88299560546875,6.392669677734375,-4.3963623046875,-0.814971923828125,1,2.0,1.0,1.0,2.0,95.00
2021-04-15 09:13:47.780,0.66447836,0.19979143,0.49109438,0.39382917,0.10081424,-0.6309735,-0.023759522,0.27581838,0.04261616,-0.03529543,-0.18445756,0.07817278,1.035775,0.7995822,0.8731349,1.1628923,0.5529537,0.21182011,0.549644,0.7383672,765.56775,815.5311,788.5348,765.56775,678.5348,-0.47772216796875,0.05108642578125,0.8642578125,0.590667724609375,-1.742095947265625,-3.30474853515625,1,2.0,1.0,1.0,2.0,95.00
2021-04-15 09:13:48.324,0.66447836,0.19979143,0.49109438,0.39382917,0.10081424,-0.6309735,-0.023759522,0.27581838,0.04261616,-0.03529543,-0.18445756,0.07817278,1.035775,0.7995822,0.8731349,1.1628923,0.5529537,0.21182011,0.549644,0.7383672,821.5751,869.92676,840.5128,763.5531,750.2564,-0.44049072265625,0.1234130859375,0.910888671875,12.463836669921875,-7.439422607421875,4.299163818359375,1,2.0,1.0,1.0,2.0,95.00
2021-04-15 09:13:48.839,0.66447836,0.19979143,0.49109438,0.39382917,0.10081424,-0.6309735,-0.023759522,0.27581838,0.04261616,-0.03529543,-0.18445756,0.07817278,1.035775,0.7995822,0.8731349,1.1628923,0.5529537,0.21182011,0.549644,0.7383672,746.63007,808.68134,789.34064,776.8498,840.5128,-0.480712890625,0.060791015625,0.8311767578125,-0.70281982421875,-0.95703125,-3.162689208984375,1,2.0,1.0,1.0,2.0,95.00
2021-04-15 09:13:49.367,0.66447836,0.19979143,0.49109438,0.39382917,0.10081424,-0.6309735,-0.023759522,0.27581838,0.04261616,-0.03529543,-0.18445756,0.07817278,1.035775,0.7995822,0.8731349,1.1628923,0.5529537,0.21182011,0.549644,0.7383672,724.0659,811.0989,801.8315,723.663,797.3993,-0.51788330078125,0.07196044921875,0.87152099609375,4.658050537109375,-2.332763671875,4.94964599609375,1,2.0,1.0,1.0,2.0,95.00
2021-04-15 09:13:49.873,0.66447836,0.19979143,0.49109438,0.39382917,0.10081424,-0.6309735,-0.023759522,0.27581838,0.04261616,-0.03529543,-0.18445756,0.07817278,1.035775,0.7995822,0.8731349,1.1628923,0.5529537,0.21182011,0.549644,0.7383672,807.0696,827.2161,833.663,768.3883,586.6667,-0.51361083984375,0.056640625,0.86175537109375,4.14215087890625,-1.1065673828125,3.013153076171875,1,2.0,1.0,1.0,2.0,95.00
2021-04-15 09:13:50.409,0.66447836,0.19979143,0.49109438,0.39382917,0.10081424,-0.6309735,-0.023759522,0.27581838,0.04261616,-0.03529543,-0.18445756,0.07817278,1.035775,0.7995822,0.8731349,1.1628923,0.5529537,0.21182011,0.549644,0.7383672,800.2198,819.9634,816.337,766.3736,743.00366,-0.48773193359375,0.0557861328125,0.87054443359375,4.6356201171875,-7.28240966796875,4.47113037109375,1,2.0,1.0,1.0,2.0,95.00
2021-04-15 09:13:50.938,0.66447836,0.19979143,0.49109438,0.39382917,0.10081424,-0.6309735,-0.023759522,0.27581838,0.04261616,-0.03529543,-0.18445756,0.07817278,1.035775,0.7995822,0.8731349,1.1628923,0.5529537,0.21182011,0.549644,0.7383672,805.4579,825.6044,816.337,779.2674,692.6374,-0.4884033203125,0.0609130859375,0.869140625,4.658050537109375,-6.9085693359375,1.07666015625,1,2.0,1.0,1.0,2.0,95.00
2021-04-15 09:13:51.452,1.0717945,0.66122967,0.43672466,0.39382917,0.7436099,0.14120142,0.025660675,0.27581838,0.53616875,0.1143869,0.03160654,0.07817278,0.82406795,0.5809873,0.71893656,1.1628923,0.251734,0.13153589,0.018523876,0.7383672,842.9304,836.08057,828.4249,822.381,811.9048,-0.45556640625,0.05108642578125,0.89178466796875,3.058013916015625,-11.08062744140625,1.921539306640625,1,1.0,1.0,1.0,1.0,95.00
2021-04-15 09:13:51.997,0.86730987,0.7152947,0.61689764,0.60753256,0.6636279,0.2794365,0.020312097,0.32633093,0.9939245,0.18679242,0.14005372,0.49325386,0.812529,0.5694209,0.7257673,0.8829347,0.5735579,0.31721106,0.27312958,0.7103435,825.6044,840.5128,828.8278,767.98535,739.3773,-0.43878173828125,0.04840087890625,0.892822265625,3.06549072265625,-5.899200439453125,3.51409912109375,1,1.0,1.0,1.0,1.0,95.00
2021-04-15 09:13:52.518,0.6779842,0.5681584,0.7183134,0.763628,0.66355747,0.37653032,0.116610415,0.691155,0.9556345,0.52832186,0.13402858,0.5833996,0.75777996,0.60166687,0.7364442,0.92436874,0.5652689,0.33193824,0.30529585,0.6793846,760.7326,842.9304,828.4249,790.9524,738.1685,-0.4451904296875,0.0435791015625,0.8919677734375,4.762725830078125,-3.27484130859375,0.530853271484375,1,1.0,1.0,1.0,1.0,95.00
2021-04-15 09:13:53.054,0.62678486,0.49602827,0.8335838,0.6405754,0.710336,0.33202967,0.14475185,0.8632628,1.031559,0.52832186,0.11285629,0.77630633,0.83620715,0.624965,0.756477,1.0070977,0.5148935,0.26705074,0.3460604,0.59134775,774.83514,829.2308,808.2784,787.72894,777.6557,-0.447265625,0.0474853515625,0.8935546875,4.65057373046875,-3.910369873046875,1.7645263671875,1,1.0,1.0,1.0,1.0,95.00
2021-04-15 09:13:53.596,0.7336606,0.59316576,0.9502835,0.6395255,0.7246334,0.34341165,0.44065633,0.85985404,0.7508991,0.52832186,0.04070329,0.73767036,0.88647246,0.65597326,0.74331355,1.0640757,0.31243002,0.11654033,0.08810088,0.47134545,764.35895,841.31866,832.0513,787.326,691.8315,-0.4541015625,0.03546142578125,0.89849853515625,4.613189697265625,-3.715972900390625,0.88226318359375,1,1.0,1.0,1.0,1.0,100.00
2021-04-15 09:13:54.111,0.77351093,0.63909334,0.6148247,0.63215166,0.8361689,0.48469502,0.41234058,0.8076602,0.7985397,0.28624603,0.12636586,0.73589945,0.8866592,0.6271495,0.7031104,1.0866804,0.16182034,0.09269971,0.06968749,0.45548993,780.87915,830.84247,812.71063,809.0842,793.7729,-0.47979736328125,0.03387451171875,0.87860107421875,4.007568359375,-2.459869384765625,0.97198486328125,1,1.0,1.0,1.0,1.0,100.00
2021-04-15 09:13:54.654,0.718323,0.763234,0.5779954,0.8125179,0.89505064,0.60419184,0.43705317,0.779929,0.7616599,0.2826823,0.34453472,0.695898,0.8177416,0.6388012,0.7263987,1.0701463,0.25934115,0.15294424,0.07274681,0.50410557,773.6264,826.4103,809.89014,775.64105,771.6117,-0.470458984375,0.02899169921875,0.88018798828125,4.164581298828125,-4.35150146484375,1.263580322265625,1,1.0,1.0,1.0,1.0,100.00
2021-04-15 09:13:55.167,0.5938825,0.5903592,0.34541506,0.89267015,0.89343816,0.6035187,0.378524,0.83492106,0.94252676,0.22069687,0.399449,0.7501858,0.7606831,0.6366734,0.70896125,1.0647136,0.21976788,0.12766413,0.10509199,0.39859715,793.7729,821.5751,786.9231,749.45056,790.14655,-0.4788818359375,0.03326416015625,0.87945556640625,4.628143310546875,-5.615081787109375,-0.2392578125,1,1.0,1.0,1.0,1.0,100.00
2021-04-15 09:13:55.714,0.64564866,0.7252129,0.4508166,0.9146162,0.7388124,0.24345753,0.34314978,0.77018076,0.91459465,0.29505813,0.39121133,0.84637487,0.79764915,0.64854634,0.7105546,1.0545619,0.2848791,-0.01763712,0.10912082,0.38377532,778.0586,814.3223,797.3993,757.9121,821.978,-0.48077392578125,0.02142333984375,0.872802734375,4.224395751953125,-5.4132080078125,0.949554443359375,1,1.0,1.0,1.0,1.0,100.00
2021-04-15 09:13:56.222,0.7205357,0.6346002,0.3745218,0.7925409,0.65274864,0.29826143,0.35172674,0.7340219,0.91254604,0.35443187,0.32018742,0.84353036,0.809715,0.6494713,0.66164744,1.0238333,0.21522039,-0.039891068,0.18395315,0.37918508,784.90845,824.7985,820.7692,760.7326,760.7326,-0.4825439453125,0.0262451171875,0.87689208984375,4.725341796875,-5.091705322265625,1.487884521484375,1,1.0,1.0,1.0,1.0,100.00
2021-04-15 09:13:56.731,0.840841,0.6321319,0.4867096,0.89399666,0.64060867,0.2241623,0.36972657,0.65958923,0.76176167,0.37639132,0.07991511,0.7618296,0.8146268,0.6526914,0.7248022,0.984449,0.22459593,-0.0634103,0.1315159,0.3982567,791.75824,808.68134,827.2161,801.02563,783.2967,-0.47882080078125,0.02008056640625,0.88165283203125,4.673004150390625,-4.643096923828125,2.026214599609375,1,1.0,1.0,1.0,1.0,100.00
2021-04-15 09:13:57.236,0.9112233,0.6633672,0.7045062,0.847619,0.6957503,0.26330146,0.45713586,0.69242156,0.6984322,0.31647474,0.09070222,0.6812234,0.8167711,0.6659499,0.72050923,0.9655843,0.085858695,0.0057452717,0.09368061,0.30508575,799.81683,838.9011,811.50183,817.5458,803.44324,-0.4769287109375,0.024169921875,0.87890625,4.583282470703125,-4.6356201171875,1.413116455078125,1,1.0,1.0,1.0,1.0,100.00
2021-04-15 09:13:57.740,1.110281,0.7923621,0.773565,0.9756775,0.5889967,0.27701837,0.45319253,0.565458,0.8529991,0.3769147,0.3208194,0.8447571,0.8098346,0.63561326,0.6826374,0.976448,0.0629281,0.0039615096,0.10842964,0.2666271,819.15753,829.2308,819.9634,777.25275,722.8571,-0.475830078125,0.01934814453125,0.87396240234375,5.031890869140625,-4.9945068359375,1.21124267578125,1,1.0,1.0,1.0,1.0,100.00
2021-04-15 09:13:58.264,1.1985106,0.8017638,0.776024,0.98678344,0.4849488,0.20335452,0.3962285,0.62147367,0.85648614,0.43722716,0.2873544,0.8183443,0.7734344,0.6206202,0.6019975,0.9773635,0.17061459,0.09954603,0.18724307,0.37659836,811.50183,818.3516,817.9487,804.2491,802.23444,-0.480224609375,0.02618408203125,0.87860107421875,4.5159912109375,-4.329071044921875,1.734619140625,1,1.0,1.0,1.0,1.0,100.00
2021-04-15 09:13:58.771,1.0982054,0.770914,0.67284226,0.93186045,0.38442835,0.2251542,0.25964618,0.62293285,0.8335664,0.5149083,0.2873544,0.8269876,0.7089219,0.57369286,0.5977434,0.9286661,0.23479252,0.12770608,0.23154035,0.38126597,758.315,814.3223,806.6667,784.90845,934.7985,-0.48504638671875,0.022705078125,0.87396240234375,4.762725830078125,-4.598236083984375,1.472930908203125,1,1.0,1.0,1.0,1.0,100.00
2021-04-15 09:13:59.297,0.9314843,0.4769857,0.6141097,0.9671325,0.35188895,0.20790628,0.04460434,0.5386229,0.59444207,0.5912756,0.06193167,0.63875437,0.6695684,0.59258807,0.64206594,0.9152061,0.31532833,0.05801946,0.22774781,0.3498662,768.3883,823.1868,818.7546,776.4469,742.6007,-0.487060546875,0.0213623046875,0.86822509765625,4.0972900390625,-5.271148681640625,2.056121826171875,1,1.0,1.0,1.0,1.0,100.00
2021-04-15 09:13:59.817,0.8204362,0.4864049,0.61551386,0.9628761,0.14035307,0.16940008,-0.05996062,0.33719265,0.22184308,0.53294766,0.12791094,0.48772052,0.6549263,0.5954325,0.72521955,0.9737004,0.19761853,-0.123368226,0.045588028,0.21655314,771.2088,794.17584,779.2674,814.7253,1054.4689,-0.49432373046875,0.02227783203125,0.868408203125,4.66552734375,-5.330963134765625,1.5252685546875,1,1.0,1.0,1.0,1.0,100.00
2021-04-15 09:14:00.357,1.0620732,0.46392158,0.43063667,1.0077771,-0.035853975,0.16055217,0.07067696,0.18688142,0.27104768,0.56553805,0.13034049,0.47148862,0.75297356,0.6384865,0.73611546,1.0175625,0.3022664,-0.12029031,-0.07106733,0.19353767,774.43225,835.2747,825.2015,755.09155,757.50916,-0.485595703125,0.02130126953125,0.87249755859375,4.71038818359375,-5.03936767578125,1.218719482421875,1,1.0,1.0,1.0,1.0,100.00
2021-04-15 09:14:01.404,0.9380397,0.45839146,0.6161287,0.96543294,0.3270317,0.18263797,0.27819607,0.33691218,0.7126155,0.6231489,0.40170056,0.46508303,0.7343957,0.6446556,0.6710433,0.88776314,0.36180636,0.056851607,0.006326677,0.14525585,800.2198,822.381,806.6667,786.52014,729.304,-0.482666015625,0.0260009765625,0.8779296875,5.286102294921875,-7.140350341796875,1.622467041015625,1,1.0,1.0,1.0,1.0,100.00
2021-04-15 09:14:01.962,0.9063517,0.5270488,0.7407216,0.9307528,0.38725105,0.1835605,0.3570847,0.52806085,0.7276288,0.59241575,0.4456632,0.6722202,0.66445154,0.62569475,0.68146604,0.70615786,0.32469457,0.15401536,0.16459553,0.43516412,846.9597,842.9304,805.8608,817.1429,846.55676,-0.4649658203125,0.02850341796875,0.883544921875,4.777679443359375,-5.674896240234375,0.6878662109375,1,1.0,1.0,1.0,1.0,100.00
2021-04-15 09:14:02.483,0.8559674,0.61390626,0.8236643,0.90191513,0.30470794,0.17837201,0.45866805,0.5686535,0.5744371,0.42768162,0.43945703,0.6409231,0.61505234,0.60669416,0.6927578,0.6142243,0.38348,0.21686718,0.21234415,0.54684436,805.8608,831.6484,824.3956,802.6374,731.31866,-0.43280029296875,0.036865234375,0.90264892578125,6.467437744140625,-13.884429931640625,-2.699127197265625,1,1.0,1.0,1.0,1.0,100.00
2021-04-15 09:14:03.013,1.0084947,0.53679234,0.6998781,0.92548984,0.42921466,0.13114877,0.44035745,0.58518255,0.2945538,0.29119998,0.31546703,0.5269184,0.50953454,0.62250954,0.69543445,0.58796525,0.27714962,0.2776835,0.2676227,0.57200104,794.9817,863.8828,824.7985,782.0879,808.2784,-0.387939453125,-0.016845703125,0.916259765625,0.22430419921875,-7.110443115234375,0.0299072265625,1,1.0,1.0,1.0,1.0,100.00
2021-04-15 09:14:03.545,1.0313479,0.48582843,0.7202788,0.9568985,0.42273024,0.07042016,0.43422717,0.599287,0.24833912,0.099170275,0.16738555,0.45333424,0.47976223,0.6428078,0.726627,0.57566065,0.26668584,0.31074396,0.16193062,0.58697057,801.8315,832.4542,820.3663,829.2308,795.78754,-0.39263916015625,-0.04473876953125,0.92352294921875,2.190704345703125,-5.4132080078125,4.882354736328125,1,1.0,1.0,1.0,1.0,100.00
2021-04-15 09:14:04.075,1.0313479,0.48582843,0.7202788,0.9568985,0.42273024,0.07042016,0.43422717,0.599287,0.24833912,0.099170275,0.16738555,0.45333424,0.47976223,0.6428078,0.726627,0.57566065,0.26668584,0.31074396,0.16193062,0.58697057,786.9231,840.5128,824.3956,798.60803,738.97437,-0.39178466796875,-0.0718994140625,0.91619873046875,2.130889892578125,-9.55535888671875,1.62994384765625,1,1.0,1.0,1.0,1.0,95.00
2021-04-15 09:14:04.586,1.0313479,0.48582843,0.7202788,0.9568985,0.42273024,0.07042016,0.43422717,0.599287,0.24833912,0.099170275,0.16738555,0.45333424,0.47976223,0.6428078,0.726627,0.57566065,0.26668584,0.31074396,0.16193062,0.58697057,801.4286,822.381,811.0989,837.6923,836.4835,-0.34417724609375,-0.09210205078125,0.9447021484375,4.134674072265625,-8.516082763671875,1.98883056640625,1,1.0,1.0,1.0,1.0,95.00
2021-04-15 09:14:05.103,1.0313479,0.48582843,0.5174784,0.9568985,0.42273024,0.07042016,-0.227925,0.599287,0.24833912,0.099170275,-0.037655152,0.45333424,0.47976223,0.6428078,0.56394863,0.57566065,0.26668584,0.31074396,-0.1316528,0.58697057,817.9487,811.50183,805.8608,819.15753,959.3773,-0.37213134765625,-0.09014892578125,0.9344482421875,3.745880126953125,-4.5458984375,1.936492919921875,1,2.0,1.0,1.0,2.0,95.00
2021-04-15 09:14:05.633,1.0313479,0.48582843,0.6019387,0.9568985,0.42273024,0.07042016,0.018707063,0.599287,0.24833912,0.099170275,-0.022278512,0.45333424,0.47976223,0.6428078,0.5426372,0.57566065,0.26668584,0.31074396,-0.12919085,0.58697057,771.6117,831.2454,823.1868,787.72894,792.96704,-0.32586669921875,-0.07000732421875,0.94793701171875,5.899200439453125,-5.18890380859375,2.684173583984375,1,2.0,1.0,1.0,2.0,95.00
2021-04-15 09:14:06.144,0.54756546,0.4777509,0.4363189,0.6309194,0.26029435,-0.20066983,-0.043691423,0.3489376,0.1228701,-0.1492933,-0.04494744,0.3065165,0.47236124,0.44175914,0.5537308,0.6199864,0.21883984,0.23911354,0.03267261,0.55834544,814.3223,818.7546,809.89014,780.07324,800.6227,-0.3287353515625,-0.00970458984375,0.943359375,3.78326416015625,-5.7122802734375,5.031890869140625,1,1.0,1.0,1.0,1.0,95.00
2021-04-15 09:14:06.646,0.54756546,0.29416338,0.22980455,0.7516594,0.26029435,-0.18423283,0.010263185,0.4534168,0.1228701,-0.027417557,-0.11672306,0.3080046,0.47236124,0.5574241,0.54832613,0.715485,0.21883984,0.14671686,0.0672306,0.52576274,784.5055,819.9634,821.5751,809.4872,769.59705,-0.33001708984375,0.00469970703125,0.95428466796875,7.77587890625,-8.17962646484375,3.349609375,1,1.0,1.0,1.0,1.0,95.00
2021-04-15 09:14:07.153,0.54756546,0.17766534,0.060908064,0.7516594,0.26029435,-0.18268451,-0.063292496,0.4534168,0.1228701,0.2628533,0.06768771,0.3080046,0.47236124,0.56932074,0.58280057,0.715485,0.21883984,0.08132289,0.042913582,0.52576274,818.3516,828.8278,822.381,774.83514,631.39197,-0.3248291015625,0.024658203125,0.9454345703125,4.628143310546875,-2.452392578125,3.42437744140625,1,1.0,1.0,1.0,1.0,95.00
2021-04-15 09:14:07.671,0.6058428,0.08492503,0.19038737,0.8667346,0.27070293,-0.16375928,-0.12436309,0.5562886,0.10250938,0.37757662,0.14226612,0.002623924,0.4619906,0.5942036,0.59559405,0.8112625,0.22016138,-0.013021873,0.027190635,0.48126385,813.91943,816.7399,802.6374,796.99634,835.2747,-0.32550048828125,0.01898193359375,0.9427490234375,4.9346923828125,-5.540313720703125,-0.411224365234375,1,1.0,1.0,1.0,1.0,95.00
2021-04-15 09:14:08.174,0.6058428,0.30692327,0.20320785,0.8667346,0.27070293,-0.13384701,-0.36778286,0.5562886,0.10250938,0.3774771,0.1523344,0.002623924,0.4619906,0.552107,0.565783,0.8112625,0.22016138,-0.04826938,-2.599385E-5,0.48126385,757.50916,824.7985,816.337,775.2381,796.5934,-0.302978515625,0.03497314453125,0.94384765625,3.27484130859375,-5.443115234375,0.91217041015625,1,1.0,1.0,1.0,1.0,95.00
2021-04-15 09:14:08.687,0.6058428,0.38199812,0.033887662,0.8667346,0.27070293,-0.0030089314,-0.7264134,0.5562886,0.10250938,0.3505609,0.17908777,0.002623924,0.4619906,0.5173002,0.4847406,0.8112625,0.22016138,0.16619945,0.16645402,0.48126385,808.68134,810.696,803.0403,804.2491,906.99634,-0.3057861328125,0.0264892578125,0.9547119140625,3.850555419921875,-4.59075927734375,0.5682373046875,1,1.0,1.0,1.0,1.0,95.00
2021-04-15 09:14:09.210,0.6058428,0.4040403,0.2944757,0.8667346,0.27070293,0.19967325,-0.15134238,0.5562886,0.10250938,0.18366225,0.12737228,0.002623924,0.4619906,0.47835466,0.43383098,0.8112625,0.22016138,0.21108662,0.19242117,0.48126385,816.7399,841.31866,797.8022,777.25275,772.8205,-0.30023193359375,0.01123046875,0.95367431640625,5.03936767578125,-1.861724853515625,-5.2337646484375,1,1.0,1.0,1.0,1.0,95.00
2021-04-15 09:14:09.732,0.6058428,0.4032518,0.5437379,0.8667346,0.27070293,0.29224613,0.13401109,0.5562886,0.10250938,0.21273774,0.17774075,0.002623924,0.4619906,0.46113062,0.41311178,0.8112625,0.22016138,0.28373605,0.25871104,0.48126385,907.8022,843.73627,821.1722,916.26373,732.9304,-0.3648681640625,0.00152587890625,0.9254150390625,-0.396270751953125,0.478515625,6.878662109375,1,2.0,1.0,1.0,2.0,95.00
2021-04-15 09:14:10.260,0.6058428,0.5476344,0.8563892,0.8667346,0.27070293,0.42024076,0.44043446,0.5562886,0.10250938,0.16591352,0.17027456,0.002623924,0.4619906,0.42671755,0.41159472,0.8112625,0.22016138,0.17495432,0.20219289,0.48126385,875.16486,858.6447,783.69965,843.3333,793.7729,-0.3115234375,-0.03173828125,0.95843505859375,6.183319091796875,-11.775970458984375,-3.551483154296875,1,2.0,1.0,1.0,2.0,95.00
2021-04-15 09:14:10.765,0.6058428,0.60372156,0.93902546,0.8667346,0.27070293,0.42580244,0.51518446,0.5562886,0.10250938,0.16591352,0.16904898,0.002623924,0.4619906,0.4207273,0.41769707,0.8112625,0.22016138,0.14961354,0.19340502,0.48126385,768.7912,847.3626,819.5604,803.0403,722.0513,-0.30548095703125,-0.01104736328125,0.95281982421875,7.117919921875,-3.327178955078125,-0.037384033203125,1,2.0,1.0,1.0,2.0,95.00
2021-04-15 09:14:11.279,0.6058428,0.60372156,0.93902546,0.8667346,0.27070293,0.42580244,0.51518446,0.5562886,0.10250938,0.16591352,0.16904898,0.002623924,0.4619906,0.4207273,0.41769707,0.8112625,0.22016138,0.14961354,0.19340502,0.48126385,774.83514,807.8755,809.0842,793.7729,840.10986,-0.33526611328125,0.007080078125,0.9459228515625,5.420684814453125,-4.11224365234375,0.28411865234375,1,2.0,1.0,1.0,2.0,95.00
2021-04-15 09:14:11.779,0.70917153,0.60372156,0.6532149,0.9861008,-0.06846338,0.42580244,-0.009562395,0.4160631,-0.08562174,0.16591352,0.36837998,0.49231008,0.6184959,0.4207273,0.44276002,0.93380255,0.09753434,0.14961354,0.10907384,0.18890199,819.9634,815.9341,832.0513,796.99634,772.01465,-0.328369140625,0.01788330078125,0.94512939453125,4.66552734375,-3.880462646484375,1.622467041015625,1,1.0,1.0,1.0,1.0,95.00
2021-04-15 09:14:12.290,0.508309,0.60372156,0.54139006,0.8341966,0.056485962,0.42580244,0.012580432,0.28752357,0.28155574,0.16591352,0.40816596,0.5586848,0.5341575,0.4207273,0.3814294,0.8384222,0.19255099,0.14961354,0.1276466,0.32128075,799.81683,834.87177,828.4249,780.87915,741.79486,-0.3427734375,0.020751953125,0.946044921875,5.51788330078125,-4.777679443359375,0.800018310546875,1,1.0,1.0,1.0,1.0,95.00
2021-04-15 09:14:12.802,0.52748156,0.12269817,0.46844193,0.7164846,0.19205813,-0.07964402,0.071677946,0.34441206,0.3894327,0.33475608,0.4128105,0.5757701,0.5151119,0.57324564,0.4140514,0.85512066,0.21214376,0.23168766,0.124008335,0.33613476,812.3077,799.011,809.0842,814.7253,1000.87915,-0.33721923828125,0.01788330078125,0.94232177734375,4.88983154296875,-4.62066650390625,0.291595458984375,1,1.0,1.0,1.0,1.0,95.00
2021-04-15 09:14:13.318,0.4321173,-0.010427977,0.22458872,0.4614371,0.23373438,-0.16147387,0.079801746,0.3178252,0.4677236,0.34560382,0.33949232,0.60238224,0.4716845,0.5616258,0.4746292,0.7994321,0.3326699,0.3180382,0.20258921,0.47737804,513.3333,756.7033,843.73627,504.06595,804.2491,-0.3564453125,0.00372314453125,0.93194580078125,0.13458251953125,-3.9776611328125,2.94586181640625,1,1.0,1.0,1.0,1.0,95.00
2021-04-15 09:14:13.832,0.5130807,0.0046435925,0.1736694,0.36111122,0.27995175,-0.17878737,0.09762511,0.4027221,0.45860398,0.33319312,0.25215217,0.594241,0.48200446,0.5510281,0.54733336,0.83967036,0.3700764,0.32191566,0.22567153,0.5050701,792.1612,824.3956,826.0073,780.4762,726.08057,-0.34869384765625,-0.028076171875,0.932861328125,4.837493896484375,-3.6785888671875,5.390777587890625,1,1.0,1.0,1.0,1.0,95.00
2021-04-15 09:14:14.369,0.4462698,-0.25489587,-0.51322913,0.43332645,0.14697374,-0.28572342,0.0129043115,0.35146716,0.334532,0.14052123,0.1701099,0.59407216,0.48625717,0.5472586,0.6081154,0.7726588,0.48804075,0.40310475,0.293427,0.6340669,798.60803,804.2491,799.011,789.7436,824.3956,-0.36224365234375,-0.01959228515625,0.93365478515625,8.231964111328125,-1.80938720703125,1.039276123046875,1,1.0,1.0,1.0,1.0,90.00
2021-04-15 09:14:14.874,0.4462698,-0.24620108,-0.47673422,0.43332645,0.14697374,-0.28965682,-0.020612035,0.35146716,0.334532,0.037717104,0.11391894,0.59407216,0.48625717,0.5662435,0.6112625,0.7726588,0.48804075,0.41891629,0.30481824,0.6340669,745.0183,798.60803,789.7436,776.8498,780.4762,-0.3878173828125,0.02789306640625,0.9078369140625,2.086029052734375,-6.706695556640625,-1.383209228515625,1,1.0,1.0,1.0,1.0,90.00
2021-04-15 09:14:15.381,0.4462698,0.28597686,0.3729636,0.43332645,0.14697374,-0.3129196,-0.09474119,0.35146716,0.334532,-0.1378262,0.04321468,0.59407216,0.48625717,0.36185664,0.5914879,0.7726588,0.48804075,-0.09862967,0.29400152,0.6340669,715.6044,781.685,775.2381,723.2601,690.6227,-0.42462158203125,0.025634765625,0.9017333984375,10.72174072265625,-0.411224365234375,2.773895263671875,1,1.0,1.0,1.0,1.0,90.00
2021-04-15 09:14:15.895,0.4462698,0.28597686,0.3729636,0.43332645,0.14697374,-0.3129196,-0.09474119,0.35146716,0.334532,-0.1378262,0.04321468,0.59407216,0.48625717,0.36185664,0.5914879,0.7726588,0.48804075,-0.09862967,0.29400152,0.6340669,737.3626,781.685,754.2857,757.9121,809.4872,-0.4700927734375,0.04248046875,0.88995361328125,5.644989013671875,2.27294921875,-5.988922119140625,1,1.0,1.0,1.0,1.0,90.00
2021-04-15 09:14:16.423,0.5317675,0.2277591,0.60042006,0.4086475,0.60107297,-0.07139427,-0.13859375,0.5404337,1.2114308,0.29176512,0.28878745,0.99102503,0.72704405,0.45726466,0.56853145,0.7880324,0.16668458,-0.004854164,0.1475647,0.33276814,750.2564,779.67035,775.64105,735.7509,726.4835,-0.49957275390625,0.04205322265625,0.86322021484375,3.476715087890625,-4.329071044921875,3.880462646484375,1,1.0,1.0,1.0,1.0,90.00
2021-04-15 09:14:16.971,0.8363277,0.46167007,0.7592288,0.54734445,0.57928514,0.21936265,-0.120908745,0.4647295,1.0584047,0.36639342,0.24369416,0.9444876,0.7624302,0.48018953,0.57719934,0.8764455,0.22995533,-0.084306754,-0.14130764,0.2936222,836.08057,809.4872,800.2198,796.1905,765.16486,-0.49041748046875,0.05474853515625,0.87274169921875,10.579681396484375,-4.56085205078125,3.7982177734375,1,1.0,1.0,1.0,1.0,90.00
2021-04-15 09:14:17.494,0.8740277,0.46167007,0.7592288,0.5753667,0.56266415,0.21936265,-0.120908745,0.4246665,1.0584047,0.36639342,0.24369416,0.9444876,0.7713893,0.48018953,0.57719934,0.91586185,0.2538065,-0.084306754,-0.14130764,0.29785314,781.685,805.05493,794.17584,767.98535,697.8755,-0.45611572265625,0.0579833984375,0.8836669921875,3.2598876953125,-9.218902587890625,-0.52337646484375,1,1.0,1.0,1.0,1.0,90.00
2021-04-15 09:14:18.009,1.1728169,0.52150065,0.8393372,0.68453336,0.5064784,0.2919376,-0.07606669,0.2426997,0.860297,0.36639342,0.24088167,0.9072613,0.7846021,0.4635455,0.5612716,1.0005035,0.37375066,-0.12740308,-0.21214326,0.33003497,792.1612,819.9634,813.1135,784.90845,758.71796,-0.4754638671875,0.02301025390625,0.87298583984375,4.605712890625,-7.050628662109375,-5.794525146484375,1,1.0,1.0,1.0,1.0,90.00
2021-04-15 09:14:18.530,1.1728169,0.86974454,0.8393372,0.68453336,0.5064784,0.36528537,-0.07606669,0.2426997,0.860297,0.28197303,0.24088167,0.9072613,0.7846021,0.49924013,0.5612716,1.0005035,0.37375066,0.06861122,-0.21214326,0.33003497,815.9341,831.6484,819.9634,805.4579,788.93774,-0.5047607421875,0.0045166015625,0.86328125,5.226287841796875,-3.805694580078125,-1.48040771484375,1,1.0,1.0,1.0,1.0,90.00
2021-04-15 09:14:19.046,1.0199145,0.6224967,0.8393372,0.68453336,0.5838409,0.26751426,-0.07606669,0.2426997,0.52148336,0.36299905,0.24088167,0.9072613,0.7995351,0.47971767,0.5612716,1.0005035,0.1400378,0.002838331,-0.21214326,0.33003497,807.0696,825.2015,826.8132,778.86444,748.24176,-0.4569091796875,0.02691650390625,0.8963623046875,4.02252197265625,-9.091796875,1.712188720703125,1,1.0,1.0,1.0,1.0,90.00
2021-04-15 09:14:19.590,0.8525504,0.46941793,0.9210445,0.8835819,0.39557186,0.17411241,0.1628456,0.47366136,0.52244294,0.363398,0.22021903,0.56806785,0.7603523,0.421251,0.3461851,0.88854957,0.2109223,-0.010702188,-0.11527797,0.35019347,810.293,819.5604,809.4872,794.17584,766.77655,-0.44580078125,0.020751953125,0.8985595703125,3.820648193359375,-3.760833740234375,3.170166015625,1,1.0,1.0,1.0,1.0,90.00
2021-04-15 09:14:20.130,0.84761137,0.08679617,0.8861291,0.8835819,0.3140337,-0.0072813705,0.06587626,0.47366136,0.64274526,0.34605116,0.24821927,0.56806785,0.72972155,0.40521696,0.37071592,0.88854957,0.30081305,0.012440429,-0.03481504,0.35019347,831.2454,834.87177,830.84247,796.99634,745.0183,-0.4522705078125,0.01702880859375,0.88946533203125,4.91973876953125,-5.540313720703125,0.94207763671875,1,1.0,1.0,1.0,1.0,90.00
2021-04-15 09:14:20.639,0.6916351,0.31848314,0.81067145,0.759955,0.1439069,-0.0281985,-0.07034042,0.5250499,0.5548757,0.06807972,0.26538435,0.5954945,0.6906173,0.40882412,0.44195202,0.8238153,0.35060272,0.04138598,-0.06869315,0.38631177,814.7253,838.49817,836.08057,795.38464,724.0659,-0.44671630859375,0.01263427734375,0.8953857421875,5.001983642578125,-5.84686279296875,-0.35888671875,1,1.0,1.0,1.0,1.0,90.00
2021-04-15 09:14:21.145,0.60082227,0.37750491,0.62211746,0.20370267,0.1046479,-0.051707257,-0.2496924,0.29719803,0.5548757,0.13576695,0.15449606,0.44671717,0.6094569,0.40979153,0.42760506,0.748479,0.35355502,0.11771286,-0.02266829,0.49635172,828.022,826.0073,818.3516,813.91943,816.7399,-0.46026611328125,0.0108642578125,0.888916015625,4.314117431640625,-3.72344970703125,-0.127105712890625,1,1.0,1.0,1.0,1.0,90.00
2021-04-15 09:14:21.660,0.2766695,0.44107252,0.40942404,0.29068038,-0.04329539,0.13984445,-0.10801608,0.20082572,0.27486244,0.24749206,0.29049906,0.47587574,0.571261,0.29471588,0.44676664,0.7518349,0.35490236,0.10883603,9.582749E-7,0.46406725,761.9414,821.1722,819.5604,791.3553,844.1392,-0.4539794921875,0.0186767578125,0.89569091796875,4.68048095703125,-3.342132568359375,0.605621337890625,1,1.0,1.0,1.0,1.0,90.00
2021-04-15 09:14:22.165,0.4404025,0.5926649,0.31761864,0.6223524,0.10241166,0.17543323,0.09754558,0.18638563,0.5193389,0.25820214,0.28886905,0.51814586,0.6140029,0.29175833,0.47968873,0.7407887,0.31872335,0.06896863,-0.040031347,0.37271607,776.4469,800.2198,799.011,763.5531,722.4542,-0.460693359375,0.01751708984375,0.89031982421875,5.914154052734375,-3.416900634765625,1.51031494140625,1,1.0,1.0,1.0,1.0,90.00
2021-04-15 09:14:22.715,0.7375055,0.7375651,0.5754348,0.8887231,0.25901353,0.17806849,0.12261217,0.31429073,0.5193389,0.2526251,0.29972243,0.65625596,0.65975696,0.32571217,0.5601322,0.7197148,0.27718997,-0.049939062,-0.0649462,0.22212975,766.3736,814.7253,814.3223,792.1612,780.07324,-0.465087890625,0.02099609375,0.88433837890625,5.106658935546875,-4.9346923828125,1.0467529296875,1,1.0,1.0,1.0,1.0,90.00
2021-04-15 09:14:23.237,0.9713442,0.87060195,0.7459563,1.096097,0.5748252,0.06830651,0.046314377,0.5731133,0.5845282,0.15075652,0.3086134,0.83527964,0.6686892,0.429838,0.5646331,0.6732652,0.13921309,-0.15898591,-0.057112932,0.13873883,823.5897,837.6923,826.8132,813.5165,821.978,-0.466552734375,0.021484375,0.8873291015625,4.964599609375,-6.183319091796875,0.82244873046875,1,1.0,1.0,1.0,1.0,90.00
2021-04-15 09:14:23.752,1.158067,0.68119824,0.7816255,1.2751338,0.5949815,-0.15352869,0.17496179,0.76587915,0.7833165,0.14936173,0.26060686,0.8617881,0.6342795,0.41445276,0.48603404,0.66508526,0.138884,-0.0598958,0.03166109,0.30586785,810.293,821.5751,815.12823,804.65204,888.46155,-0.46112060546875,0.0242919921875,0.88665771484375,5.33843994140625,-5.211334228515625,1.338348388671875,1,1.0,1.0,1.0,1.0,90.00
2021-04-15 09:14:24.264,1.0185665,0.4661092,0.6132725,1.1762493,0.4812963,-0.008017538,0.16799793,0.6929341,0.8532761,0.18791048,0.20338953,0.8043118,0.65154827,0.3968474,0.42897668,0.6601075,0.17754647,-0.011486392,-0.013374033,0.32238448,732.52747,804.2491,845.34796,747.03296,728.9011,-0.48675537109375,0.02178955078125,0.8736572265625,5.420684814453125,-2.572021484375,1.457977294921875,1,1.0,1.0,1.0,1.0,90.00
2021-04-15 09:14:24.778,1.0010442,0.67014575,0.5700745,1.1935819,0.224391,0.08146998,0.112908915,0.55483335,0.84300685,0.29720742,0.18924607,0.73067003,0.6942145,0.3300932,0.377854,0.68102354,0.20324746,-0.021268489,-0.037859317,0.30537274,745.0183,809.4872,778.86444,776.8498,768.7912,-0.4671630859375,0.024169921875,0.8863525390625,4.3365478515625,-5.203857421875,1.263580322265625,1,1.0,1.0,1.0,1.0,95.00
2021-04-15 09:14:25.315,0.62389016,0.6714248,0.64260644,1.1935819,-0.030720452,0.029261235,0.021351563,0.55483335,0.7966153,0.27739236,0.08491268,0.73067003,0.6841447,0.31422296,0.35199493,0.68102354,0.25208065,-0.08083396,-0.05593788,0.30537274,792.5641,797.3993,795.78754,799.81683,802.6374,-0.47601318359375,0.0216064453125,0.87799072265625,4.366455078125,-4.074859619140625,0.022430419921875,1,1.0,1.0,1.0,1.0,95.00
2021-04-15 09:14:25.834,0.7062748,0.7040513,0.677129,0.6843488,0.5418735,-0.04572192,0.09748628,0.6328405,1.0375283,0.3006184,0.25057036,1.037626,0.7588008,0.3524852,0.27304897,0.74093497,-0.093829334,-0.1689496,-0.29326394,0.10374315,765.56775,839.304,821.1722,784.5055,740.989,-0.48779296875,0.01348876953125,0.872802734375,4.134674072265625,-5.03936767578125,1.443023681640625,1,1.0,1.0,1.0,1.0,95.00
2021-04-15 09:14:26.349,0.86398846,0.67119277,0.7181808,0.64400536,0.38649705,-0.13378462,-0.007135526,0.54257774,1.1150703,0.36193782,0.4823852,1.0383589,0.67553276,0.38102695,0.32262087,0.76840097,-0.07167807,-0.26015136,-0.31203675,0.05035712,811.50183,812.3077,813.91943,779.2674,784.5055,-0.4827880859375,0.014404296875,0.87646484375,4.14215087890625,-4.1571044921875,1.33087158203125,1,1.0,1.0,1.0,1.0,95.00
2021-04-15 09:14:26.881,0.7476158,0.8551917,0.9411016,0.6665819,0.37546077,0.12778994,0.34916502,0.53973144,1.1150703,0.48496258,0.5898235,1.0741975,0.5915429,0.43813264,0.3665897,0.7467335,-0.024623876,-0.20893209,-0.16132538,0.15799266,809.89014,816.337,811.9048,787.326,731.31866,-0.48797607421875,0.012451171875,0.87396240234375,5.203857421875,-3.701019287109375,1.45050048828125,1,1.0,1.0,1.0,1.0,95.00
2021-04-15 09:14:27.413,0.7826512,1.0718018,0.98904324,0.6215352,0.32958356,0.33613485,0.5094893,0.47379202,0.9761578,0.50538814,0.61608124,0.97505176,0.50337225,0.37768948,0.45032367,0.74805254,0.06042232,-0.07426472,-0.11029112,0.22212312,772.01465,802.23444,813.1135,766.3736,737.76556,-0.48541259765625,0.01123046875,0.87725830078125,4.493560791015625,-5.256195068359375,1.1065673828125,1,1.0,1.0,1.0,1.0,95.00
2021-04-15 09:14:27.948,0.59001225,1.1104219,1.1204299,0.64011,0.41557363,0.4857097,0.73822576,0.513497,0.6461612,0.31434977,0.7742589,0.82439923,0.45388222,0.429609,0.54030776,0.7127134,0.11770359,0.08455989,-0.09335135,0.32600132,838.9011,812.3077,802.6374,814.7253,899.7436,-0.49072265625,0.0115966796875,0.87530517578125,4.5458984375,-5.031890869140625,0.740203857421875,1,1.0,1.0,1.0,1.0,95.00
2021-04-15 09:14:28.491,0.76320165,1.1104219,1.0607529,0.51248175,0.4964475,0.4857097,0.7189027,0.51511467,0.58273286,0.31434977,0.7742589,0.7653137,0.5398913,0.429609,0.5846479,0.70562977,0.18625095,0.08455989,-0.17504373,0.32345036,782.8938,831.6484,837.6923,798.60803,749.0476,-0.49755859375,0.01251220703125,0.86968994140625,4.852447509765625,-4.08233642578125,0.88226318359375,1,1.0,1.0,1.0,1.0,95.00
2021-04-15 09:14:29.016,0.76320165,0.7236194,0.9994108,0.51248175,0.4964475,0.5035444,0.6209924,0.51511467,0.58273286,0.37682405,0.7900672,0.7653137,0.5398913,0.19890104,0.49726805,0.70562977,0.18625095,-0.0028093578,-0.014476016,0.32345036,782.8938,818.7546,817.1429,810.293,843.73627,-0.48956298828125,0.0107421875,0.87139892578125,4.508514404296875,-4.23187255859375,1.428070068359375,1,1.0,1.0,1.0,1.0,95.00
2021-04-15 09:14:29.561,1.0024508,0.78323734,0.94325614,1.0617429,0.4356892,0.57515824,0.15065272,0.49284765,0.51383066,0.38158852,0.34672034,0.81839055,0.6147921,0.35690364,0.4043515,0.7572496,0.14405045,-0.067438796,-0.122623,0.357612,785.7143,820.7692,817.9487,816.7399,622.1245,-0.4866943359375,0.00494384765625,0.8701171875,4.553375244140625,-5.615081787109375,0.994415283203125,1,1.0,1.0,1.0,1.0,95.00
2021-04-15 09:14:30.080,1.1311234,0.90857476,0.96178615,1.0438699,0.6028903,0.6643367,0.15350164,0.5462269,0.67121965,0.45599064,0.3534853,0.8288574,0.62767434,0.35624048,0.38957065,0.7487895,0.145163,-0.13004433,-0.20988776,0.287332,777.6557,798.60803,802.23444,795.38464,800.6227,-0.48004150390625,0.006591796875,0.86859130859375,5.988922119140625,-4.486083984375,-2.452392578125,1,1.0,1.0,1.0,1.0,95.00
2021-04-15 09:14:30.623,1.1634902,0.96906394,1.0503801,1.0243682,0.5958373,0.7060393,0.1778793,0.5834888,0.6899202,0.47378853,0.32518426,0.89712423,0.6125848,0.3932809,0.3746107,0.73099226,0.112264685,-0.16011031,-0.23130065,0.21907297,834.87177,812.71063,803.0403,802.6374,747.4359,-0.48614501953125,0.008544921875,0.87457275390625,5.84686279296875,-5.525360107421875,-1.906585693359375,1,1.0,1.0,1.0,1.0,95.00
2021-04-15 09:14:31.150,1.2237512,1.043781,0.9557406,1.0444393,0.6425155,0.7093876,0.25362012,0.57822186,0.7117358,0.6622951,0.35994744,0.8338785,0.58374375,0.37278768,0.34434327,0.6825872,0.046770003,-0.06477884,-0.037165016,0.108618304,798.20514,819.9634,827.2161,790.9524,750.65936,-0.465087890625,0.01519775390625,0.8851318359375,5.241241455078125,-7.91046142578125,1.07666015625,1,1.0,1.0,1.0,1.0,95.00
2021-04-15 09:14:31.674,1.0397408,0.85097516,0.80761504,0.9728714,0.3866207,0.50135094,0.15358803,0.46076843,0.63830316,0.61679244,0.36842227,0.7891348,0.57080835,0.3377712,0.35460463,0.6511376,-0.049287904,-0.06123506,0.025783584,0.07523778,821.1722,814.7253,811.0989,797.3993,700.696,-0.468017578125,0.0115966796875,0.8834228515625,4.5458984375,-3.75335693359375,0.7476806640625,1,1.0,1.0,1.0,1.0,95.00
2021-04-15 09:14:32.204,0.79047036,0.6294855,0.53973377,0.70517004,0.13910128,0.28853193,0.05802168,0.174991,0.38175535,0.57418644,0.30084753,0.7656321,0.59588265,0.3121323,0.41260442,0.6694349,0.0698951,-0.08484689,-0.009933269,0.19861162,778.0586,829.2308,826.0073,769.59705,732.9304,-0.4632568359375,0.01025390625,0.88543701171875,4.673004150390625,-5.5328369140625,1.4654541015625,1,1.0,1.0,1.0,1.0,95.00
2021-04-15 09:14:32.741,0.358092,0.17360237,0.4081985,0.34700036,-0.02150232,-0.075035766,-0.09420566,0.043565296,0.22541445,0.09456306,0.0482513,0.4804658,0.61174625,0.27360314,0.42887133,0.67059606,0.10386813,-0.14922832,-0.12292768,0.22235568,785.7143,811.0989,807.8755,799.81683,799.41394,-0.462158203125,0.0068359375,0.8861083984375,4.658050537109375,-4.5758056640625,1.00189208984375,1,1.0,1.0,1.0,1.0,95.00
2021-04-15 09:14:33.259,0.47918183,0.12099494,0.41716933,0.4765522,0.08059528,-0.06880864,-0.22559787,0.2510886,0.4481295,0.03363065,0.123141505,0.5423201,0.6623968,0.32049072,0.37958574,0.6670709,0.20419277,-0.11513209,-0.10668749,0.3430989,805.8608,819.5604,815.12823,805.8608,753.8828,-0.46331787109375,0.00555419921875,0.87933349609375,4.59075927734375,-4.134674072265625,1.039276123046875,1,1.0,1.0,1.0,1.0,95.00
2021-04-15 09:14:33.762,0.7748974,0.14359355,0.450269,0.7413543,0.141103,-0.21763851,-0.433993,0.5172527,0.5264613,-0.002857819,0.10593895,0.74905837,0.62452006,0.30113932,0.38496834,0.67734337,0.12532194,-0.13054974,-0.07603221,0.31479025,767.5824,809.4872,812.71063,788.93774,749.0476,-0.47393798828125,0.00537109375,0.87945556640625,5.061798095703125,-3.087921142578125,1.1962890625,1,1.0,1.0,1.0,1.0,95.00
2021-04-15 09:14:34.291,0.764608,0.15185927,0.25377998,0.8381394,0.11414877,-0.341604,-0.39431113,0.49384052,0.52724266,0.17063735,0.24181035,0.77360046,0.51689863,0.3282368,0.4105537,0.64823735,0.07031182,-0.18293063,-0.10156823,0.24001229,819.9634,792.1612,782.8938,809.4872,913.0403,-0.47113037109375,0.00830078125,0.87811279296875,4.2767333984375,-3.880462646484375,1.562652587890625,1,1.0,1.0,1.0,1.0,95.00
2021-04-15 09:14:34.838,0.7380338,0.46265048,0.4927399,0.8802264,0.122655034,-0.22957811,-0.2068356,0.504999,0.5053733,0.2695688,0.2848253,0.77727866,0.44530866,0.32017213,0.45141897,0.6542225,0.03626786,-0.18853264,-0.05945498,0.1940917,796.99634,792.5641,794.17584,775.2381,749.45056,-0.50433349609375,0.0057373046875,0.86676025390625,4.687957763671875,-5.33843994140625,1.906585693359375,1,1.0,1.0,1.0,1.0,95.00
2021-04-15 09:14:35.370,0.54796344,0.526517,0.47893283,0.7566486,-0.0060064737,-0.129417,-0.12954043,0.38858512,0.35888034,0.32660595,0.2687772,0.6717779,0.37433687,0.30582646,0.42519158,0.61763877,0.061775714,-0.24768466,-0.13783118,0.1649254,723.663,788.5348,799.81683,716.0073,768.7912,-0.49884033203125,0.0137939453125,0.87310791015625,5.719757080078125,-3.760833740234375,-0.9271240234375,1,1.0,1.0,1.0,1.0,95.00
2021-04-15 09:14:35.875,0.37642395,0.67686117,0.58224094,0.5933865,-0.09612303,0.14809036,-0.096921116,0.28607735,0.26823196,0.24613725,0.27481413,0.5008605,0.43228957,0.21004215,0.38236198,0.6323583,0.09425705,-0.15530647,-0.117226295,0.17116998,811.0989,799.41394,803.8461,780.07324,740.58606,-0.43890380859375,-0.05230712890625,0.87615966796875,10.00396728515625,-9.592742919921875,-4.882354736328125,1,1.0,1.0,1.0,1.0,95.00
2021-04-15 09:14:36.381,0.4365565,0.7785784,0.5671955,0.5007987,-0.11956652,0.21251568,-0.09833448,0.33071774,0.17546901,0.27947393,0.28826866,0.23178315,0.3760611,0.21677245,0.40626243,0.54556257,0.14066112,-0.17907993,-0.2227158,0.14088635,824.7985,830.0366,817.9487,809.0842,798.60803,-0.4658203125,0.06787109375,0.90203857421875,3.327178955078125,-0.919647216796875,3.4393310546875,1,1.0,1.0,1.0,1.0,95.00
2021-04-15 09:14:36.909,0.4365565,0.8833805,0.6815789,0.5035531,-0.11956652,0.3280673,-0.0752789,0.3739666,0.17546901,0.16497909,0.17502786,0.21645537,0.3760611,0.19951272,0.3735289,0.5345714,0.14066112,-0.109019294,-0.17315447,0.12206584,755.09155,786.52014,783.69965,782.8938,853.00366,-0.5107421875,0.00787353515625,0.86627197265625,0.949554443359375,-0.11962890625,-3.8580322265625,1,1.0,1.0,1.0,1.0,95.00
2021-04-15 09:14:37.413,0.4365565,0.9311579,0.6718909,0.5035531,-0.11956652,0.17474465,-0.06814363,0.3739666,0.17546901,0.058319304,0.038619895,0.21645537,0.3760611,0.35515124,0.45029137,0.5345714,0.14066112,-0.2098285,-0.16676098,0.12206584,807.47253,812.3077,811.0989,774.83514,785.7143,-0.49188232421875,-0.00689697265625,0.8646240234375,5.60760498046875,-5.8319091796875,2.220611572265625,1,1.0,1.0,1.0,1.0,95.00
2021-04-15 09:14:37.931,1.2057558,0.9311579,0.6718909,0.5035531,0.44125858,0.17474465,-0.06814363,0.3739666,1.0942025,0.058319304,0.038619895,0.21645537,0.66759133,0.35515124,0.45029137,0.5345714,-0.054913048,-0.2098285,-0.16676098,0.12206584,791.3553,801.02563,803.0403,758.71796,767.5824,-0.50958251953125,0.012939453125,0.86846923828125,4.044952392578125,-3.252410888671875,2.0635986328125,1,1.0,1.0,1.0,1.0,95.00
2021-04-15 09:14:38.470,1.1264812,1.0679556,0.6718909,0.96116793,0.4587575,0.21098183,-0.06814363,0.6308174,1.1396738,0.42620012,0.038619895,1.0136282,0.63153255,0.3720149,0.45029137,0.7554095,-0.050877053,-0.17334385,-0.16676098,0.060548913,799.011,794.9817,799.011,797.3993,983.5531,-0.51373291015625,0.0035400390625,0.86297607421875,4.62066650390625,-5.988922119140625,0.52337646484375,1,1.0,1.0,1.0,1.0,95.00
2021-04-15 09:14:38.985,1.1264812,1.0602715,0.6718909,0.96116793,0.4587575,0.32243893,-0.06814363,0.6308174,1.1396738,0.44830143,0.038619895,1.0136282,0.63153255,0.3251677,0.45029137,0.7554095,-0.050877053,-0.11069595,-0.16676098,0.060548913,786.1172,865.89746,787.326,740.18317,724.4689,-0.51275634765625,5.4931640625E-4,0.85589599609375,4.80010986328125,-4.837493896484375,1.009368896484375,1,1.0,1.0,1.0,1.0,95.00
2021-04-15 09:14:39.508,1.3508776,1.0296617,0.6718909,1.4120029,0.77778363,0.29930025,-0.06814363,0.75700206,1.1461898,0.44830143,0.038619895,1.217649,0.77718025,0.32129845,0.45029137,0.89636904,0.034509923,-0.11202242,-0.16676098,0.2609676,801.02563,792.5641,811.0989,839.304,869.12085,-0.51116943359375,-0.0029296875,0.8568115234375,4.62066650390625,-5.046844482421875,0.530853271484375,1,1.0,1.0,1.0,1.0,95.00
2021-04-15 09:14:40.045,1.621574,0.96252173,1.0160003,1.6318561,0.9859485,0.36826846,0.6916936,0.85873216,1.0476916,0.009142029,0.15267093,1.1966736,0.86630106,0.2927533,0.34747517,0.93014777,0.09768322,-0.09450231,0.004811256,0.28616405,780.4762,787.72894,840.5128,805.8608,719.6337,-0.51934814453125,-6.7138671875E-4,0.8565673828125,4.418792724609375,-4.88983154296875,0.8673095703125,1,1.0,1.0,1.0,1.0,95.00
2021-04-15 09:14:40.570,1.7248459,0.96252173,0.9227584,1.7339463,1.3173263,0.36826846,0.50269526,1.2075106,1.2211132,0.009142029,0.19338864,1.389027,0.874637,0.2927533,0.34976274,0.9602309,0.12931658,-0.09450231,-0.020406492,0.2772791,793.36993,819.5604,818.3516,808.2784,741.39197,-0.5079345703125,0.0025634765625,0.8609619140625,4.605712890625,-5.301055908203125,1.128997802734375,1,1.0,1.0,1.0,1.0,95.00
2021-04-15 09:14:41.113,1.7243528,0.90100574,0.94765157,1.7689644,1.5077937,0.555113,0.2790269,1.4902704,1.168971,0.5313503,0.032209538,1.3391427,0.7751925,0.25345063,0.33934984,0.88389426,0.11318522,-0.12314807,-0.050625086,0.21243915,819.5604,819.5604,815.9341,801.4286,705.5311,-0.509521484375,0.00225830078125,0.86083984375,5.435638427734375,-5.54779052734375,1.18133544921875,1,1.0,1.0,1.0,1.0,95.00
2021-04-15 09:14:41.649,1.4960586,0.7043374,0.7801239,1.5241948,1.3546509,0.3883392,0.13867329,1.3824967,1.1654689,0.5313503,0.025224527,1.328464,0.76538473,0.22437799,0.2974596,0.8801184,0.05156365,-0.18511026,-0.08033155,0.1860557,817.9487,820.7692,826.4103,801.4286,696.6667,-0.50927734375,0.00494384765625,0.86151123046875,4.852447509765625,-6.063690185546875,0.79254150390625,1,1.0,1.0,1.0,1.0,95.00
2021-04-15 09:14:42.160,1.1341665,0.453683,0.36752242,1.1340597,0.9820207,-5.368652E-4,0.060200877,0.9931017,1.1178373,0.3389557,0.11430305,1.2377365,0.7194163,0.24307692,0.20517835,0.81441015,-0.026189748,-0.31995833,-0.14066303,0.13903268,800.6227,797.3993,796.99634,770.40295,751.4652,-0.476806640625,0.0147705078125,0.8800048828125,4.538421630859375,-3.207550048828125,1.80938720703125,1,1.0,1.0,1.0,1.0,95.00
2021-04-15 09:14:42.702,0.71658367,0.7539906,0.2259561,0.6392247,0.47849002,-0.08555148,0.09924197,0.59170455,0.9802318,0.28483012,0.11430305,1.0528365,0.7275573,0.23489627,0.21681784,0.7977116,-0.0602775,-0.3290273,-0.079687364,0.13703482,749.85345,784.5055,782.8938,757.50916,796.5934,-0.49749755859375,0.00531005859375,0.87152099609375,4.732818603515625,-6.975860595703125,1.263580322265625,1,1.0,1.0,1.0,1.0,95.00
2021-04-15 09:14:43.242,0.54077286,0.896346,0.35923028,0.88589054,0.46566096,0.0897702,0.13541631,0.68637,1.2317078,0.3855845,0.11161947,1.2628801,0.7845477,0.2678653,0.20006724,0.91355574,0.21995832,-0.26258925,-0.027856493,0.63187414,792.96704,826.0073,801.4286,782.8938,759.12085,-0.501953125,-0.005126953125,0.85504150390625,3.850555419921875,-3.39447021484375,-2.175750732421875,1,1.0,1.0,1.0,1.0,95.00
2021-04-15 09:14:43.773,0.8840991,0.92792124,0.9402463,1.1503683,0.61611116,0.21226828,0.47096863,0.77448213,1.3382967,0.42648247,0.4255713,1.3199258,0.745822,0.3331486,0.35751155,0.92142284,0.14247791,-0.21660224,0.018570555,0.56076,799.81683,809.4872,804.2491,786.1172,790.14655,-0.5179443359375,0.00799560546875,0.8531494140625,3.63372802734375,-0.46356201171875,2.788848876953125,1,1.0,1.0,1.0,1.0,95.00
2021-04-15 09:14:44.287,1.0348743,0.7172564,0.7244564,1.239385,0.6974777,0.33822125,0.48050943,0.842836,1.3591231,0.41406277,0.52016276,1.3220565,0.7201871,0.27685556,0.27961218,0.9152403,0.11050917,-0.20724452,-0.06739675,0.4910788,789.34064,811.9048,815.9341,791.75824,760.32965,-0.50665283203125,0.0106201171875,0.86260986328125,5.57769775390625,-8.231964111328125,0.3887939453125,1,1.0,1.0,1.0,1.0,95.00
2021-04-15 09:14:44.802,1.1463134,0.6310728,0.6523205,1.3348328,0.71178716,0.33553585,0.40796712,0.8953282,1.3366497,0.40062386,0.4896063,1.1856424,0.62273073,0.2788317,0.3637888,0.80103004,0.036765754,-0.26412717,-0.14035925,0.23906301,781.685,799.81683,798.20514,812.71063,979.12085,-0.50555419921875,0.01153564453125,0.86065673828125,3.9776611328125,-5.465545654296875,0.800018310546875,1,1.0,1.0,1.0,1.0,95.00
2021-04-15 09:14:45.325,1.1520447,0.3203212,0.67391247,1.1943188,0.7046384,0.41979682,0.31879437,0.72876525,1.1960953,0.35292146,0.48662937,1.0724816,0.57237,0.19382027,0.33976984,0.693949,0.12471293,-0.24521507,-0.16441537,0.3667873,788.1319,812.3077,806.6667,782.8938,852.6007,-0.5064697265625,0.005859375,0.86700439453125,4.418792724609375,-5.644989013671875,1.86920166015625,1,1.0,1.0,1.0,1.0,100.00
2021-04-15 09:14:45.856,1.0397921,-0.0025293562,0.7408012,0.9719344,0.65963566,0.21171327,0.16051881,0.5502112,1.0259203,-0.11432146,0.31207368,0.9232625,0.5517458,0.2107636,0.31967795,0.6570049,0.08407834,-0.3244036,-0.29018965,0.24518166,792.5641,805.8608,790.9524,764.7619,691.8315,-0.49609375,0.0035400390625,0.8731689453125,4.882354736328125,-6.32537841796875,1.9140625,1,1.0,1.0,1.0,1.0,100.00
2021-04-15 09:14:46.399,0.9249034,1.11507,0.8477785,0.9678303,0.64336663,0.27311948,0.3301093,0.5559578,1.0325124,-0.008039323,0.29768115,0.9733126,0.5433343,0.03399635,0.20021328,0.64548016,0.09017912,-0.11513288,-0.085568935,0.2753043,789.34064,806.26373,806.26373,767.98535,771.2088,-0.49749755859375,0.00701904296875,0.87255859375,4.972076416015625,-4.029998779296875,0.889739990234375,1,1.0,1.0,1.0,1.0,100.00
2021-04-15 09:14:46.947,0.8059972,0.8983831,0.7588439,0.8774635,0.53274363,0.21517116,0.2834096,0.49423784,1.1132731,0.13493371,0.39156288,0.99595463,0.57768816,0.14199775,0.27824226,0.6588115,0.046554983,-0.1891034,-0.13079064,0.14990662,795.78754,780.87915,842.52747,783.2967,709.15753,-0.49725341796875,0.0045166015625,0.87152099609375,5.166473388671875,-3.51409912109375,1.128997802734375,1,1.0,1.0,1.0,1.0,100.00
2021-04-15 09:14:47.453,0.9240298,0.80702364,0.9465353,0.90347546,0.42025334,0.23214953,0.5429656,0.7658219,0.8372756,0.21504776,0.8523116,0.8275211,0.57116485,0.20440975,0.40347168,0.67268443,0.10369589,-0.22246242,-0.111556396,0.17306288,798.60803,790.9524,792.1612,777.25275,817.9487,-0.49871826171875,0.0045166015625,0.86077880859375,4.0673828125,-5.046844482421875,1.8841552734375,1,1.0,1.0,1.0,1.0,100.00
2021-04-15 09:14:47.964,0.88476634,0.77185,1.04108,0.8430995,0.57437164,0.13595775,0.6068342,0.7784356,0.9588871,0.1567319,0.8686834,0.9494763,0.5350557,0.35251975,0.4534131,0.735287,-0.014599038,-0.26660192,-0.20751771,0.083403856,805.8608,811.9048,810.293,801.4286,778.86444,-0.50762939453125,0.0078125,0.8623046875,4.134674072265625,-4.179534912109375,1.742095947265625,1,1.0,1.0,1.0,1.0,100.00
2021-04-15 09:14:48.472,0.88558817,0.8991912,1.0983156,0.83906275,0.6389827,-0.027676685,0.6181954,0.82995135,0.843556,0.118646614,0.8686834,0.9369086,0.48602825,0.34966862,0.35663617,0.7394266,-0.091028705,-0.3825781,-0.19484511,0.09428051,819.9634,815.9341,823.1868,826.4103,801.8315,-0.51422119140625,0.00848388671875,0.85968017578125,4.7552490234375,-4.2767333984375,1.06170654296875,1,1.0,1.0,1.0,1.0,100.00
2021-04-15 09:14:48.980,0.6902653,0.81946045,0.831223,0.6701488,0.55581224,-0.12193261,-0.12057405,0.3943157,0.79930794,0.2635537,0.5341402,0.868563,0.4408792,0.27313247,0.2288541,0.7144868,-0.112050705,-0.318077,-0.26805463,0.015847176,782.8938,824.7985,797.3993,755.89746,855.42126,-0.51263427734375,0.0072021484375,0.86309814453125,4.32159423828125,-5.562744140625,1.143951416015625,1,1.0,1.0,1.0,1.0,100.00
2021-04-15 09:14:49.499,0.73407894,0.8923988,0.61508,0.65411997,0.32726115,0.053731333,-0.22831781,0.28992987,0.5804151,0.4004565,0.12030174,0.60508156,0.44750172,0.17424059,0.20144491,0.65458804,-0.05051574,-0.37072924,-0.2677677,0.03585396,803.8461,834.0659,819.15753,792.1612,828.8278,-0.50335693359375,0.0098876953125,0.86212158203125,4.852447509765625,-4.344024658203125,0.964508056640625,1,1.0,1.0,1.0,1.0,100.00
2021-04-15 09:14:50.032,0.73407894,0.8685686,0.74734306,0.58688325,0.32726115,0.098011695,-7.98225E-4,0.12914026,0.5804151,0.4004565,0.39846635,0.45120496,0.44750172,0.12934136,0.21650004,0.6435127,-0.05051574,-0.3571988,-0.2741849,0.009490275,817.1429,799.81683,809.4872,802.6374,794.17584,-0.51605224609375,0.00994873046875,0.8612060546875,4.62066650390625,-5.4132080078125,1.532745361328125,1,1.0,1.0,1.0,1.0,100.00
2021-04-15 09:14:50.554,0.50705725,0.9667614,0.7290495,0.58688325,0.8401323,0.43172726,0.07329912,0.12914026,0.84720474,0.42915642,0.37210786,0.45120496,0.5673455,0.11806258,0.20054251,0.6435127,-0.07560734,-0.5261918,-0.28083298,0.009490275,767.1795,788.1319,795.38464,793.36993,836.4835,-0.517822265625,0.00885009765625,0.8594970703125,4.3963623046875,-4.05242919921875,0.710296630859375,1,1.0,1.0,1.0,1.0,100.00
2021-04-15 09:14:51.065,0.73476565,0.96898323,0.8024057,0.6088194,0.62747806,0.60047245,0.03463491,0.44592723,0.8715675,0.57032603,0.4275668,0.86189026,0.55325323,0.17501615,0.17081998,0.679756,0.007054489,-0.28675434,-0.18199307,0.09963944,790.14655,810.696,816.7399,805.05493,689.011,-0.5147705078125,0.004638671875,0.85528564453125,4.47113037109375,-3.297271728515625,-0.31402587890625,1,1.0,1.0,1.0,1.0,100.00
2021-04-15 09:14:51.583,0.70901316,0.8445705,0.7415826,0.6622319,0.5501412,0.4434681,0.04220889,0.40050742,0.8715675,0.57032603,0.31830013,0.86189026,0.51140296,0.14334364,0.13473792,0.63867277,0.02201752,-0.31077456,-0.11191528,0.12468095,780.87915,800.6227,799.81683,808.68134,827.619,-0.53125,0.003662109375,0.8533935546875,4.089813232421875,-5.7720947265625,2.25799560546875,1,1.0,1.0,1.0,1.0,100.00
2021-04-15 09:14:52.105,0.7172449,0.70931965,0.7186352,0.70903957,0.40558133,0.27125615,0.18454424,0.41230088,0.7611556,0.5576237,0.34861562,0.8454226,0.46445003,0.14811133,0.07062489,0.6068234,0.0707637,-0.26746508,-0.11184046,0.13513558,767.5824,821.1722,828.4249,744.61536,763.95605,-0.51190185546875,0.0032958984375,0.86004638671875,5.061798095703125,-5.12908935546875,1.368255615234375,1,1.0,1.0,1.0,1.0,100.00
2021-04-15 09:14:52.625,0.6796953,0.5997026,0.623924,0.7593908,0.4590851,0.11949442,0.27604482,0.48494935,0.58816737,0.3494144,0.15920949,0.4978078,0.42867497,0.21146075,0.1369354,0.60799885,0.07534216,-0.33508623,-0.1655322,0.13583249,768.7912,807.0696,818.3516,776.04395,707.9487,-0.5233154296875,0.00592041015625,0.854736328125,4.777679443359375,-4.284210205078125,1.114044189453125,1,1.0,1.0,1.0,1.0,100.00
2021-04-15 09:14:53.142,0.64848495,0.8538606,0.76650614,0.76408285,0.57385665,0.32778206,0.36225167,0.623054,0.29653427,0.49336475,0.38656175,0.23674193,0.42506322,0.24918796,0.24339572,0.6712376,0.09974188,-0.25757375,-0.21767639,0.10431489,775.2381,790.14655,832.8571,778.46155,744.21246,-0.517333984375,0.00225830078125,0.86187744140625,4.583282470703125,-6.273040771484375,1.45050048828125,1,1.0,1.0,1.0,1.0,100.00
2021-04-15 09:14:53.652,0.8871144,1.0268527,1.0967312,0.7551037,0.62717086,0.41144243,0.5219855,0.44975546,1.0118413,0.5899218,0.52192205,1.0998917,0.6126547,0.29488373,0.2731387,0.6442565,0.04801568,-0.24668056,-0.22744715,0.20385566,764.7619,809.4872,810.696,786.9231,697.8755,-0.5125732421875,0.00408935546875,0.8594970703125,4.747772216796875,-4.1571044921875,1.413116455078125,1,1.0,1.0,1.0,1.0,100.00
2021-04-15 09:14:54.161,0.85292256,1.0804777,1.2119628,0.53300756,0.53129375,0.49521914,0.5631896,0.41573805,1.0463287,0.60110813,0.5056516,1.1115761,0.6180102,0.28887746,0.26350093,0.71339136,-0.025421849,-0.23622102,-0.217288,0.20558615,805.8608,813.1135,799.41394,778.86444,753.0769,-0.5206298828125,0.00677490234375,0.84912109375,5.0543212890625,-3.970184326171875,1.457977294921875,1,1.0,1.0,1.0,1.0,100.00
2021-04-15 09:14:54.686,0.79466385,1.0282187,1.3726667,0.6178958,0.5983435,0.5136108,0.71158344,0.46519575,1.0942615,0.555499,0.4815318,1.1909418,0.5707631,0.26905355,0.19701013,0.6863028,-0.0012277461,-0.2883908,-0.3181962,0.28011188,803.0403,806.6667,812.3077,776.04395,732.52747,-0.53387451171875,0.01220703125,0.8504638671875,5.136566162109375,-3.7982177734375,1.80938720703125,1,1.0,1.0,1.0,1.0,100.00
2021-04-15 09:14:55.230,0.63245994,0.886946,0.75756884,0.5531912,0.63052934,0.4880062,0.15618435,0.57012856,1.0417125,0.48833644,0.12371075,1.1432612,0.49960974,0.24167582,0.30353695,0.6658387,-0.04731092,-0.26554227,-0.23366487,0.21446224,764.35895,809.0842,817.5458,795.38464,762.3443,-0.5286865234375,0.0030517578125,0.85009765625,4.3963623046875,-5.136566162109375,-0.0299072265625,1,1.0,1.0,1.0,1.0,100.00
2021-04-15 09:14:55.759,0.7360825,0.7590087,0.92926794,0.8110915,0.8062698,0.5021177,0.3598586,0.5662113,1.01181,0.40059692,0.2611477,1.099958,0.46319357,0.21387632,0.28777555,0.5751465,0.027038934,-0.24079393,-0.22051705,0.14746854,798.60803,809.4872,809.4872,797.3993,790.14655,-0.52081298828125,-0.0064697265625,0.8548583984375,5.420684814453125,-4.83001708984375,0.43365478515625,1,1.0,1.0,1.0,1.0,100.00
2021-04-15 09:14:56.299,0.84408337,0.77023923,0.8498742,0.7511498,0.8756773,0.44539988,0.2904499,0.6465454,1.015854,0.43414983,0.2924006,1.1213334,0.49320567,0.22369963,0.2591562,0.62502724,0.05196055,-0.20211698,-0.22371824,0.06349096,773.6264,807.47253,804.65204,805.8608,835.2747,-0.5201416015625,0.013671875,0.85272216796875,5.630035400390625,-4.94964599609375,1.577606201171875,1,1.0,1.0,1.0,1.0,100.00
2021-04-15 09:14:56.803,0.85643554,0.6939552,0.42797828,0.75257444,0.806902,-0.32596055,-0.032484192,0.58404374,0.9953228,0.0074624238,0.12312585,0.99122375,0.5007977,0.02703026,0.19336224,0.59563565,0.09611293,-0.33719596,-0.036351334,0.1758469,813.5165,808.2784,807.0696,822.7839,808.68134,-0.5140380859375,0.00750732421875,0.86041259765625,6.81884765625,-7.31231689453125,-0.478515625,1,1.0,1.0,1.0,1.0,100.00
2021-04-15 09:14:57.316,1.1004175,0.6258942,0.50638527,0.45795402,0.7407208,0.03724693,0.19200416,0.5868126,0.9483676,0.07068543,0.27722725,0.96964353,0.46155787,0.08765082,0.13571249,0.6120078,0.07917163,-0.29645124,-0.06709246,0.24880706,781.28204,811.50183,820.7692,813.5165,880.80585,-0.46337890625,0.02471923828125,0.8873291015625,4.463653564453125,-10.18341064453125,4.732818603515625,1,1.0,1.0,1.0,1.0,100.00
2021-04-15 09:14:57.859,1.1933147,0.870838,0.8156383,1.1101122,0.77680093,0.19914985,0.3838773,0.6614621,1.0047237,0.21243536,0.2508723,0.8472198,0.3715176,0.10749507,0.18013498,0.5334397,-0.031911924,-0.33322296,-0.10701993,0.14247042,795.38464,823.1868,828.022,783.2967,726.4835,-0.4542236328125,0.02264404296875,0.893798828125,4.149627685546875,-3.267364501953125,0.9869384765625,1,1.0,1.0,1.0,1.0,100.00
2021-04-15 09:14:58.380,1.1802315,0.9125453,0.79453856,1.143455,0.8835159,0.28976965,0.40548095,0.75688004,0.96670246,0.19039775,0.2373956,0.78267515,0.37626743,0.16169323,0.18423814,0.61190104,-0.05044373,-0.2274972,-0.26703414,0.03283908,796.99634,808.2784,815.5311,808.2784,770.80585,-0.46484375,0.02008056640625,0.88348388671875,4.77020263671875,-4.8150634765625,1.31591796875,1,1.0,1.0,1.0,1.0,100.00
2021-04-15 09:14:58.903,0.9185436,0.96496487,0.83462024,1.0573642,0.8064509,0.31663227,0.5288273,0.8017591,1.0916018,0.3225915,0.4047479,0.9231467,0.361397,0.20411725,0.20049691,0.64505935,-0.10768074,-0.28017288,-0.24571086,1.00322366E-4,807.0696,819.15753,826.4103,805.4579,760.7326,-0.469482421875,0.02130126953125,0.8798828125,4.583282470703125,-2.579498291015625,-0.695343017578125,1,1.0,1.0,1.0,1.0,100.00
2021-04-15 09:14:59.414,0.6610524,0.9610854,0.7742854,0.7782799,0.6642206,0.40260386,0.54077506,0.78882545,1.0775046,0.34998712,0.46295935,0.9534937,0.37227386,0.24673317,0.12591766,0.628317,-0.13317326,-0.29660812,-0.2003268,-0.0948192,833.2601,813.1135,821.5751,817.1429,825.2015,-0.479736328125,0.01544189453125,0.87481689453125,4.493560791015625,-5.435638427734375,0.994415283203125,1,1.0,1.0,1.0,1.0,100.00
2021-04-15 09:14:59.954,0.7719893,0.9130225,0.8712893,0.8432815,0.643509,0.35590032,0.5358908,0.7861602,1.1084346,0.3708109,0.46295935,0.97618294,0.3616725,0.2717703,0.09761265,0.62332964,-0.15688923,-0.2976001,-0.20218107,-0.108781986,789.34064,805.8608,803.8461,786.52014,773.6264,-0.48382568359375,0.0150146484375,0.87530517578125,4.5758056640625,-4.65057373046875,1.375732421875,1,1.0,1.0,1.0,1.0,100.00
2021-04-15 09:15:00.462,0.9185274,0.9063686,0.8120317,0.9119638,0.59240717,0.20752406,0.22625767,0.63390446,1.0299526,0.3154927,0.46347195,0.95259166,0.42426926,0.25934288,0.11984198,0.58599436,-0.10910974,-0.1887714,-0.22609654,-0.019245781,791.75824,799.011,792.1612,787.72894,750.65936,-0.498779296875,0.01544189453125,0.874755859375,4.344024658203125,-4.605712890625,0.949554443359375,1,1.0,1.0,1.0,1.0,100.00
2021-04-15 09:15:00.964,1.0236523,0.6156167,0.72788423,0.9790363,0.52410585,-0.15441342,-0.08266087,0.42080513,0.9382917,0.27907324,0.16602974,0.8998825,0.47217375,0.26247054,0.09788238,0.6246991,-0.07766551,-0.16498478,-0.2553538,0.062719986,799.81683,804.2491,805.4579,802.6374,761.53845,-0.48980712890625,0.0179443359375,0.876953125,4.643096923828125,-5.061798095703125,1.07666015625,1,1.0,1.0,1.0,1.0,100.00
2021-04-15 09:15:01.484,1.0032364,0.73974013,0.7094241,0.9127601,0.40372643,0.057124935,0.03836403,0.2915134,0.3276828,0.1988624,0.1596349,0.44776377,0.49915686,0.22757013,0.10800758,0.6361178,-0.10650317,-0.20830296,-0.26957014,0.060373243,755.89746,786.52014,811.50183,749.85345,796.1905,-0.49737548828125,0.01898193359375,0.87353515625,4.5758056640625,-4.42626953125,0.889739990234375,1,1.0,1.0,1.0,1.0,100.00
2021-04-15 09:15:01.995,0.9709398,0.69937396,0.72592276,0.88896275,0.2974821,0.31528738,0.13352965,0.2766411,0.27302578,0.28422755,0.12078089,0.33365855,0.50700575,0.19951949,0.07324876,0.6374328,-0.18774444,-0.2614387,-0.38013294,0.02204222,778.46155,822.7839,797.3993,794.17584,706.7399,-0.49951171875,0.0189208984375,0.86993408203125,4.26177978515625,-3.99261474609375,1.128997802734375,1,1.0,1.0,1.0,1.0,100.00
2021-04-15 09:15:02.522,0.88714457,0.9103032,0.8671361,0.7549279,0.5354598,0.5091569,0.26799452,0.5462529,0.5232202,0.41540003,0.293574,0.73451895,0.4817043,0.20143586,0.11475929,0.6160766,-0.16865498,-0.30120102,-0.4394111,0.00800382,789.7436,803.0403,799.81683,804.2491,794.9817,-0.49957275390625,0.015625,0.8641357421875,4.089813232421875,-4.149627685546875,1.039276123046875,1,1.0,1.0,1.0,1.0,100.00
2021-04-15 09:15:03.061,0.80945504,1.0830616,1.098544,0.8438529,0.6283835,0.5845723,0.3466528,0.5228178,0.59504896,0.44147673,0.41619328,0.966198,0.42535737,0.27545053,0.13780604,0.5816785,0.09132984,-0.30572897,-0.38830456,0.26453242,803.44324,823.5897,825.6044,825.2015,735.7509,-0.50732421875,0.01507568359375,0.86480712890625,4.366455078125,-5.256195068359375,2.788848876953125,1,1.0,1.0,1.0,1.0,100.00
2021-04-15 09:15:03.581,0.81679463,1.0272567,1.1141056,0.85678154,0.52857137,0.44947454,0.29170406,0.5030753,0.6088703,0.4589375,0.41785598,0.9735619,0.41398156,0.29969034,0.15380475,0.5579372,0.065709524,-0.35063702,-0.37077236,0.20977226,837.6923,793.7729,807.0696,841.7216,1074.2124,-0.50616455078125,0.01165771484375,0.86138916015625,4.314117431640625,-3.686065673828125,1.084136962890625,1,1.0,1.0,1.0,1.0,100.00
2021-04-15 09:15:04.113,0.6429771,0.80791205,0.9107911,0.69571704,0.46419498,0.32734147,0.2244111,0.504349,0.6774226,0.4265664,0.40971512,0.93906826,0.3331695,0.27892494,0.11001771,0.5165888,0.041356385,-0.31435472,-0.3542282,0.16233835,764.35895,801.8315,804.2491,782.8938,699.89014,-0.50225830078125,0.009521484375,0.86590576171875,4.56085205078125,-4.366455078125,1.016845703125,1,1.0,1.0,1.0,1.0,100.00
2021-04-15 09:15:04.632,0.5964652,0.4675546,0.6343794,0.7444637,0.36723793,0.17187203,0.08027858,0.4928519,0.593854,0.3279774,0.26149768,0.7846419,0.22828409,0.20512255,0.14971484,0.5123486,-0.11598832,-0.29024795,-0.41266346,0.08016943,760.7326,802.6374,794.9817,786.52014,749.0476,-0.5006103515625,0.01300048828125,0.86236572265625,4.74029541015625,-5.615081787109375,1.024322509765625,1,1.0,1.0,1.0,1.0,100.00
2021-04-15 09:15:05.165,0.49483502,0.8287225,0.8410452,0.7010484,0.40929946,0.32791778,0.32085365,0.5064227,0.5917611,0.34655038,0.44113696,0.7846419,0.2055842,0.19144104,0.1440616,0.52262455,-0.1167078,-0.24872874,-0.36216798,0.10694484,814.3223,817.1429,811.50183,802.23444,826.8132,-0.49969482421875,0.009521484375,0.86859130859375,4.41131591796875,-4.65057373046875,0.650482177734375,1,1.0,1.0,1.0,1.0,100.00
2021-04-15 09:15:05.693,0.568937,0.9636715,0.8481151,0.9137547,0.28764936,0.35438624,0.28141057,0.41238585,0.45723814,0.30820546,0.4095928,0.4191432,0.23292112,0.19381392,0.14276743,0.55688024,-0.10424418,-0.29369527,-0.33574694,0.19381413,813.91943,822.381,824.3956,814.7253,758.315,-0.51763916015625,0.0068359375,0.85546875,4.792633056640625,-4.38140869140625,0.904693603515625,1,1.0,1.0,1.0,1.0,95.00
2021-04-15 09:15:06.207,0.9554977,0.98606664,0.7555023,0.8943171,0.572388,0.28656048,0.25923213,0.694563,0.9197695,0.30820546,0.37606153,0.7965474,0.32055193,0.21941769,0.12484048,0.5646738,-0.12477296,-0.24763697,-0.33467314,0.23093809,807.47253,809.89014,812.3077,798.60803,780.4762,-0.511474609375,0.01080322265625,0.8634033203125,4.074859619140625,-4.3963623046875,1.114044189453125,1,1.0,1.0,1.0,1.0,95.00
2021-04-15 09:15:06.729,0.79772186,0.794847,0.4221114,0.739404,0.5812607,0.1325764,-0.045286696,0.56057787,0.92280865,0.28914988,0.04261784,0.8076933,0.37284774,0.16494353,0.1645445,0.5907983,-0.09199024,-0.29855335,-0.30386773,0.15044092,809.89014,817.9487,821.5751,811.50183,762.3443,-0.50592041015625,0.01348876953125,0.86053466796875,4.83001708984375,-5.555267333984375,1.652374267578125,1,1.0,1.0,1.0,1.0,95.00
2021-04-15 09:15:07.263,0.75309056,0.79381377,0.5393057,0.7174159,0.5068002,-0.14843,-0.014236046,0.45011425,0.8598552,0.3476709,0.06468658,0.807981,0.3684191,0.15281658,0.1896354,0.5465182,-0.11570161,-0.3548003,-0.30033395,0.120451495,776.8498,809.89014,810.293,799.81683,659.59705,-0.5052490234375,0.01202392578125,0.8651123046875,5.151519775390625,-6.183319091796875,1.06170654296875,1,1.0,1.0,1.0,1.0,95.00
2021-04-15 09:15:07.772,0.6524964,0.6958319,0.5071578,0.80293894,0.36193398,-0.15836914,-0.050682295,0.406439,0.83947355,0.3563195,0.06468658,0.7368025,0.397114,0.14324777,0.15380853,0.500127,-0.09788787,-0.5214894,-0.31487697,0.002369607,801.4286,800.6227,804.2491,790.54944,774.43225,-0.50140380859375,0.0145263671875,0.86883544921875,4.246826171875,-5.450592041015625,2.49725341796875,1,1.0,1.0,1.0,1.0,95.00
2021-04-15 09:15:08.286,1.0327344,0.6531962,0.49337816,1.0016692,0.40964243,-0.2112729,0.005657737,0.48618323,0.6675002,0.28302807,0.1688019,0.65162915,0.36248875,0.17593676,0.09518007,0.45331225,-0.1305707,-0.44347227,-0.2651161,-0.0038705945,782.8938,798.60803,804.65204,803.0403,864.68866,-0.484130859375,0.01129150390625,0.87322998046875,4.972076416015625,-4.85992431640625,1.4654541015625,1,1.0,1.0,1.0,1.0,95.00
2021-04-15 09:15:08.816,1.1834613,0.57557905,0.4563122,1.0927095,0.5166608,-0.017736511,0.109402165,0.61899954,0.6566115,0.076218285,0.1697463,0.77074265,0.40831527,0.13817166,0.17812532,0.49779233,-0.09109278,-0.24196002,-0.1953726,0.0894298,830.84247,813.5165,788.1319,800.6227,809.0842,-0.48681640625,0.013916015625,0.87628173828125,3.521575927734375,-6.92352294921875,2.3626708984375,1,1.0,1.0,1.0,1.0,95.00
2021-04-15 09:15:09.356,1.2764364,0.76837265,0.8237931,1.1777664,0.60199654,0.03929607,0.21017638,0.6256097,0.6314612,0.20314655,0.28036207,0.7349995,0.41984433,0.062863946,0.24539348,0.54362774,-0.030144399,-0.24135734,-0.1263752,0.24344495,795.38464,804.2491,823.1868,791.75824,827.2161,-0.4749755859375,0.018798828125,0.87957763671875,4.418792724609375,-5.69732666015625,1.353302001953125,1,1.0,1.0,1.0,1.0,95.00
2021-04-15 09:15:10.440,1.1056434,0.8707446,0.96845305,1.2468047,1.0002984,0.3571718,0.22156085,0.5710392,1.0197835,0.2563555,0.30857563,0.78923947,0.3957728,0.1400914,0.20285402,0.48033652,-0.12035226,-0.35597363,-0.043199718,0.15869436,816.337,807.8755,805.8608,811.0989,838.9011,-0.4571533203125,0.02752685546875,0.888427734375,4.239349365234375,-3.775787353515625,0.142059326171875,1,1.0,1.0,1.0,1.0,95.00
2021-04-15 09:15:10.981,1.1107982,0.6958714,0.52328783,0.9458348,0.8291362,0.3177955,0.049056143,0.5718645,0.95472103,0.19491398,0.23064578,0.53052866,0.30155954,0.20958604,0.16283824,0.40333942,-0.2517138,-0.3693216,-0.07525544,-0.14876384,813.5165,815.5311,823.5897,794.57874,721.6484,-0.45843505859375,0.0238037109375,0.88604736328125,5.405731201171875,-4.643096923828125,0.665435791015625,1,1.0,1.0,1.0,1.0,95.00
2021-04-15 09:15:11.483,1.3194128,0.49033046,0.40570697,1.2340895,0.9409544,0.29596752,0.05344911,0.8908667,0.51821244,0.13564228,0.19988614,0.72218764,0.40230718,0.18851148,0.21162203,0.5326609,-0.09528721,-0.43452454,-0.15464665,-0.22403987,817.9487,791.75824,799.011,817.9487,848.5714,-0.4637451171875,0.021728515625,0.88165283203125,4.104766845703125,-4.044952392578125,1.07666015625,1,1.0,1.0,1.0,1.0,95.00
2021-04-15 09:15:12.008,1.2654369,0.30342448,0.30761144,1.200655,0.9733332,0.3311786,0.04853093,0.8938776,0.9390153,0.17324401,0.23573959,0.94355917,0.42248422,0.21150878,0.2766815,0.53739625,-0.08113177,-0.4134821,-0.22404812,-0.06750813,794.57874,800.2198,802.23444,768.7912,790.9524,-0.461181640625,0.0225830078125,0.8887939453125,4.486083984375,-5.211334228515625,1.435546875,1,1.0,1.0,1.0,1.0,95.00
2021-04-15 09:15:12.529,1.306057,0.45515972,0.57191455,1.2731524,0.96041375,0.38418502,0.15125789,0.92362136,1.0342317,0.28978622,0.29452908,1.0087533,0.49997565,0.1589353,0.2538038,0.54306036,-0.054179996,-0.38912326,-0.30247915,-0.0023499003,795.38464,805.8608,813.91943,799.011,792.5641,-0.4591064453125,0.02392578125,0.89105224609375,5.076751708984375,-5.9814453125,1.577606201171875,1,1.0,1.0,1.0,1.0,95.00
2021-04-15 09:15:13.034,1.1363943,0.5249454,0.6239752,1.1580745,0.803185,0.2156402,0.090988,0.8205571,1.0026128,0.2856831,0.27196333,0.9913357,0.4163199,0.12204923,0.22180818,0.48212314,0.016927993,-0.29389852,-0.29611537,0.09025078,795.78754,807.0696,805.8608,792.5641,779.67035,-0.42132568359375,0.02117919921875,0.90545654296875,4.7552490234375,-6.871185302734375,1.9439697265625,1,1.0,1.0,1.0,1.0,95.00
2021-04-15 09:15:13.540,1.0493001,0.6317019,0.814494,1.2739359,0.84593093,0.23774333,0.30283475,0.94199646,0.9988021,0.40899754,0.33718464,0.80499107,0.22514263,0.12018556,0.16012293,0.39299554,0.009263812,-0.22895989,-0.2970264,0.19574139,777.25275,819.9634,789.7436,794.57874,756.30035,-0.4384765625,0.02294921875,0.89569091796875,4.478607177734375,-4.18701171875,1.547698974609375,1,1.0,1.0,1.0,1.0,95.00
2021-04-15 09:15:14.044,1.0249678,0.82948107,1.0127174,1.2365625,0.77914596,0.31104335,0.49278244,0.9412314,0.9075125,0.44281134,0.41874507,0.70420146,0.18739124,0.1186461,0.15675063,0.49852237,0.024891267,-0.23701447,-0.29884753,0.2043996,801.8315,796.99634,795.38464,799.011,740.58606,-0.45855712890625,0.023681640625,0.88873291015625,4.044952392578125,-2.938385009765625,0.88226318359375,1,1.0,1.0,1.0,1.0,95.00
2021-04-15 09:15:14.583,1.0278953,0.8844044,1.0503707,1.1576995,0.78045213,0.37566105,0.5884199,0.87473047,0.9208759,0.46502873,0.43268976,0.7047073,0.1771859,0.118826956,0.12661353,0.47046185,-0.06808916,-0.2803781,-0.3400055,0.092043914,796.5934,786.9231,794.9817,781.28204,750.65936,-0.47918701171875,0.01812744140625,0.87677001953125,4.5758056640625,-4.493560791015625,1.592559814453125,1,1.0,1.0,1.0,1.0,95.00
2021-04-15 09:15:15.110,1.05238,0.87349683,0.9112612,1.074677,0.4754418,0.26811016,0.49834362,0.67583543,0.78326833,0.4695391,0.41559288,0.79085547,0.3588748,0.11595734,0.11557179,0.50612605,-0.016057935,-0.38270256,-0.40557948,-0.09041281,763.1502,776.8498,776.8498,754.2857,631.39197,-0.48822021484375,0.019775390625,0.8714599609375,3.820648193359375,-4.403839111328125,1.07666015625,1,1.0,1.0,1.0,1.0,95.00
2021-04-15 09:15:15.617,1.0561281,0.6365895,0.59383184,1.0838617,0.49825814,0.13496225,0.40404582,0.6235354,0.8014014,0.3621578,0.28260887,0.791209,0.46782985,0.13467713,0.20563427,0.49821904,-0.02484388,-0.32118893,-0.29330525,-0.13431822,782.49084,787.72894,800.2198,794.9817,790.14655,-0.485595703125,0.0205078125,0.875244140625,4.5758056640625,-5.390777587890625,1.786956787109375,1,1.0,1.0,1.0,1.0,95.00
2021-04-15 09:15:16.135,1.1183254,0.65212333,0.5084581,1.0707986,0.37332582,-0.008230051,0.23128459,0.3936421,0.7951228,0.2320008,0.23669162,0.84762114,0.51585495,0.11620483,0.24338076,0.5476581,-0.044312965,-0.2883063,-0.23496585,-0.12300897,809.89014,799.011,809.89014,801.8315,708.3516,-0.48876953125,0.02154541015625,0.8731689453125,4.119720458984375,-5.14404296875,1.682281494140625,1,1.0,1.0,1.0,1.0,100.00
2021-04-15 09:15:16.656,1.0465974,0.916436,0.8222272,0.7276707,0.59085095,0.38046053,0.3720775,0.5269259,0.9090591,0.35035253,0.56684977,0.97264254,0.43271118,0.15303864,0.28811815,0.42561644,-0.011418245,-0.32731986,-0.19674928,0.032240085,774.0293,790.14655,799.41394,791.75824,825.6044,-0.49755859375,0.01605224609375,0.8734130859375,4.224395751953125,-3.42437744140625,1.742095947265625,1,1.0,1.0,1.0,1.0,100.00
2021-04-15 09:15:17.159,1.1111,1.071034,0.91862583,0.8159612,0.6116135,0.46556032,0.5078902,0.55235636,0.9417438,0.4814458,0.6320751,0.9955241,0.41762978,0.1802216,0.27096987,0.41474357,-0.033958513,-0.35161215,-0.23793498,0.05575111,774.0293,790.14655,806.6667,778.46155,792.1612,-0.5120849609375,0.0452880859375,0.8643798828125,11.5142822265625,0.291595458984375,-0.605621337890625,1,1.0,1.0,1.0,1.0,100.00
2021-04-15 09:15:17.669,1.0942595,1.0074104,0.99329287,0.89161915,0.55707544,0.53064203,0.6114098,0.5206734,0.97536975,0.48564464,0.6320751,0.98616314,0.44560635,0.17248978,0.2600526,0.47192046,0.019956745,-0.4592358,-0.2707122,0.066890016,767.1795,785.7143,791.75824,764.7619,670.87915,-0.46173095703125,0.03521728515625,0.89276123046875,7.902984619140625,-24.112701416015625,-7.559051513671875,1,1.0,1.0,1.0,1.0,100.00
2021-04-15 09:15:18.214,1.1334556,0.8288745,0.9903602,0.9861757,0.41444924,0.38894805,0.56107503,0.51939195,0.9015967,0.48510993,0.4502769,0.91453004,0.47564813,0.12358716,0.24151365,0.5688586,-0.025634583,-0.37334922,-0.30207446,0.1321557,782.8938,801.02563,802.23444,805.8608,809.89014,-0.4927978515625,0.0389404296875,0.85931396484375,1.39068603515625,2.429962158203125,8.14971923828125,1,1.0,1.0,1.0,1.0,100.00
2021-04-15 09:15:18.747,1.0674204,0.70327705,1.0066006,1.014652,0.30356365,0.33849913,0.38372684,0.5226136,0.7880191,0.45618895,0.12387428,0.82516617,0.47927776,0.0014175894,0.20577611,0.76051694,0.08010923,-0.36327627,-0.3265927,0.23847103,814.3223,808.68134,812.71063,789.7436,693.44324,-0.5008544921875,0.0220947265625,0.8623046875,3.297271728515625,-4.90478515625,0.83740234375,1,1.0,1.0,1.0,1.0,100.00
2021-04-15 09:15:19.252,0.96569103,0.8453196,1.0792354,1.062988,0.22283761,0.49729395,0.37153214,0.52796715,0.7759921,0.4991573,-0.07596603,0.81637275,0.48201647,-0.07901296,0.15987472,0.74813014,0.13360725,-0.31916615,-0.3320143,0.26266763,770.40295,811.0989,815.9341,794.17584,759.12085,-0.5125732421875,0.0074462890625,0.86016845703125,4.59075927734375,-3.297271728515625,0.4486083984375,1,1.0,1.0,1.0,1.0,100.00
2021-04-15 09:15:19.777,0.4849148,0.841057,0.8626576,0.9489193,0.57589334,0.47853523,0.3743629,0.51035106,0.82618177,0.4859439,0.10480246,0.81897306,0.3120375,-0.05112309,0.2150855,0.66554826,-0.20525613,-0.31175438,-0.368127,0.17374209,800.6227,802.6374,809.89014,826.0073,1081.4652,-0.50225830078125,0.01678466796875,0.863037109375,4.6356201171875,-5.9814453125,2.220611572265625,1,1.0,1.0,1.0,1.0,100.00
2021-04-15 09:15:20.299,0.41853437,0.73327357,0.75935245,0.7409332,0.5162424,0.4195132,0.27500826,0.55144626,0.87261623,0.404388,0.15809107,0.7491504,0.30174753,0.007675691,0.22845232,0.46215332,-0.12361335,-0.26615226,-0.35068053,0.13436973,802.23444,804.65204,813.1135,778.0586,750.65936,-0.505126953125,0.01507568359375,0.86328125,5.09918212890625,-4.78515625,1.375732421875,1,1.0,1.0,1.0,1.0,100.00
2021-04-15 09:15:20.809,0.5952084,0.63434523,0.5589648,0.50243837,0.4264614,0.09588058,0.02727266,0.5871559,0.7931016,0.16646351,0.18989599,0.6868538,0.31124988,0.03318936,0.25776392,0.37947157,0.06613057,-0.24084114,-0.36900488,0.16100416,832.0513,807.47253,815.9341,819.5604,929.9634,-0.5120849609375,0.0106201171875,0.859619140625,4.5758056640625,-4.673004150390625,0.545806884765625,1,1.0,1.0,1.0,1.0,100.00
2021-04-15 09:15:21.345,0.88329566,0.7315368,0.6701637,1.2318302,0.50103074,0.16277467,-0.07684,0.8696542,0.7224496,0.16554166,0.111217044,0.66405535,0.33906764,-0.008241419,0.14325143,0.44665003,0.094795965,-0.23056218,-0.32993764,0.1641633,783.2967,810.696,837.28937,775.64105,807.0696,-0.49200439453125,0.01556396484375,0.87200927734375,4.987030029296875,-6.826324462890625,1.457977294921875,1,1.0,1.0,1.0,1.0,100.00
2021-04-15 09:15:21.862,1.0489774,0.8199951,0.76647717,1.4468622,0.6078627,0.118270926,0.09015934,0.9916477,0.5238967,0.06734377,0.5376389,0.61371374,0.37277484,0.05331748,0.1133264,0.5218861,0.11604054,-0.27756572,-0.39216977,0.06836206,792.5641,799.41394,829.2308,815.12823,713.5897,-0.49334716796875,0.0186767578125,0.87237548828125,4.4561767578125,-4.85992431640625,1.233673095703125,1,1.0,1.0,1.0,1.0,100.00
2021-04-15 09:15:22.393,1.147928,0.9515323,0.81155765,1.5533,0.78505516,0.2190538,0.1930515,1.0855587,0.47632787,0.16646689,0.58617544,0.5437446,0.40153772,0.21328795,0.13117884,0.57604456,-0.05947402,-0.32244968,-0.4536731,8.8846026E-4,810.293,796.1905,790.14655,839.707,1065.751,-0.4774169921875,0.01495361328125,0.8746337890625,5.106658935546875,-7.29736328125,0.478515625,1,1.0,1.0,1.0,1.0,100.00
2021-04-15 09:15:22.920,0.77930695,1.0069455,0.9699555,1.1041975,0.28758627,0.39141774,0.29077208,0.6048781,0.62824965,0.25902215,0.6479441,0.76848733,0.38570112,0.17873955,0.17931098,0.19436269,-0.13980718,-0.23520905,-0.40591747,0.1265656,814.3223,823.9927,789.7436,784.10254,668.0586,-0.48809814453125,0.01373291015625,0.87664794921875,4.194488525390625,-5.86181640625,0.261688232421875,1,1.0,1.0,1.0,1.0,100.00
2021-04-15 09:15:23.454,0.8343401,1.1780398,1.0338786,1.0176235,0.42915604,0.63831025,0.3557493,0.46926546,0.7327668,0.5804246,0.64589673,0.79798824,0.49073416,0.14578824,0.21794008,0.34258,-0.19303334,-0.19925115,-0.36990967,0.1206066,791.3553,804.65204,803.0403,797.3993,803.0403,-0.47149658203125,0.01800537109375,0.88214111328125,5.06927490234375,-5.14404296875,0.800018310546875,1,1.0,1.0,1.0,1.0,100.00
2021-04-15 09:15:23.999,0.7480064,1.0967005,1.0612385,0.8850135,0.35044947,0.54679924,0.42096257,0.39133006,0.7327668,0.557885,0.49350178,0.79798824,0.46838874,-0.005359469,0.18853202,0.39897355,-0.09848897,-0.26187643,-0.3619473,0.084014535,813.1135,815.12823,813.1135,791.75824,712.7839,-0.47381591796875,0.015869140625,0.8798828125,5.15899658203125,-4.3963623046875,0.70281982421875,1,1.0,1.0,1.0,1.0,100.00
2021-04-15 09:15:24.509,0.6586891,0.9560085,0.7272848,0.7019333,0.29991615,0.33212638,0.35824525,0.1977031,0.71738243,0.553557,0.32927597,0.5181664,0.429187,0.04743403,0.12910196,0.4752343,-0.15702073,-0.31174833,-0.38230702,0.0012124763,797.3993,802.23444,807.47253,793.36993,710.3663,-0.47125244140625,0.01959228515625,0.88677978515625,4.508514404296875,-6.661834716796875,2.27294921875,1,1.0,1.0,1.0,1.0,100.00
2021-04-15 09:15:25.025,0.46224207,0.55735636,0.51796997,0.41696507,0.30752096,-0.3783187,0.31812337,0.24797024,0.59496087,0.05400627,0.12551245,0.40851352,0.3063778,0.07404569,0.08454873,0.43085444,-0.21051766,-0.39681703,-0.37621197,-0.06444305,805.8608,808.2784,807.47253,806.26373,757.9121,-0.48175048828125,0.0203857421875,0.8763427734375,4.448699951171875,-4.366455078125,1.742095947265625,1,1.0,1.0,1.0,1.0,100.00
2021-04-15 09:15:25.546,0.3973425,0.46833625,0.38622907,0.25628278,0.46855226,-0.40953287,0.20067304,0.25769365,0.7920816,-0.05192965,-0.14106704,0.63743937,0.29018027,0.1458963,0.06813133,0.49743164,-0.2633724,-0.39377925,-0.2989339,-0.055203244,770.80585,804.2491,809.89014,790.54944,797.3993,-0.4638671875,0.02423095703125,0.8922119140625,4.613189697265625,-6.0711669921875,1.338348388671875,1,1.0,1.0,1.0,1.0,100.00
2021-04-15 09:15:26.073,0.47974196,0.41825587,0.41099596,0.314744,0.6791145,-0.27815175,0.045982704,0.49239922,0.85328114,0.17507432,-0.09565622,0.7791478,0.32167882,0.17035052,0.077715605,0.49058446,-0.21311192,-0.41117227,-0.21217184,-0.012931637,748.6447,768.7912,811.0989,773.6264,846.1539,-0.47265625,0.0230712890625,0.88714599609375,4.366455078125,-4.26177978515625,1.517791748046875,1,1.0,1.0,1.0,1.0,100.00
2021-04-15 09:15:26.589,0.71199584,0.58839893,0.4877797,0.47390032,0.6669966,-0.13295232,-0.14257939,0.47921976,0.9647325,0.36353624,0.027815456,0.86348397,0.39287937,0.13281319,0.16266629,0.58119905,-0.1485428,-0.38309756,-0.17339313,0.007570285,809.4872,798.60803,803.8461,804.65204,776.8498,-0.48028564453125,0.0225830078125,0.87762451171875,5.00946044921875,-3.93280029296875,0.814971923828125,1,1.0,1.0,1.0,1.0,100.00
2021-04-15 09:15:27.102,0.82378393,0.7862118,0.57781696,0.6420559,0.6913469,0.09091917,-0.022987884,0.5867596,0.94928104,0.47903156,0.26631948,0.8587937,0.40024054,0.109739624,0.20750675,0.5555478,-0.20619035,-0.29939792,-0.17443044,-0.009116408,818.7546,805.05493,808.2784,792.96704,738.1685,-0.487060546875,0.02508544921875,0.87139892578125,4.687957763671875,-5.271148681640625,1.9439697265625,1,1.0,1.0,1.0,1.0,100.00
2021-04-15 09:15:27.606,0.92506474,0.963228,0.74657965,0.63941795,0.41153282,0.3299383,0.14524089,0.35703847,0.82439864,0.47988525,0.32528144,0.6733904,0.45915982,0.054039154,0.21984759,0.64546,-0.18850774,-0.26069152,-0.24667493,0.036055993,802.23444,794.17584,796.5934,798.20514,814.7253,-0.4833984375,0.0230712890625,0.87506103515625,4.306640625,-5.450592041015625,1.854248046875,1,1.0,1.0,1.0,1.0,100.00
2021-04-15 09:15:28.160,0.92506474,0.9301101,0.8178115,0.63941795,0.41153282,0.46618813,0.09538582,0.35703847,0.82439864,0.38799047,0.31861174,0.6733904,0.45915982,0.1271664,0.16315643,0.64546,-0.18850774,-0.1222871,-0.27432215,0.036055993,789.7436,812.71063,818.7546,790.54944,734.1392,-0.48126220703125,0.02203369140625,0.8782958984375,4.867401123046875,-3.880462646484375,1.143951416015625,1,1.0,1.0,1.0,1.0,100.00
2021-04-15 09:15:28.690,0.92506474,0.9301101,0.89581156,0.63941795,0.41153282,0.46618813,0.103152476,0.35703847,0.82439864,0.38799047,0.31861174,0.6733904,0.45915982,0.1271664,0.12030484,0.64546,-0.18850774,-0.1222871,-0.35215726,0.036055993,794.9817,798.20514,817.5458,790.54944,831.2454,-0.4798583984375,0.0186767578125,0.877685546875,4.5758056640625,-6.02630615234375,0.949554443359375,1,1.0,1.0,1.0,1.0,100.00
2021-04-15 09:15:29.210,0.92506474,1.1569937,0.89697665,0.63941795,0.41153282,0.3899507,0.43184313,0.35703847,0.82439864,0.02440067,0.10834369,0.6733904,0.45915982,0.013493641,0.22167902,0.64546,-0.18850774,-0.54890066,-0.2910062,0.036055993,819.5604,800.6227,814.3223,790.14655,815.5311,-0.4859619140625,0.02276611328125,0.87701416015625,4.493560791015625,-5.390777587890625,1.80938720703125,1,2.0,1.0,1.0,2.0,100.00
2021-04-15 09:15:29.722,0.92506474,0.9389811,0.7943966,0.63941795,0.41153282,0.20367926,0.24182291,0.35703847,0.82439864,0.22876589,0.2514698,0.6733904,0.45915982,0.057809997,0.23754154,0.64546,-0.18850774,-0.4774911,-0.32087156,0.036055993,816.7399,814.3223,821.1722,796.5934,707.5458,-0.48828125,0.02001953125,0.86865234375,4.508514404296875,-3.7384033203125,0.934600830078125,1,2.0,1.0,1.0,2.0,100.00
2021-04-15 09:15:30.234,0.51240325,0.89304125,0.74822015,0.78330475,0.24331471,0.34323043,0.29750657,0.3597374,0.8742103,0.4749027,0.5130556,0.91066206,0.4727116,0.037651036,0.21768901,0.43819314,0.013331376,-0.36788616,-0.28272974,0.20397834,818.3516,807.47253,815.12823,800.2198,911.02563,-0.48626708984375,0.02215576171875,0.87054443359375,5.33843994140625,-5.076751708984375,1.854248046875,1,1.0,1.0,1.0,1.0,100.00
2021-04-15 09:15:30.756,0.9420007,1.0279955,0.6414338,0.7336588,0.42816162,0.4771854,0.248179,0.508262,0.8854761,0.4749027,0.5223405,0.91066206,0.46272665,-0.016058693,0.17804442,0.41322288,0.05660347,-0.25680402,-0.32599536,0.16912808,797.8022,812.3077,801.8315,778.86444,806.6667,-0.497802734375,0.02191162109375,0.86370849609375,4.59075927734375,-4.194488525390625,0.897216796875,1,1.0,1.0,1.0,1.0,100.00
2021-04-15 09:15:31.314,0.91294426,1.1017638,0.753613,0.72838295,0.47785,0.6069484,0.4172361,0.5637768,0.98797464,0.49967209,0.6068613,0.93660396,0.4065713,0.06360696,0.1168805,0.34070978,0.012059001,-0.32222694,-0.3755809,0.13479404,795.78754,803.44324,811.50183,814.3223,711.1722,-0.5130615234375,0.02252197265625,0.8583984375,4.83001708984375,-5.779571533203125,1.368255615234375,1,1.0,1.0,1.0,1.0,100.00
2021-04-15 09:15:31.830,1.150124,1.1374941,0.8932652,1.0636113,0.72141415,0.65437555,0.50597125,0.72233504,0.9991082,0.51957566,0.50717634,0.9097928,0.4531959,0.12966275,0.10141501,0.47321072,-0.026925452,-0.418505,-0.44311088,0.0025208,779.67035,794.9817,806.6667,794.9817,800.2198,-0.50933837890625,0.01953125,0.86065673828125,4.68048095703125,-5.286102294921875,1.278533935546875,1,1.0,1.0,1.0,1.0,100.00
2021-04-15 09:15:32.341,1.0905907,0.88051623,1.0498025,1.2122499,0.7484146,0.55388814,0.56274575,0.6951138,0.9991082,0.5755828,0.55343246,0.8929286,0.4555401,0.12995511,0.19456826,0.51229155,-0.08312918,-0.4908699,-0.45087668,-0.038000796,789.7436,796.99634,803.0403,778.0586,691.4286,-0.5018310546875,0.019287109375,0.86834716796875,4.717864990234375,-5.495452880859375,1.39068603515625,1,1.0,1.0,1.0,1.0,100.00
2021-04-15 09:15:32.884,1.1712495,1.0416358,1.1914719,1.1670135,0.75437915,0.54043174,0.69795245,0.575953,0.8144066,0.63227797,0.66124046,0.86957896,0.4874365,0.034716647,0.22072195,0.5122099,-0.0832973,-0.4750917,-0.4234614,0.02350135,819.9634,817.5458,803.44324,800.6227,766.77655,-0.502685546875,0.01025390625,0.86376953125,3.529052734375,-4.852447509765625,2.175750732421875,1,1.0,1.0,1.0,1.0,100.00
2021-04-15 09:15:33.392,1.0755097,1.0134025,1.2061106,1.099452,0.5273093,0.39170495,0.55619395,0.3727497,0.6372002,0.56345844,0.65365154,0.77350456,0.44481337,-0.022193553,0.24669917,0.4705576,-0.020059193,-0.448809,-0.35488102,0.07429616,783.2967,808.68134,811.0989,790.14655,750.65936,-0.51336669921875,0.01287841796875,0.86077880859375,4.074859619140625,-3.96270751953125,0.6878662109375,1,1.0,1.0,1.0,1.0,100.00
2021-04-15 09:15:33.928,1.0196017,0.9938828,1.0609883,0.7676266,0.49823573,0.36915594,0.51303387,0.23816943,0.8001813,0.5463543,0.61845225,0.38847393,0.38189238,0.030089071,0.20228355,0.44680277,0.020601163,-0.4255925,-0.21668679,0.113971904,799.011,816.7399,808.68134,817.5458,716.8132,-0.51068115234375,0.00848388671875,0.85614013671875,5.271148681640625,-7.3272705078125,0.545806884765625,1,1.0,1.0,1.0,1.0,100.00
2021-04-15 09:15:34.462,0.9374043,0.7936824,0.83397025,0.5599451,0.5659207,0.24260472,0.14971277,0.40872625,0.80154926,0.25179484,0.50457335,0.4192415,0.29307494,0.05347483,0.19110812,0.4587449,0.040595952,-0.42441645,-0.22755231,0.17562908,788.1319,810.293,819.5604,810.696,770.80585,-0.49481201171875,0.02056884765625,0.8714599609375,4.762725830078125,-5.764617919921875,0.43365478515625,1,1.0,1.0,1.0,1.0,100.00
2021-04-15 09:15:34.967,0.7582742,0.56435907,0.54405665,0.5096943,0.5644888,0.20346141,0.15675811,0.36806837,0.8133542,0.1730974,0.39697528,0.64485836,0.28877002,0.058557227,0.107677035,0.4336076,0.006820596,-0.44587934,-0.2449454,0.16857369,778.46155,801.02563,814.3223,778.46155,760.7326,-0.46685791015625,0.0244140625,0.88311767578125,4.74029541015625,-9.532928466796875,2.94586181640625,1,1.0,1.0,1.0,1.0,100.00
2021-04-15 09:15:35.504,0.9135054,0.7362466,0.76320237,0.7428675,0.87021613,0.44796944,0.23225878,0.50742114,0.78729844,0.30999464,0.45523214,0.71949744,0.3557903,0.09016097,0.17225312,0.4160304,0.0145270685,-0.3848883,-0.2793085,0.1963437,819.9634,802.6374,781.28204,790.54944,827.2161,-0.4508056640625,0.0269775390625,0.8975830078125,-3.349609375,-4.47113037109375,4.007568359375,1,1.0,1.0,1.0,1.0,100.00
2021-04-15 09:15:36.011,0.8503536,0.8973843,0.8670918,0.84398454,0.8973201,0.51703966,0.2762332,0.61715716,0.67735666,0.28713518,0.4718528,0.71949744,0.42140496,0.14839116,0.24938126,0.3863195,0.10075996,-0.27444968,-0.26810533,0.22543192,805.05493,811.50183,827.619,799.81683,688.20514,-0.4488525390625,0.021240234375,0.890869140625,4.47113037109375,-4.478607177734375,1.143951416015625,1,1.0,1.0,1.0,1.0,100.00
2021-04-15 09:15:36.548,0.95022136,1.0179065,1.0578077,0.99976814,0.9757631,0.53699774,0.22019973,0.752804,0.67735666,0.5081523,0.46600482,0.7155104,0.43326563,0.14992142,0.2531965,0.4168103,0.16140059,-0.27784675,-0.22430977,0.25515386,807.8755,816.7399,816.7399,817.1429,824.7985,-0.43780517578125,0.01129150390625,0.903076171875,4.9945068359375,-8.05999755859375,2.13836669921875,1,1.0,1.0,1.0,1.0,100.00
2021-04-15 09:15:37.091,0.84712803,0.9263523,1.0596253,0.9080423,0.5933247,0.30115947,0.017096186,0.6202608,0.5442731,0.4648338,0.39138845,0.47002217,0.45330837,0.077347495,0.17413606,0.47105005,0.10774953,-0.3697066,-0.18516622,0.15366912,813.91943,811.0989,812.3077,811.9048,754.68866,-0.4271240234375,0.01666259765625,0.90484619140625,4.486083984375,-4.26177978515625,1.502838134765625,1,1.0,1.0,1.0,1.0,95.00
2021-04-15 09:15:37.599,0.81632185,0.6067165,0.9405828,0.68139523,0.29655722,0.09750318,0.00574385,0.2588487,0.44140184,0.38301694,0.36208215,0.5106532,0.3997953,0.0104865115,0.07493479,0.41150463,-0.109997176,-0.47527763,-0.21524045,-0.10799042,815.12823,810.293,815.12823,803.0403,663.6264,-0.442138671875,0.01397705078125,0.90155029296875,4.194488525390625,-4.732818603515625,0.889739990234375,1,1.0,1.0,1.0,1.0,95.00
2021-04-15 09:15:38.120,0.65065783,0.21890771,0.64003855,0.5227795,0.21397218,-0.024935167,-0.041050922,0.19532228,0.4517184,-0.11510234,0.18825543,0.5449276,0.37230915,0.06957573,0.12123916,0.48158816,-0.19457544,-0.51090443,-0.4091545,-0.1397124,798.20514,807.47253,808.2784,808.68134,826.8132,-0.43682861328125,0.01263427734375,0.903076171875,4.194488525390625,-5.60760498046875,0.904693603515625,1,1.0,1.0,1.0,1.0,95.00
2021-04-15 09:15:38.675,0.5549344,0.2276449,0.34724876,0.6291863,0.13030896,-0.003567434,0.06999706,0.2515201,0.42285863,-0.17777424,0.3973409,0.5545471,0.31992853,0.047423057,0.14936784,0.5180211,-0.16312174,-0.50664085,-0.3875295,-0.06357254,783.69965,807.8755,823.1868,809.89014,736.1539,-0.4375,0.00860595703125,0.8995361328125,4.553375244140625,-3.775787353515625,0.85235595703125,1,1.0,1.0,1.0,1.0,95.00
2021-04-15 09:15:39.206,0.41222596,0.5651529,0.3111593,0.5784146,0.04991762,0.15405917,0.096063204,0.2922163,0.41432333,0.21092334,0.40277207,0.51012146,0.27787802,0.055255454,0.0892019,0.5638294,-0.13931881,-0.50587726,-0.28736588,-0.067638576,781.685,807.0696,808.68134,796.5934,861.8681,-0.4932861328125,-0.098876953125,0.88348388671875,-0.34393310546875,-2.0037841796875,0.366363525390625,1,1.0,1.0,1.0,1.0,95.00
2021-04-15 09:15:39.711,0.43467256,0.8952768,0.6069906,0.65128034,-0.03816846,0.38153505,0.32012764,0.24400583,0.38471103,0.27792436,0.38567173,0.49177194,0.2168053,-0.00300077,0.03657934,0.50320566,-0.025887826,-0.47057864,-0.23176554,0.0040251953,797.8022,824.7985,777.6557,776.8498,752.674,-0.48284912109375,-0.0296630859375,0.8780517578125,8.934783935546875,-3.910369873046875,3.970184326171875,1,1.0,1.0,1.0,1.0,95.00
2021-04-15 09:15:40.237,0.3659972,0.9525469,0.7734936,0.480033,-0.07323419,0.47553864,0.39727935,0.017245565,0.33716008,0.41784245,0.23741376,0.34978622,0.15243864,0.05467275,0.037484683,0.41719157,0.034041904,-0.43321463,-0.2776763,-0.011157917,803.8461,809.0842,810.696,789.7436,687.8022,-0.48248291015625,0.00250244140625,0.879150390625,6.781463623046875,-6.153411865234375,2.639312744140625,1,1.0,1.0,1.0,1.0,95.00
2021-04-15 09:15:40.751,0.75553304,1.0054897,0.9084835,0.9910306,0.4674561,0.59266144,0.48876867,0.7795798,0.9656262,0.44008714,0.24096033,0.91129166,0.31007507,0.08746369,0.08867401,0.4607469,0.14439943,-0.37074405,-0.2920016,-0.03424651,778.0586,738.5714,733.3333,767.5824,1039.1575,-0.499267578125,0.0390625,0.8748779296875,4.53094482421875,-3.6187744140625,-1.256103515625,1,1.0,1.0,1.0,1.0,95.00
2021-04-15 09:15:41.285,0.75553304,0.8876188,0.9347545,0.9910306,0.4674561,0.5329438,0.46375835,0.7795798,0.9656262,0.44008714,0.17379223,0.91129166,0.31007507,0.14147893,0.10172188,0.4607469,0.14439943,-0.3384409,-0.31397027,-0.03424651,753.47986,761.9414,782.8938,762.74725,752.674,-0.4957275390625,0.01873779296875,0.86151123046875,5.405731201171875,0.949554443359375,1.607513427734375,1,1.0,1.0,1.0,1.0,95.00
2021-04-15 09:15:41.795,0.71974,1.108674,1.0579535,0.9163294,0.4479717,0.66678965,0.61201537,0.72069204,0.96208125,0.5020159,0.1655274,0.9098845,0.33053777,0.1327915,0.08112689,0.49584994,0.18073675,-0.29846078,-0.2495173,-0.001334705,806.6667,809.4872,805.8608,802.23444,813.91943,-0.51556396484375,0.014404296875,0.85382080078125,0.710296630859375,-7.484283447265625,-2.930908203125,1,1.0,1.0,1.0,1.0,95.00
2021-04-15 09:15:42.338,0.72102845,1.108674,1.0579535,0.87871224,0.414053,0.66678965,0.61201537,0.6671641,0.94965804,0.5020159,0.1655274,0.89758027,0.32963765,0.1327915,0.08112689,0.517121,0.16650862,-0.29846078,-0.2495173,-0.014353024,821.5751,819.15753,838.49817,853.4066,749.45056,-0.5042724609375,0.0157470703125,0.85821533203125,3.09539794921875,-5.12908935546875,-0.97198486328125,1,1.0,1.0,1.0,1.0,95.00
2021-04-15 09:15:42.843,0.72102845,1.108674,1.0579535,0.87871224,0.414053,0.66678965,0.61201537,0.6671641,0.94965804,0.5020159,0.1655274,0.89758027,0.32963765,0.1327915,0.08112689,0.517121,0.16650862,-0.29846078,-0.2495173,-0.014353024,840.10986,821.978,840.10986,823.9927,746.63007,-0.49591064453125,-0.002685546875,0.86749267578125,6.033782958984375,-3.506622314453125,1.8243408203125,1,1.0,1.0,1.0,1.0,95.00
2021-04-15 09:15:43.390,1.7173699,1.108674,0.9382411,0.87871224,0.9728484,0.66678965,0.7197729,0.6671641,1.0868316,0.5020159,0.22240503,0.89758027,0.3741353,0.1327915,0.20645534,0.517121,0.08679994,-0.29846078,-0.5482414,-0.014353024,835.6777,813.1135,830.84247,828.022,840.9158,-0.49578857421875,0.01007080078125,0.8701171875,4.366455078125,-4.90478515625,2.041168212890625,1,1.0,1.0,1.0,1.0,95.00
2021-04-15 09:15:43.914,1.6094984,0.987567,0.9885025,1.5671512,0.90043896,0.67316335,0.5628955,0.89859205,1.1070697,0.5731901,0.22481379,1.0010016,0.36481667,0.05865181,0.21110016,0.3550126,0.01389817,-0.6938883,-0.36884677,0.0763639,838.0952,836.8865,841.7216,829.6337,869.5238,-0.50433349609375,7.9345703125E-4,0.86639404296875,3.237457275390625,-4.448699951171875,1.173858642578125,1,1.0,1.0,1.0,1.0,95.00
2021-04-15 09:15:44.421,1.5513691,0.86896205,0.9363252,1.4393485,0.82402146,0.54730034,0.35879812,0.80036885,1.0284107,0.5731901,0.25666225,0.9626835,0.38781705,-0.09699262,0.12047225,0.3255714,-0.1177434,-0.6619064,-0.32935002,0.048399,797.8022,823.1868,832.8571,812.3077,788.93774,-0.5032958984375,5.4931640625E-4,0.86474609375,4.792633056640625,-5.72723388671875,0.127105712890625,1,1.0,1.0,1.0,1.0,95.00
2021-04-15 09:15:44.954,1.2289504,0.7593875,0.84428245,1.1189048,0.52379,0.4393125,0.13806237,0.5906556,0.9223742,0.5731901,0.12611012,0.8877193,0.43818727,-0.096450634,0.06883298,0.339311,-0.17155288,-0.57473797,-0.27242517,-0.008746479,803.0403,824.7985,816.337,807.8755,728.0952,-0.49395751953125,-0.00213623046875,0.86968994140625,3.70849609375,-5.435638427734375,0.964508056640625,1,1.0,1.0,1.0,1.0,95.00
2021-04-15 09:15:45.482,1.0827179,0.5873306,0.6471124,0.891896,0.30489963,0.23042262,0.09934229,0.46024427,0.9552497,0.11911233,0.21007812,0.83642995,0.43864977,-0.15083902,0.08904739,0.44918382,-0.119951054,-0.5072357,-0.29088014,-0.010913457,818.3516,814.7253,809.0842,781.685,839.707,-0.50189208984375,-0.0048828125,0.86907958984375,4.4561767578125,-4.643096923828125,1.42059326171875,1,1.0,1.0,1.0,1.0,95.00
2021-04-15 09:15:46.014,1.2100594,0.8844054,0.50277495,1.0067898,0.36013806,0.110011816,0.32191288,0.4618975,1.1781121,0.11980014,0.11031589,1.0041181,0.4324601,-0.04707585,0.23977104,0.45087326,-0.10555112,-0.46966323,-0.29002243,-0.037382662,811.50183,800.2198,803.0403,804.65204,759.92676,-0.50140380859375,0.002197265625,0.86737060546875,5.151519775390625,-4.74029541015625,1.592559814453125,1,1.0,1.0,1.0,1.0,95.00
2021-04-15 09:15:46.554,1.1830812,0.9036198,0.5461454,0.9849724,0.37138307,-0.0629802,0.33615252,0.45123446,1.1781121,0.18525235,0.11542691,1.0039245,0.3773976,-0.06176645,0.20358025,0.47182047,-0.0944381,-0.503955,-0.32949865,-0.07685906,813.5165,825.2015,828.8278,796.5934,774.83514,-0.501708984375,-0.0048828125,0.86376953125,5.00946044921875,-5.495452880859375,0.58319091796875,1,1.0,1.0,1.0,1.0,95.00
2021-04-15 09:15:47.057,1.0296425,0.79560345,0.5452421,0.93722093,0.4372426,-0.09459428,0.32008448,0.44456652,1.1683189,0.15558171,0.16859534,0.97996193,0.44073328,-0.026593238,0.1077671,0.42003503,-0.04025985,-0.42832282,-0.29788432,-0.012308436,794.57874,810.696,816.7399,789.7436,790.14655,-0.498779296875,-0.00299072265625,0.86279296875,5.151519775390625,-4.74029541015625,0.949554443359375,1,1.0,1.0,1.0,1.0,90.00
2021-04-15 09:15:47.584,0.6383479,0.54605323,0.8007281,0.8587196,0.33047026,-0.05021314,0.40622774,0.5680073,0.86036205,0.11232229,0.5017577,0.88245153,0.43243492,-0.024660632,0.010384011,0.48181644,-0.027949946,-0.36655882,-0.21277618,-0.032023113,810.696,796.99634,794.57874,806.6667,1081.8682,-0.505126953125,6.7138671875E-4,0.859619140625,4.65057373046875,-4.725341796875,1.383209228515625,1,1.0,1.0,1.0,1.0,90.00
2021-04-15 09:15:48.092,0.6733407,0.90339035,0.8936615,0.75069654,0.5577836,0.45912504,0.5032043,0.5321506,0.8878956,0.26154396,0.5017577,0.8661614,0.3677829,0.055174015,0.06054991,0.4613421,-0.06567062,-0.39129546,-0.13621151,-0.008516634,789.7436,795.38464,822.7839,823.1868,717.619,-0.4881591796875,0.020263671875,0.87384033203125,4.852447509765625,-6.945953369140625,1.39068603515625,1,1.0,1.0,1.0,1.0,90.00
2021-04-15 09:15:48.606,0.75063777,1.0131425,1.1223848,0.7587217,0.71062773,0.6400234,0.63622195,0.6309776,0.6589037,0.4882517,0.5017577,0.8624985,0.33758274,0.038984243,0.22025514,0.46199715,-0.17389016,-0.5559429,-0.25486615,-0.020682322,792.5641,796.1905,797.8022,790.54944,784.90845,-0.479736328125,0.010986328125,0.87542724609375,4.089813232421875,-7.185211181640625,1.727142333984375,1,1.0,1.0,1.0,1.0,90.00
2021-04-15 09:15:49.136,0.62692505,1.0228552,1.1459823,0.81227815,0.76919794,0.58951604,0.59377205,0.63036644,0.79390633,0.48352775,0.1960143,0.7463356,0.33895382,0.06795403,0.1394283,0.50960636,-0.119019054,-0.62237185,-0.47228646,-0.030441012,832.4542,810.293,828.022,813.91943,773.6264,-0.47735595703125,0.0147705078125,0.8759765625,4.254302978515625,-5.420684814453125,0.560760498046875,1,1.0,1.0,1.0,1.0,90.00
2021-04-15 09:15:49.644,0.91539395,1.0523018,1.0683819,1.01393,0.8631815,0.5453888,0.48836276,0.6321322,1.0679796,0.567468,0.31427357,0.7665894,0.36028346,0.05732187,0.058711704,0.57900834,-0.1362263,-0.64981073,-0.43358353,-0.14797874,830.0366,809.4872,804.65204,799.81683,739.7802,-0.46673583984375,0.01416015625,0.8856201171875,4.523468017578125,-5.27862548828125,1.368255615234375,1,1.0,1.0,1.0,1.0,90.00
2021-04-15 09:15:50.189,0.86798954,0.95247376,0.8646207,0.87342864,0.8232968,0.4324629,0.33504987,0.43347165,1.0753511,0.49974412,0.4914133,0.8008706,0.34186527,0.05765356,0.10243476,0.5774283,-0.1332164,-0.58425653,-0.37123764,-0.23097244,795.78754,795.38464,812.3077,781.685,761.13556,-0.47027587890625,0.01165771484375,0.8795166015625,3.887939453125,-4.41131591796875,0.276641845703125,1,1.0,1.0,1.0,1.0,90.00
2021-04-15 09:15:50.696,0.97493124,0.8297867,0.8533894,0.8819234,0.7651326,0.381726,0.31090865,0.38940918,1.060119,0.5116315,0.50338185,0.7859136,0.28987518,0.05814337,0.1619259,0.5435357,-0.16348946,-0.4534959,-0.37046233,-0.26106727,798.60803,800.6227,805.8608,797.3993,807.47253,-0.4705810546875,0.01019287109375,0.8846435546875,4.373931884765625,-4.0972900390625,1.293487548828125,1,1.0,1.0,1.0,1.0,90.00
2021-04-15 09:15:51.213,0.85577935,0.5761765,0.9368667,0.763131,0.45283145,0.22476742,0.31759572,0.362672,0.8951011,0.3924364,0.5296988,0.6999007,0.25028667,0.01973415,0.21314211,0.48207545,-0.1890236,-0.41644323,-0.336207,-0.17367887,788.5348,790.14655,804.65204,806.6667,728.9011,-0.47039794921875,0.0076904296875,0.8809814453125,4.94964599609375,-2.878570556640625,1.099090576171875,1,1.0,1.0,1.0,1.0,90.00
2021-04-15 09:15:51.756,0.924058,0.6573955,1.0021272,0.785963,0.5934903,0.21741445,0.48105246,0.5637702,0.6781671,0.4450855,0.5329277,0.43869,0.38967386,0.05577096,0.12447349,0.47881535,-0.18644232,-0.40131932,-0.30505365,-0.06502265,817.5458,782.0879,791.3553,808.68134,1152.381,-0.47760009765625,0.008544921875,0.88165283203125,5.181427001953125,-5.091705322265625,2.6318359375,1,1.0,1.0,1.0,1.0,90.00
2021-04-15 09:15:52.303,0.7735269,0.53878194,0.83772355,0.60093266,0.5759047,0.11801757,0.41396725,0.5531799,0.57184577,0.41298997,0.3221298,0.46095783,0.4949445,-0.0073337695,0.095442146,0.4197817,-0.12882555,-0.48524642,-0.36034945,0.006545992,768.3883,776.4469,811.50183,789.34064,782.0879,-0.4775390625,-9.765625E-4,0.86480712890625,5.33843994140625,-5.0244140625,-0.246734619140625,1,1.0,1.0,1.0,1.0,90.00
2021-04-15 09:15:52.808,0.63962567,0.50178826,0.86810863,0.51734984,0.6043293,0.09453368,0.5102554,0.56387186,0.6299805,0.4717149,0.3950545,0.4044716,0.5060937,0.006271376,0.115284435,0.4097769,-0.10828834,-0.48093042,-0.39080283,0.1285616,738.97437,720.84247,741.39197,736.9597,700.293,-0.50469970703125,0.07489013671875,0.8636474609375,5.45806884765625,-3.48419189453125,4.50103759765625,1,1.0,1.0,1.0,1.0,90.00
2021-04-15 09:15:53.367,0.6210278,0.3756094,0.87025297,0.63028973,0.5162183,-0.102787204,0.3593174,0.44050545,0.7765258,0.29609114,0.29957226,0.70898557,0.4017924,-0.10355375,0.15599479,0.38071713,-0.12264053,-0.48474005,-0.40963167,0.1763622,829.6337,821.1722,823.9927,802.23444,751.06226,-0.460693359375,0.01483154296875,0.88079833984375,1.973876953125,-7.85064697265625,-2.220611572265625,1,1.0,1.0,1.0,1.0,90.00
2021-04-15 09:15:53.910,0.7881876,0.6407632,1.0934718,0.71128947,0.66270775,-0.032062937,0.5325597,0.58301276,0.7756698,0.07111685,0.29951572,0.70898557,0.36922404,0.047017455,0.22553033,0.45559126,-0.28537178,-0.42889357,-0.34076077,0.285173,797.8022,800.6227,801.4286,792.96704,778.0586,-0.4783935546875,-1.220703125E-4,0.880126953125,3.641204833984375,-4.2767333984375,0.471038818359375,1,1.0,1.0,1.0,1.0,90.00
2021-04-15 09:15:54.440,0.90015054,0.6407632,1.0934718,0.78426796,0.8024233,-0.032062937,0.5325597,0.6805585,0.7756698,0.07111685,0.29951572,0.70716906,0.40331092,0.047017455,0.22553033,0.47380105,-0.28311825,-0.42889357,-0.34076077,0.29775694,782.8938,792.5641,796.5934,782.8938,856.63007,-0.47991943359375,-0.01776123046875,0.87994384765625,3.30474853515625,-6.841278076171875,-3.476715087890625,1,1.0,1.0,1.0,1.0,90.00
2021-04-15 09:15:54.982,1.1298342,0.95843095,0.98924947,0.9970972,0.54674566,0.109686024,0.18341026,0.33608958,0.46049753,0.114256635,0.13075425,0.4690371,0.41604796,-0.084090635,-0.06363596,0.6130285,-0.14886227,-0.2623169,-0.3671956,0.11636803,814.7253,802.6374,804.2491,803.44324,720.0366,-0.46966552734375,-0.0108642578125,0.88128662109375,4.5458984375,-5.046844482421875,1.30096435546875,1,1.0,1.0,1.0,1.0,90.00
2021-04-15 09:15:55.505,1.1098384,1.0206755,1.0129374,0.9970972,0.550328,0.16612253,0.26087305,0.33608958,0.72405106,0.17413096,0.16922158,0.4690371,0.37438598,-0.0729333,-0.04146422,0.6130285,-0.18593341,-0.32352278,-0.37904805,0.11636803,819.15753,819.15753,805.8608,808.2784,820.3663,-0.47833251953125,-0.0150146484375,0.87286376953125,4.687957763671875,-4.762725830078125,0.83740234375,1,1.0,1.0,1.0,1.0,90.00
2021-04-15 09:15:56.050,1.2713817,1.1933422,1.0851622,1.1411765,0.6072835,0.30211216,0.35351583,0.42801586,0.8366802,0.36346522,0.29385993,0.604086,0.3282334,-0.017815797,0.011781297,0.4972633,-0.22014324,-0.40305656,-0.33245873,-0.10133328,796.99634,813.91943,821.978,815.5311,814.3223,-0.48675537109375,-0.0150146484375,0.878173828125,4.71038818359375,-5.69732666015625,1.936492919921875,1,1.0,1.0,1.0,1.0,90.00
2021-04-15 09:15:56.572,1.2916502,1.2508212,0.9981166,1.123333,0.56613076,0.31194255,0.3934434,0.31093672,0.8173216,0.4862416,0.3554897,0.6321754,0.3028195,0.004850921,0.03989568,0.43541366,-0.11862847,-0.4957738,-0.33522463,-0.19239418,796.1905,795.38464,811.9048,817.1429,754.68866,-0.4765625,-0.01666259765625,0.88421630859375,4.658050537109375,-5.091705322265625,1.128997802734375,1,1.0,1.0,1.0,1.0,90.00
2021-04-15 09:15:57.109,1.3136067,1.2175559,0.9852308,1.097835,0.5678758,0.29554597,0.327957,0.2762496,0.7966537,0.5357327,0.3658835,0.658761,0.35174018,0.046715178,0.08804002,0.43643877,-0.11564564,-0.5071854,-0.30970883,-0.1458572,802.6374,811.50183,827.619,810.293,764.7619,-0.47491455078125,-0.01007080078125,0.87506103515625,5.106658935546875,-4.29168701171875,0.31402587890625,1,1.0,1.0,1.0,1.0,90.00
2021-04-15 09:15:57.625,1.2519196,1.1397629,1.054715,1.1863978,0.55789655,0.09432934,0.13933298,0.41595155,0.7333235,0.5448639,0.35673088,0.9287333,0.43358245,-0.010943751,0.03649808,0.51311576,-0.06390832,-0.5143687,-0.37392476,-0.05030364,805.8608,803.44324,814.3223,794.57874,835.6777,-0.48236083984375,-0.0107421875,0.8785400390625,4.897308349609375,-4.964599609375,1.233673095703125,1,1.0,1.0,1.0,1.0,100.00
2021-04-15 09:15:58.131,1.0111152,0.89761555,1.020864,1.0892657,0.6781428,0.09477958,-0.02216876,0.5220768,0.76249737,0.3841048,0.24480955,0.93253964,0.41944113,-0.061777283,-0.005384187,0.45890945,-0.052338623,-0.52223366,-0.3475321,0.028910052,816.7399,813.5165,821.1722,801.02563,796.99634,-0.47943115234375,-0.0166015625,0.88226318359375,4.1571044921875,-5.630035400390625,0.67291259765625,1,1.0,1.0,1.0,1.0,100.00
2021-04-15 09:15:58.640,0.8837897,0.6816182,0.87186205,0.977181,0.77512753,0.15020972,0.05765055,0.60241175,0.80634165,0.22313866,0.24311173,0.93156064,0.3381536,-0.11012337,-0.14936212,0.4409561,-0.03056331,-0.38260022,-0.35540786,0.07500611,781.685,796.99634,803.44324,778.0586,662.4176,-0.47705078125,-0.01171875,0.87982177734375,5.2935791015625,-5.166473388671875,1.383209228515625,1,1.0,1.0,1.0,1.0,100.00
2021-04-15 09:15:59.186,0.74112946,0.45408365,0.6311823,0.7783022,0.761727,0.248537,0.0796116,0.59718955,0.7412933,0.20339935,0.22301348,0.6218765,0.2901585,-0.11184565,-0.09918104,0.34774455,-0.13092908,-0.3725952,-0.30516145,0.03305322,826.8132,817.9487,824.7985,813.5165,853.8095,-0.474365234375,-0.0076904296875,0.88494873046875,4.88983154296875,-4.246826171875,1.697235107421875,1,1.0,1.0,1.0,1.0,100.00
2021-04-15 09:15:59.694,0.81593287,0.54249185,0.68756455,0.81600124,0.66223514,0.17412487,0.11047013,0.5549982,0.60505116,0.12522735,0.27018204,0.5807184,0.28166094,-0.08379691,-0.06404024,0.45298007,-0.27133742,-0.40989882,-0.3891235,0.0024150836,759.92676,794.57874,818.7546,764.7619,786.52014,-0.4781494140625,-0.01226806640625,0.88250732421875,4.448699951171875,-4.59075927734375,1.981353759765625,1,1.0,1.0,1.0,1.0,100.00
2021-04-15 09:16:00.234,0.95063734,0.652913,0.7089636,0.8747692,0.48594373,0.1492534,0.14205322,0.46637487,0.3754806,0.38867664,0.28264517,0.52906054,0.3440581,-0.030730292,0.02932993,0.4776585,-0.38471723,-0.54038435,-0.44041204,-0.05001049,802.6374,804.2491,826.0073,798.60803,809.4872,-0.477783203125,-0.0103759765625,0.87921142578125,4.77020263671875,-4.568328857421875,1.016845703125,1,1.0,1.0,1.0,1.0,100.00
2021-04-15 09:16:00.771,0.9868858,0.6991242,0.6800649,0.7585504,0.4270962,0.0767624,0.24125952,0.30670968,0.51546776,0.39784142,0.20908017,0.5048338,0.36686364,-0.018418247,0.04565921,0.46717754,-0.3741109,-0.5361871,-0.51213586,-0.08072519,791.3553,788.5348,801.8315,780.4762,758.315,-0.47540283203125,-0.00604248046875,0.8734130859375,4.9346923828125,-4.71038818359375,1.517791748046875,1,1.0,1.0,1.0,1.0,100.00
2021-04-15 09:16:01.299,0.95893264,0.6949179,0.6864548,0.732677,0.5832242,0.047495183,0.19346952,0.48025668,0.7390862,0.40391162,0.1883404,0.771358,0.39509204,-0.04153468,0.086388424,0.3584659,-0.37574467,-0.5192803,-0.5131435,-0.05038417,770.0,780.07324,789.34064,772.4176,674.90845,-0.47747802734375,-0.010498046875,0.8795166015625,4.62066650390625,-4.65057373046875,1.48040771484375,1,1.0,1.0,1.0,1.0,100.00
2021-04-15 09:16:01.829,0.8222464,0.6640237,0.63498867,0.682943,0.4962586,-0.06722171,0.18745604,0.49136415,0.75187737,0.20363565,0.18605942,0.7819787,0.3617985,-0.04935726,0.11801365,0.40507352,-0.37413788,-0.57232594,-0.45857903,-0.047062658,757.1062,777.6557,787.326,781.28204,737.3626,-0.4765625,-0.00897216796875,0.87921142578125,4.807586669921875,-4.927215576171875,0.0897216796875,1,1.0,1.0,1.0,1.0,100.00
2021-04-15 09:16:02.354,0.7508029,0.68823594,0.7941239,0.6308956,0.5421859,0.18095581,0.2557088,0.4969292,0.75110227,0.38967174,0.39875063,0.78837025,0.30747542,0.04220277,0.108817615,0.41697028,-0.22341764,-0.5116125,-0.3689055,0.0014595558,767.5824,784.10254,784.5055,755.89746,694.2491,-0.47503662109375,-0.0076904296875,0.87628173828125,4.38140869140625,-4.568328857421875,1.622467041015625,1,1.0,1.0,1.0,1.0,100.00
2021-04-15 09:16:02.903,0.7685887,0.846785,0.94327885,0.8484616,0.4334315,0.29148087,0.31782806,0.3954719,0.49941298,0.5599657,0.37581474,0.5270105,0.2820749,0.13636991,0.066297434,0.39792508,-0.123648465,-0.53640646,-0.35661906,-0.021671176,775.2381,758.71796,766.77655,764.35895,749.85345,-0.483642578125,-0.00665283203125,0.87457275390625,5.001983642578125,-4.44122314453125,1.921539306640625,1,1.0,1.0,1.0,1.0,100.00
2021-04-15 09:16:03.422,0.9122903,0.99065244,1.0118816,0.8736097,0.4662441,0.34559774,0.3895925,0.4905826,0.5505477,0.7141643,0.40589243,0.757137,0.5394723,0.21798742,0.0074695796,0.44472954,-0.078571916,-0.5147057,-0.3820394,-0.06844482,780.07324,797.3993,808.68134,774.0293,797.8022,-0.47265625,-0.00543212890625,0.88189697265625,5.555267333984375,-4.358978271484375,0.650482177734375,1,1.0,1.0,1.0,1.0,100.00
2021-04-15 09:16:03.941,0.8712915,1.0898696,1.068514,0.9165482,0.727443,0.470743,0.53519285,0.7819259,0.8491035,0.7290881,0.66108704,0.96018505,0.5522587,0.25558484,-0.0059553813,0.3975721,-0.13175054,-0.5477714,-0.42563915,-0.13809471,792.96704,786.52014,828.4249,820.7692,756.7033,-0.476806640625,-0.0078125,0.87835693359375,4.523468017578125,-4.463653564453125,0.695343017578125,1,1.0,1.0,1.0,1.0,100.00
2021-04-15 09:16:04.461,0.85943896,1.1185515,1.1287925,0.928138,0.6594033,0.5968182,0.67814684,0.8304874,0.86417276,0.6633544,0.70461977,0.94887704,0.4783001,0.17007144,0.03998983,0.4428073,-0.19222245,-0.612209,-0.39564264,-0.11679667,807.0696,813.1135,815.12823,811.50183,757.50916,-0.47479248046875,-0.00750732421875,0.88201904296875,4.486083984375,-5.14404296875,1.353302001953125,1,1.0,1.0,1.0,1.0,100.00
2021-04-15 09:16:04.965,0.79267555,1.1408113,1.1386664,0.96249455,0.80683607,0.6273454,0.69669074,0.82148045,0.8723818,0.632878,0.7020742,0.9499758,0.40225974,0.08127582,0.093391106,0.43594435,-0.26381665,-0.6666805,-0.39664775,-0.09248789,830.0366,829.6337,830.84247,817.5458,727.28937,-0.481689453125,-0.00823974609375,0.882080078125,4.762725830078125,-4.613189697265625,0.67291259765625,1,1.0,1.0,1.0,1.0,100.00
2021-04-15 09:16:05.486,0.8294348,1.0417731,0.97894895,0.95776165,0.7436239,0.52319974,0.5613567,0.63718265,0.87360865,0.6468617,0.5371792,0.7452499,0.40510985,0.07272739,0.06823143,0.5081824,-0.3229338,-0.5840663,-0.34399006,-0.019887118,828.8278,811.0989,832.8571,815.5311,747.4359,-0.4796142578125,-8.544921875E-4,0.882080078125,7.992706298828125,-6.392669677734375,3.18511962890625,1,1.0,1.0,1.0,1.0,100.00
2021-04-15 09:16:06.008,0.9211026,1.0367212,0.85571885,0.99764013,0.838142,0.4184021,0.42127454,0.6022228,0.7622006,0.4522896,0.33161005,0.615407,0.3992549,0.13049887,0.03568835,0.49721858,-0.27684352,-0.52929235,-0.33656934,-0.012124417,784.90845,816.337,819.5604,789.34064,787.326,-0.45440673828125,0.0438232421875,0.8883056640625,5.323486328125,-4.628143310546875,-0.007476806640625,1,1.0,1.0,1.0,1.0,100.00
2021-04-15 09:16:06.516,1.0759243,0.7900018,0.9717383,1.1150607,0.83229834,0.3858639,0.4245683,0.61964077,0.760859,0.33274814,0.28744838,0.5654865,0.2582131,0.08520822,0.09282125,0.4368086,-0.23876542,-0.41772696,-0.31949612,0.006685228,751.8681,748.6447,753.8828,753.8828,719.6337,-0.46539306640625,0.0164794921875,0.88153076171875,3.94775390625,-3.207550048828125,-0.7476806640625,1,1.0,1.0,1.0,1.0,100.00
2021-04-15 09:16:07.051,1.1566509,0.7900018,1.0802486,1.22255,0.8467788,0.3858639,0.4468395,0.6400802,0.753349,0.33274814,0.23186377,0.5449704,0.19054896,0.08520822,0.13539158,0.3691733,-0.20232645,-0.41772696,-0.34542173,-0.016514512,724.0659,739.3773,713.5897,722.8571,755.4945,-0.46954345703125,0.013427734375,0.87750244140625,2.564544677734375,-3.9178466796875,0.949554443359375,1,1.0,1.0,1.0,1.0,100.00
2021-04-15 09:16:07.593,1.1566509,0.7900018,1.1280481,1.22255,0.8467788,0.3858639,0.49216974,0.6400802,0.753349,0.33274814,0.20482506,0.5449704,0.19054896,0.08520822,0.24867024,0.3691733,-0.20232645,-0.41772696,-0.31313893,-0.016514512,724.0659,741.79486,768.7912,730.10986,654.7619,-0.47235107421875,0.00732421875,0.8807373046875,3.790740966796875,-3.54400634765625,0.76263427734375,1,1.0,1.0,1.0,1.0,100.00
2021-04-15 09:16:08.120,1.2264549,0.7900018,1.1036108,1.2175924,1.0301155,0.3858639,0.47691527,0.85353035,0.99893296,0.33274814,0.19937524,0.772544,0.4251216,0.08520822,0.27977678,0.4986851,-0.27502155,-0.41772696,-0.2718029,-0.06339828,748.24176,730.5128,782.49084,724.0659,731.31866,-0.4771728515625,0.00726318359375,0.87310791015625,4.306640625,-5.921630859375,1.973876953125,1,1.0,1.0,1.0,1.0,100.00
2021-04-15 09:16:08.650,1.4339162,0.7900018,1.1036108,1.3618252,0.912268,0.3858639,0.47691527,0.8248848,1.0141261,0.33274814,0.19937524,0.81014335,0.43667576,0.08520822,0.27977678,0.509877,-0.15528367,-0.41772696,-0.2718029,-0.062032722,817.5458,823.9927,835.6777,813.91943,718.4249,-0.47760009765625,0.0086669921875,0.876220703125,4.643096923828125,-4.912261962890625,1.54022216796875,1,1.0,1.0,1.0,1.0,100.00
2021-04-15 09:16:09.193,1.4339162,0.7900018,1.3286293,1.3618252,0.912268,0.3858639,1.2746625,0.8248848,1.0141261,0.33274814,0.421286,0.81014335,0.43667576,0.08520822,0.1848774,0.509877,-0.15528367,-0.41772696,-0.28964484,-0.062032722,860.2564,842.1245,856.63007,841.7216,739.7802,-0.48272705078125,0.00823974609375,0.87744140625,4.269256591796875,-6.033782958984375,1.846771240234375,1,1.0,1.0,1.0,1.0,100.00
