TimeStamp,Delta_TP9,Delta_AF7,Delta_AF8,Delta_TP10,Theta_TP9,Theta_AF7,Theta_AF8,Theta_TP10,Alpha_TP9,Alpha_AF7,Alpha_AF8,Alpha_TP10,Beta_TP9,Beta_AF7,Beta_AF8,Beta_TP10,Gamma_TP9,Gamma_AF7,Gamma_AF8,Gamma_TP10,RAW_TP9,RAW_AF7,RAW_AF8,RAW_TP10,AUX_RIGHT,Accelerometer_X,Accelerometer_Y,Accelerometer_Z,Gyro_X,Gyro_Y,Gyro_Z,HeadBandOn,HSI_TP9,HSI_AF7,HSI_AF8,HSI_TP10,Battery,Elements
2021-04-05 11:02:16.478,0.19017236,0.10910427,0.094310544,0.3303572,0.38288122,-0.29141372,0.054018643,0.6343526,0.7201721,0.46924025,0.65230954,0.7315695,1.0466869,0.93586105,0.9087012,0.92665744,0.63302565,0.5119825,0.4841013,0.65583956,807.47253,759.92676,786.52014,823.9927,687.3993,0.0103759765625,0.02899169921875,1.003173828125,4.568328857421875,-4.246826171875,-0.889739990234375,1,1.0,1.0,1.0,1.0,100.00
2021-04-05 11:02:16.983,0.28617987,0.04966371,0.1816859,0.26570073,0.45817256,-0.23669969,-0.17707634,0.7174487,0.45243707,0.27469245,0.49790758,0.58384794,1.0765486,0.95163846,0.92977947,0.935431,0.5622187,0.4586172,0.40848663,0.61165607,795.78754,775.2381,786.9231,814.3223,794.17584,0.01556396484375,0.01300048828125,1.00604248046875,3.529052734375,-5.84686279296875,-5.2337646484375,1,1.0,1.0,1.0,1.0,100.00
2021-04-05 11:02:17.492,0.28617987,0.17200613,0.20017254,0.26570073,0.45817256,-0.12092405,-0.26941404,0.7174487,0.45243707,0.088188775,0.1958296,0.58384794,1.0765486,0.9580575,0.90216273,0.935431,0.5622187,0.43137363,0.34123364,0.61165607,789.7436,759.5238,776.8498,803.8461,768.3883,0.0194091796875,0.014404296875,0.99688720703125,6.975860595703125,-3.476715087890625,-6.841278076171875,1,1.0,1.0,1.0,1.0,100.00
2021-04-05 11:02:17.543,,,,,,,,,,,,,,,,,,,,,,,,,,,,,,,,,,,,,,/muse/elements/blink
2021-04-05 11:02:17.999,0.28617987,0.17200613,0.102031395,0.26570073,0.45817256,-0.12092405,-0.21152729,0.7174487,0.45243707,0.088188775,0.36137828,0.58384794,1.0765486,0.9580575,0.9108745,0.935431,0.5622187,0.43137363,0.26161897,0.61165607,821.5751,777.25275,794.9817,844.5421,766.3736,-0.0194091796875,0.07647705078125,0.9940185546875,13.884429931640625,-3.147735595703125,-17.0172119140625,1,1.0,1.0,1.0,1.0,100.00
2021-04-05 11:02:18.501,0.28617987,0.17200613,0.15354219,0.26570073,0.45817256,-0.12092405,-0.09722126,0.7174487,0.45243707,0.088188775,0.33179462,0.58384794,1.0765486,0.9580575,0.8944194,0.935431,0.5622187,0.43137363,0.18488032,0.61165607,795.78754,762.74725,782.8938,811.50183,750.2564,-0.08294677734375,0.18341064453125,0.9930419921875,12.63580322265625,-2.03369140625,-37.42889404296875,1,1.0,1.0,1.0,1.0,100.00
2021-04-05 11:02:19.014,0.28617987,0.17200613,0.31544843,0.26570073,0.45817256,-0.12092405,0.03768314,0.7174487,0.45243707,0.088188775,0.33439016,0.58384794,1.0765486,0.9580575,0.9027448,0.935431,0.5622187,0.43137363,0.13980061,0.61165607,770.80585,789.7436,770.0,807.8755,779.2674,-0.11944580078125,0.16949462890625,0.96868896484375,0.7177734375,-6.86370849609375,-11.84326171875,1,2.0,1.0,1.0,2.0,100.00
2021-04-05 11:02:19.522,0.95699006,0.17200613,0.42314076,0.26570073,0.45242888,-0.12092405,0.09283623,0.7174487,0.9957748,0.088188775,0.30995026,0.58384794,1.3117497,0.9580575,0.87920916,0.935431,0.87488693,0.43137363,0.31210262,0.61165607,825.2015,787.72894,804.65204,836.4835,827.2161,-0.03607177734375,0.12457275390625,1.0137939453125,2.07855224609375,-11.02081298828125,-0.934600830078125,1,1.0,1.0,1.0,1.0,100.00
2021-04-05 11:02:20.032,0.95699006,0.17200613,0.37422815,0.26570073,0.45242888,-0.12092405,-0.09611493,0.7174487,0.9957748,0.088188775,0.10455814,0.58384794,1.3117497,0.9580575,0.77118725,0.935431,0.87488693,0.43137363,0.7330448,0.61165607,813.5165,766.77655,785.31134,821.1722,820.3663,-0.03131103515625,0.1517333984375,0.9921875,8.605804443359375,-0.0,-0.844879150390625,1,1.0,1.0,1.0,1.0,100.00
2021-04-05 11:02:20.547,0.8361297,0.17200613,-0.04800399,0.42814025,0.5871095,-0.12092405,-0.354532,0.47645855,1.011918,0.088188775,0.03226645,0.5330562,1.2548606,0.9580575,0.79335004,0.8773757,0.93276674,0.43137363,0.70594335,0.7745863,779.67035,746.63007,762.74725,796.5934,792.5641,-0.05499267578125,0.09088134765625,0.9749755859375,3.75335693359375,-3.96270751953125,4.97955322265625,1,1.0,1.0,1.0,1.0,100.00
2021-04-05 11:02:20.928,,,,,,,,,,,,,,,,,,,,,,,,,,,,,,,,,,,,,,/muse/elements/blink
2021-04-05 11:02:21.057,0.54615146,0.17200613,-0.15171595,0.38499725,0.6827721,-0.12092405,-0.17724313,0.40194175,0.6189346,0.088188775,-0.06041746,0.5389315,1.1761206,0.9580575,0.8027884,0.8735141,0.91622984,0.43137363,0.61262983,0.76157886,794.9817,771.2088,781.685,818.7546,742.1978,-0.035888671875,0.0865478515625,0.9912109375,3.222503662109375,0.418701171875,4.844970703125,1,1.0,1.0,1.0,1.0,100.00
2021-04-05 11:02:21.585,0.54615146,0.17200613,0.08213844,0.97495615,0.6827721,-0.12092405,-0.09529371,0.83029866,0.6189346,0.088188775,0.011927658,0.9678163,1.1761206,0.9580575,0.8152596,0.92918444,0.91622984,0.43137363,0.4670628,0.7150249,786.1172,791.75824,770.80585,801.8315,809.4872,-0.14630126953125,0.07659912109375,0.942626953125,11.461944580078125,-3.656158447265625,0.441131591796875,1,1.0,1.0,1.0,1.0,100.00
2021-04-05 11:02:22.111,0.3031908,0.17200613,0.15313585,1.1489009,0.66712266,-0.12092405,-0.01226491,0.9560154,0.50580615,0.088188775,-0.029112715,0.9678163,1.1382525,0.9580575,0.8232116,0.95577455,0.8136219,0.43137363,0.36204425,0.620342,573.36993,693.8461,785.31134,657.5824,735.34796,-0.037109375,0.17132568359375,1.00103759765625,-12.912445068359375,17.4658203125,78.24478149414062,1,1.0,1.0,1.0,1.0,100.00
2021-04-05 11:02:22.337,,,,,,,,,,,,,,,,,,,,,,,,,,,,,,,,,,,,,,/muse/elements/blink
2021-04-05 11:02:22.638,0.3031908,0.17200613,0.26036355,1.1489009,0.66712266,-0.12092405,-0.069204554,0.9560154,0.50580615,0.088188775,-0.032299485,0.9678163,1.1382525,0.9580575,0.80022186,0.95577455,0.8136219,0.43137363,0.28790092,0.620342,796.1905,975.4945,790.54944,806.26373,733.3333,-0.306396484375,0.06793212890625,0.95465087890625,-3.850555419921875,10.878753662109375,18.146209716796875,1,1.0,1.0,1.0,1.0,100.00
2021-04-05 11:02:22.641,,,,,,,,,,,,,,,,,,,,,,,,,,,,,,,,,,,,,,/muse/elements/blink
2021-04-05 11:02:23.162,0.3031908,0.17200613,0.21635737,1.1489009,0.66712266,-0.12092405,-0.1836754,0.9560154,0.50580615,0.088188775,-0.032299485,0.9678163,1.1382525,0.9580575,0.8151358,0.95577455,0.8136219,0.43137363,0.28432393,0.620342,731.31866,764.35895,722.4542,760.7326,759.5238,-0.40142822265625,0.00927734375,0.918701171875,6.7291259765625,1.143951416015625,-9.151611328125,1,1.0,1.0,1.0,1.0,100.00
2021-04-05 11:02:23.690,0.3031908,0.17200613,0.21635737,1.1489009,0.66712266,-0.12092405,-0.1836754,0.9560154,0.50580615,0.088188775,-0.032299485,0.9678163,1.1382525,0.9580575,0.8151358,0.95577455,0.8136219,0.43137363,0.28432393,0.620342,818.7546,800.6227,813.91943,828.8278,757.50916,-0.37579345703125,0.04669189453125,0.93157958984375,3.48419189453125,-2.684173583984375,0.418701171875,1,2.0,1.0,1.0,2.0,100.00
2021-04-05 11:02:24.217,0.3031908,0.17200613,0.21635737,1.1489009,0.66712266,-0.12092405,-0.1836754,0.9560154,0.50580615,0.088188775,-0.032299485,0.9678163,1.1382525,0.9580575,0.8151358,0.95577455,0.8136219,0.43137363,0.28432393,0.620342,803.44324,780.87915,797.3993,811.9048,757.50916,-0.373046875,-0.0074462890625,0.93231201171875,6.2506103515625,-7.37213134765625,0.70281982421875,1,2.0,1.0,1.0,2.0,100.00
2021-04-05 11:02:24.744,0.3031908,0.17200613,0.21635737,1.1489009,0.66712266,-0.12092405,-0.1836754,0.9560154,0.50580615,0.088188775,-0.032299485,0.9678163,1.1382525,0.9580575,0.8151358,0.95577455,0.8136219,0.43137363,0.28432393,0.620342,833.663,803.8461,791.75824,830.84247,749.45056,-0.346435546875,-0.00347900390625,0.9344482421875,5.14404296875,-5.8319091796875,1.54022216796875,1,2.0,1.0,1.0,2.0,100.00
2021-04-05 11:02:25.269,0.75707763,0.27208513,-0.22468902,0.5212402,0.6618152,0.22986665,-0.39522305,0.5383454,0.9271429,0.063136876,0.098390654,0.77420217,0.95315933,0.82783645,0.89141166,0.9448277,0.634323,0.51342857,0.40172228,0.5836716,854.21246,799.011,817.9487,875.9707,855.0183,-0.3380126953125,0.01898193359375,0.9388427734375,6.11602783203125,-4.97955322265625,0.1495361328125,1,1.0,1.0,1.0,1.0,100.00
2021-04-05 11:02:25.774,0.7713498,0.36100066,-0.1308665,0.5220423,0.796849,0.2568368,-0.25641572,0.58868223,1.142318,0.091285124,0.43471223,0.92917544,0.9475145,0.8265746,0.8702081,0.9659483,0.6404104,0.5151765,0.47592294,0.57982403,801.8315,775.64105,811.0989,826.8132,744.21246,-0.31243896484375,0.00701904296875,0.94378662109375,5.450592041015625,-6.50482177734375,2.175750732421875,1,1.0,1.0,1.0,1.0,100.00
2021-04-05 11:02:26.175,,,,,,,,,,,,,,,,,,,,,,,,,,,,,,,,,,,,,,/muse/elements/blink
2021-04-05 11:02:26.291,0.8037747,0.36108792,0.25945732,0.5366895,0.83095163,0.1319099,-0.0334285,0.60021347,1.142109,0.09706276,0.450482,0.89098686,0.9675152,0.8186564,0.8611677,1.0014669,0.63021475,0.37999162,0.46268216,0.5265496,800.2198,795.38464,813.1135,813.91943,801.8315,-0.3182373046875,0.01806640625,0.94873046875,5.2935791015625,-4.26177978515625,1.68975830078125,1,1.0,1.0,1.0,1.0,100.00
2021-04-05 11:02:26.796,0.81609523,0.36980957,0.43359154,0.52294713,0.95367855,0.1387568,0.11752932,0.6512206,1.1414686,0.08950794,0.433903,0.89098686,0.9344521,0.80773973,0.83314556,1.0171021,0.66425014,0.3726429,0.4965526,0.57204366,744.21246,726.4835,743.00366,756.30035,785.7143,-0.327880859375,0.02764892578125,0.95550537109375,5.121612548828125,-3.925323486328125,1.4056396484375,1,1.0,1.0,1.0,1.0,100.00
2021-04-05 11:02:27.324,0.81609523,0.36980957,0.63023907,0.52294713,0.95367855,0.1387568,0.27555808,0.6512206,1.1414686,0.08950794,0.3287709,0.89098686,0.9344521,0.80773973,0.82404107,1.0171021,0.66425014,0.3726429,0.49413797,0.57204366,776.8498,756.7033,767.5824,785.31134,730.5128,-0.34014892578125,0.0263671875,0.94329833984375,5.2337646484375,-2.930908203125,1.577606201171875,1,1.0,1.0,1.0,1.0,100.00
2021-04-05 11:02:27.835,0.81609523,0.36980957,0.63023907,0.52294713,0.95367855,0.1387568,0.27555808,0.6512206,1.1414686,0.08950794,0.3287709,0.89098686,0.9344521,0.80773973,0.82404107,1.0171021,0.66425014,0.3726429,0.49413797,0.57204366,826.0073,826.8132,815.12823,837.28937,965.82416,-0.3629150390625,0.03173828125,0.932861328125,4.83001708984375,-3.282318115234375,1.9439697265625,1,1.0,1.0,1.0,1.0,100.00
2021-04-05 11:02:28.340,0.81609523,0.36980957,0.63023907,0.52294713,0.95367855,0.1387568,0.27555808,0.6512206,1.1414686,0.08950794,0.3287709,0.89098686,0.9344521,0.80773973,0.82404107,1.0171021,0.66425014,0.3726429,0.49413797,0.57204366,807.8755,791.75824,799.41394,832.8571,1143.5165,-0.3765869140625,0.02789306640625,0.9263916015625,5.263671875,-3.54400634765625,1.457977294921875,1,2.0,1.0,1.0,2.0,100.00
2021-04-05 11:02:28.850,0.81609523,0.36980957,0.63023907,0.52294713,0.95367855,0.1387568,0.27555808,0.6512206,1.1414686,0.08950794,0.3287709,0.89098686,0.9344521,0.80773973,0.82404107,1.0171021,0.66425014,0.3726429,0.49413797,0.57204366,797.3993,753.0769,932.7839,813.1135,751.06226,-0.38104248046875,0.033935546875,0.9232177734375,4.493560791015625,-4.42626953125,2.03369140625,1,2.0,1.0,1.0,2.0,100.00
2021-04-05 11:02:29.362,0.81609523,0.36980957,0.63023907,0.52294713,0.95367855,0.1387568,0.27555808,0.6512206,1.1414686,0.08950794,0.3287709,0.89098686,0.9344521,0.80773973,0.82404107,1.0171021,0.66425014,0.3726429,0.49413797,0.57204366,846.9597,861.06226,831.6484,846.55676,891.685,-0.38812255859375,0.03497314453125,0.92071533203125,5.196380615234375,-4.9945068359375,1.18133544921875,1,2.0,1.0,1.0,2.0,100.00
2021-04-05 11:02:29.890,0.81609523,0.36980957,0.63023907,0.52294713,0.95367855,0.1387568,0.27555808,0.6512206,1.1414686,0.08950794,0.3287709,0.89098686,0.9344521,0.80773973,0.82404107,1.0171021,0.66425014,0.3726429,0.49413797,0.57204366,815.5311,797.8022,796.5934,822.7839,722.4542,-0.39398193359375,0.02777099609375,0.9227294921875,4.747772216796875,-3.87298583984375,0.785064697265625,1,2.0,1.0,1.0,2.0,100.00
2021-04-05 11:02:30.418,0.81609523,0.36980957,0.63023907,0.52294713,0.95367855,0.1387568,0.27555808,0.6512206,1.1414686,0.08950794,0.3287709,0.89098686,0.9344521,0.80773973,0.82404107,1.0171021,0.66425014,0.3726429,0.49413797,0.57204366,801.8315,780.07324,783.69965,821.5751,722.4542,-0.393798828125,0.02691650390625,0.9208984375,4.702911376953125,-4.568328857421875,1.1065673828125,1,2.0,1.0,1.0,2.0,100.00
2021-04-05 11:02:30.942,0.81609523,0.36980957,0.63023907,0.52294713,0.95367855,0.1387568,0.27555808,0.6512206,1.1414686,0.08950794,0.3287709,0.89098686,0.9344521,0.80773973,0.82404107,1.0171021,0.66425014,0.3726429,0.49413797,0.57204366,799.011,784.90845,789.7436,827.619,825.2015,-0.39239501953125,0.0291748046875,0.92193603515625,4.8150634765625,-4.448699951171875,1.009368896484375,1,2.0,1.0,1.0,2.0,100.00
2021-04-05 11:02:31.444,0.81609523,0.36980957,0.63023907,0.7904577,0.95367855,0.1387568,0.27555808,0.6180854,1.1414686,0.08950794,0.3287709,0.82909083,0.9344521,0.80773973,0.82404107,1.0666875,0.66425014,0.3726429,0.49413797,0.7305099,782.0879,778.46155,770.80585,796.99634,681.75824,-0.40655517578125,0.02044677734375,0.90374755859375,4.127197265625,-0.979461669921875,4.194488525390625,1,1.0,1.0,1.0,1.0,100.00
2021-04-05 11:02:31.762,,,,,,,,,,,,,,,,,,,,,,,,,,,,,,,,,,,,,,/muse/elements/blink
2021-04-05 11:02:31.947,0.81609523,0.34855306,0.63023907,0.66614574,0.95367855,-0.06633854,0.27555808,0.5741919,1.1414686,0.13284582,0.3287709,0.67528445,0.9344521,0.7685658,0.82404107,0.93824935,0.66425014,0.5421721,0.49413797,0.7323889,792.1612,925.9341,998.86444,811.0989,742.1978,-0.35394287109375,0.1029052734375,0.9293212890625,2.49725341796875,-3.297271728515625,6.14593505859375,1,1.0,1.0,1.0,1.0,100.00
2021-04-05 11:02:31.958,,,,,,,,,,,,,,,,,,,,,,,,,,,,,,,,,,,,,,/muse/elements/blink
2021-04-05 11:02:31.958,,,,,,,,,,,,,,,,,,,,,,,,,,,,,,,,,,,,,,/muse/elements/jaw_clench
2021-04-05 11:02:32.188,,,,,,,,,,,,,,,,,,,,,,,,,,,,,,,,,,,,,,/muse/elements/jaw_clench
2021-04-05 11:02:32.450,0.81609523,0.34855306,0.63023907,0.66614574,0.95367855,-0.06633854,0.27555808,0.5741919,1.1414686,0.13284582,0.3287709,0.67528445,0.9344521,0.7685658,0.82404107,0.93824935,0.66425014,0.5421721,0.49413797,0.7323889,868.71796,749.85345,834.87177,873.1502,775.64105,-0.42626953125,0.03936767578125,0.90765380859375,2.400054931640625,-4.493560791015625,-0.73272705078125,1,1.0,1.0,1.0,1.0,100.00
2021-04-05 11:02:32.961,0.81609523,0.3696963,0.63023907,0.55391324,0.95367855,-0.062549956,0.27555808,0.48317808,1.1414686,-0.011583528,0.3287709,0.39642298,0.9344521,0.6711793,0.82404107,0.8876795,0.66425014,0.48641443,0.49413797,0.7010289,841.31866,792.5641,839.304,852.1978,729.707,-0.41595458984375,-0.01678466796875,0.9075927734375,5.51788330078125,-1.27105712890625,4.074859619140625,1,1.0,1.0,1.0,1.0,100.00
2021-04-05 11:02:33.468,0.81609523,0.3696963,0.63023907,0.55391324,0.95367855,-0.062549956,0.27555808,0.48317808,1.1414686,-0.011583528,0.3287709,0.39642298,0.9344521,0.6711793,0.82404107,0.8876795,0.66425014,0.48641443,0.49413797,0.7010289,885.64105,831.2454,868.315,873.95605,883.22345,-0.420654296875,-0.0220947265625,0.890380859375,5.570220947265625,-8.3441162109375,1.3458251953125,1,1.0,1.0,1.0,1.0,100.00
2021-04-05 11:02:33.978,0.81609523,0.3696963,0.63023907,0.55391324,0.95367855,-0.062549956,0.27555808,0.48317808,1.1414686,-0.011583528,0.3287709,0.39642298,0.9344521,0.6711793,0.82404107,0.8876795,0.66425014,0.48641443,0.49413797,0.7010289,828.4249,811.0989,816.337,832.0513,1031.9048,-0.41827392578125,0.0091552734375,0.9024658203125,5.869293212890625,-4.6954345703125,0.79254150390625,1,1.0,1.0,1.0,1.0,100.00
2021-04-05 11:02:34.488,0.81609523,0.3696963,0.649401,0.40445805,0.95367855,-0.062549956,0.14793248,0.32004383,1.1414686,-0.011583528,0.06798825,0.4774706,0.9344521,0.6711793,0.69602644,1.0177665,0.66425014,0.48641443,0.43709514,0.5185347,836.8865,798.60803,790.9524,832.4542,665.2381,-0.433837890625,0.01904296875,0.896240234375,4.837493896484375,-5.061798095703125,0.94207763671875,1,1.0,1.0,1.0,1.0,100.00
2021-04-05 11:02:35.005,0.511608,0.36237332,0.6637276,0.44761807,0.6070253,-0.074380055,0.15411384,0.4729304,0.82598966,0.28349012,0.20878527,0.8226526,0.701149,0.7413522,0.69749105,1.0121634,0.3326225,0.24486396,0.4047097,0.50856936,847.3626,832.8571,838.9011,870.32965,975.89746,-0.4195556640625,0.029541015625,0.91070556640625,5.42816162109375,-4.88983154296875,2.1234130859375,1,1.0,1.0,1.0,1.0,100.00
2021-04-05 11:02:35.508,0.5802016,0.5952924,0.6637276,0.49663863,0.6292101,-0.03811702,0.15411384,0.5484626,0.96941674,0.41954407,0.20878527,1.0817648,0.7684115,0.7983009,0.69749105,1.0209371,0.35304078,0.37263167,0.4047097,0.5058608,784.90845,780.07324,780.4762,776.4469,757.1062,-0.458251953125,0.02691650390625,0.890869140625,4.62066650390625,-5.615081787109375,1.517791748046875,1,1.0,1.0,1.0,1.0,100.00
2021-04-05 11:02:36.021,0.6601263,0.5186862,0.6592959,0.70597106,0.66680133,-0.028703019,0.10634675,0.632073,0.96941674,0.8566241,0.18323664,1.0396771,0.78149295,0.7962343,0.6903819,1.0449897,0.30572644,0.45212138,0.33628935,0.54689354,806.26373,787.326,781.685,814.3223,709.5604,-0.43603515625,0.0189208984375,0.8975830078125,5.016937255859375,-7.962799072265625,2.444915771484375,1,1.0,1.0,1.0,1.0,100.00
2021-04-05 11:02:36.533,0.7467109,0.5006442,0.27875888,0.70800114,1.0126034,0.041663703,0.3580129,1.1097,1.0745049,0.8645852,0.5673071,1.4669894,0.96158177,0.8299089,0.83533984,1.153597,0.44251359,0.48318902,0.4239907,0.5371023,799.41394,769.19415,796.5934,831.6484,799.81683,-0.399169921875,0.02227783203125,0.9228515625,5.09918212890625,-7.1478271484375,1.592559814453125,1,1.0,1.0,1.0,1.0,100.00
2021-04-05 11:02:36.777,,,,,,,,,,,,,,,,,,,,,,,,,,,,,,,,,,,,,,/muse/elements/jaw_clench
2021-04-05 11:02:36.975,,,,,,,,,,,,,,,,,,,,,,,,,,,,,,,,,,,,,,/muse/elements/jaw_clench
2021-04-05 11:02:37.042,0.64062107,0.32047936,0.14025295,0.54071146,0.8287336,0.020260863,0.19287857,0.88975984,0.96552306,0.8076002,0.569804,1.3449839,0.90779024,0.83484715,0.80231255,1.0427412,0.32917526,0.4165523,0.3594749,0.38266367,816.7399,780.07324,785.7143,825.2015,743.00366,-0.38824462890625,0.01220703125,0.92010498046875,5.256195068359375,-5.443115234375,1.413116455078125,1,1.0,1.0,1.0,1.0,100.00
2021-04-05 11:02:37.546,0.5863932,0.27144992,0.08790484,0.44123152,0.73791754,-0.020746391,0.12170458,0.80166906,0.97849196,0.77353966,0.52237594,1.351121,0.90712523,0.8344977,0.761168,0.9978246,0.31420085,0.32944733,0.31981206,0.3625813,832.0513,791.3553,809.0842,837.6923,776.4469,-0.38037109375,0.01953125,0.92486572265625,5.914154052734375,-5.33843994140625,1.5850830078125,1,1.0,1.0,1.0,1.0,100.00
2021-04-05 11:02:37.567,,,,,,,,,,,,,,,,,,,,,,,,,,,,,,,,,,,,,,/muse/elements/jaw_clench
2021-04-05 11:02:38.057,0.5154777,0.13219093,-0.029976565,0.44908804,0.40309718,-0.22228616,0.09177029,0.41405454,0.81895065,0.22375786,0.43684435,1.0222201,0.84605217,0.7794257,0.7216343,0.9167308,0.34459516,0.36655805,0.33373436,0.378145,817.5458,797.3993,793.36993,830.0366,860.2564,-0.3814697265625,0.02410888671875,0.92596435546875,5.27862548828125,-3.21502685546875,1.562652587890625,1,1.0,1.0,1.0,1.0,100.00
2021-04-05 11:02:38.077,,,,,,,,,,,,,,,,,,,,,,,,,,,,,,,,,,,,,,/muse/elements/jaw_clench
2021-04-05 11:02:38.360,,,,,,,,,,,,,,,,,,,,,,,,,,,,,,,,,,,,,,/muse/elements/jaw_clench
2021-04-05 11:02:38.567,0.65152997,0.32165095,0.11791368,0.53095883,0.28751388,-0.008184577,0.28278846,0.43824857,0.7153382,0.28617826,0.2798873,0.8606341,0.83033764,0.69605535,0.69836724,0.9181127,0.45710856,0.44053984,0.39579293,0.490034,790.14655,768.7912,782.49084,812.71063,730.10986,-0.3814697265625,0.0301513671875,0.92706298828125,5.7720947265625,-5.0543212890625,2.011260986328125,1,1.0,1.0,1.0,1.0,100.00
2021-04-05 11:02:38.580,,,,,,,,,,,,,,,,,,,,,,,,,,,,,,,,,,,,,,/muse/elements/jaw_clench
2021-04-05 11:02:38.866,,,,,,,,,,,,,,,,,,,,,,,,,,,,,,,,,,,,,,/muse/elements/jaw_clench
2021-04-05 11:02:39.079,0.8295496,0.46085957,0.37832132,0.64184165,0.22850937,0.047376927,0.35056892,0.33736774,0.5412429,0.30456665,0.23839962,0.8366255,0.8111883,0.6982039,0.7110854,0.94872946,0.5506829,0.48127002,0.53232145,0.64529383,843.73627,829.6337,805.05493,844.1392,894.5055,-0.4080810546875,0.03106689453125,0.9071044921875,5.33843994140625,-6.7889404296875,1.622467041015625,1,1.0,1.0,1.0,1.0,100.00
2021-04-05 11:02:39.203,,,,,,,,,,,,,,,,,,,,,,,,,,,,,,,,,,,,,,/muse/elements/jaw_clench
2021-04-05 11:02:39.591,0.73354274,0.60438085,0.4397382,0.52897835,0.16905425,0.15761147,0.31749225,0.13978991,0.5578003,0.2894157,0.10907267,0.49242684,0.8548191,0.6978714,0.7178702,0.92862445,0.6293859,0.45251125,0.55791175,0.68899703,806.6667,794.57874,792.96704,811.50183,748.24176,-0.40924072265625,0.0355224609375,0.9158935546875,5.091705322265625,-6.975860595703125,1.2261962890625,1,1.0,1.0,1.0,1.0,100.00
2021-04-05 11:02:40.103,0.23417561,0.48463678,0.58283466,0.48589006,0.15756823,0.0710108,0.1825115,0.21928556,0.76843774,0.33865696,0.034784757,0.6492712,0.75759953,0.63273096,0.7122599,0.89553463,0.6702546,0.5562899,0.65836155,0.705871,775.64105,770.40295,780.4762,790.54944,686.1905,-0.40789794921875,0.043701171875,0.91400146484375,5.031890869140625,-5.076751708984375,1.547698974609375,1,1.0,1.0,1.0,1.0,100.00
2021-04-05 11:02:40.532,,,,,,,,,,,,,,,,,,,,,,,,,,,,,,,,,,,,,,/muse/elements/jaw_clench
2021-04-05 11:02:40.629,0.2809961,0.39642143,0.35998294,0.40445295,0.2954074,0.003456237,-0.23604316,0.32102633,0.8917692,0.32578716,0.023607038,0.75271326,0.7703362,0.6121484,0.77494806,0.8717012,0.6278172,0.50173837,0.27630946,0.64928544,807.0696,789.7436,786.1172,810.696,726.08057,-0.41455078125,0.0419921875,0.9107666015625,4.807586669921875,-7.559051513671875,0.478515625,1,1.0,1.0,1.0,1.0,100.00
2021-04-05 11:02:40.697,,,,,,,,,,,,,,,,,,,,,,,,,,,,,,,,,,,,,,/muse/elements/jaw_clench
2021-04-05 11:02:41.143,0.42545596,0.34683892,0.20848055,0.43758196,0.36862886,-0.10004922,-0.0596653,0.3773441,0.8716974,0.3597918,0.3434456,0.84155554,0.7852374,0.65705633,0.7793026,0.92322946,0.5183997,0.38609353,0.20993471,0.5231466,798.20514,770.0,783.69965,819.5604,1003.69965,-0.41021728515625,0.03143310546875,0.91455078125,4.403839111328125,-4.643096923828125,0.785064697265625,1,1.0,1.0,1.0,1.0,100.00
2021-04-05 11:02:41.309,,,,,,,,,,,,,,,,,,,,,,,,,,,,,,,,,,,,,,/muse/elements/jaw_clench
2021-04-05 11:02:41.497,,,,,,,,,,,,,,,,,,,,,,,,,,,,,,,,,,,,,,/muse/elements/jaw_clench
2021-04-05 11:02:41.666,0.5751766,0.29378358,0.22241297,0.45464072,0.37510374,-0.2504526,-0.021114856,0.30222303,0.8912426,0.17148794,0.3605835,0.85384357,0.7988113,0.65536743,0.7638125,0.9611505,0.40537593,0.24637882,0.31997097,0.4768559,803.0403,776.8498,772.01465,800.6227,764.35895,-0.41217041015625,0.02996826171875,0.91583251953125,5.435638427734375,-4.26177978515625,1.8841552734375,1,1.0,1.0,1.0,1.0,100.00
2021-04-05 11:02:42.030,,,,,,,,,,,,,,,,,,,,,,,,,,,,,,,,,,,,,,/muse/elements/jaw_clench
2021-04-05 11:02:42.193,0.69321895,0.35355508,0.21071525,0.45085034,0.339401,0.054408874,0.12688205,0.31280956,0.7188911,0.27007294,0.42063916,0.7507828,0.8101706,0.6799041,0.7336107,0.9576851,0.3534563,0.26479995,0.409489,0.47606802,805.8608,798.60803,786.1172,819.15753,838.49817,-0.41986083984375,0.03094482421875,0.91015625,4.224395751953125,-4.59075927734375,1.18133544921875,1,1.0,1.0,1.0,1.0,100.00
2021-04-05 11:02:42.426,,,,,,,,,,,,,,,,,,,,,,,,,,,,,,,,,,,,,,/muse/elements/jaw_clench
2021-04-05 11:02:42.658,,,,,,,,,,,,,,,,,,,,,,,,,,,,,,,,,,,,,,/muse/elements/jaw_clench
2021-04-05 11:02:42.718,0.8648467,0.41076764,0.36689222,0.47824878,0.39546096,0.23239034,0.2074951,0.28421754,0.71763,0.22905196,0.35675833,0.69786245,0.7886622,0.6785437,0.71439826,0.88519007,0.48711514,0.38341218,0.50902843,0.5790961,799.011,773.6264,775.2381,802.23444,809.4872,-0.424072265625,0.02239990234375,0.90936279296875,4.373931884765625,-3.60382080078125,1.495361328125,1,1.0,1.0,1.0,1.0,100.00
2021-04-05 11:02:42.855,,,,,,,,,,,,,,,,,,,,,,,,,,,,,,,,,,,,,,/muse/elements/jaw_clench
2021-04-05 11:02:43.223,0.8272588,0.37635997,0.38437837,0.45024037,0.440753,0.25709215,0.3090994,0.2972836,0.6855004,0.22242346,0.47312903,0.72381496,0.74247766,0.6998008,0.7202129,0.73886627,0.54831356,0.47985616,0.49384376,0.5952005,815.12823,790.14655,800.6227,819.9634,771.6117,-0.43212890625,0.022705078125,0.90191650390625,4.53094482421875,-3.768310546875,0.904693603515625,1,1.0,1.0,1.0,1.0,100.00
2021-04-05 11:02:43.644,,,,,,,,,,,,,,,,,,,,,,,,,,,,,,,,,,,,,,/muse/elements/jaw_clench
2021-04-05 11:02:43.742,0.7906793,0.2593377,0.2925152,0.426339,0.39746404,-0.0027199425,0.26181865,0.25626868,0.82042927,0.20303357,0.47312903,0.70317996,0.68577147,0.6575318,0.66574824,0.7025142,0.6274108,0.5060749,0.50878364,0.63570327,790.54944,773.22345,784.5055,812.3077,778.86444,-0.42596435546875,0.0218505859375,0.90777587890625,4.71038818359375,-4.127197265625,0.994415283203125,1,1.0,1.0,1.0,1.0,100.00
2021-04-05 11:02:43.933,,,,,,,,,,,,,,,,,,,,,,,,,,,,,,,,,,,,,,/muse/elements/jaw_clench
2021-04-05 11:02:44.251,0.42341322,0.4538229,0.3835259,0.19499324,0.2812843,-0.13065456,0.23310748,0.23816358,0.95162356,0.47774094,0.53558445,0.801833,0.690972,0.63864064,0.6042065,0.6822223,0.6283927,0.54054797,0.544039,0.7050046,798.20514,782.49084,776.4469,805.4579,758.315,-0.445068359375,0.0174560546875,0.89471435546875,4.80010986328125,-5.5926513671875,0.635528564453125,1,1.0,1.0,1.0,1.0,100.00
2021-04-05 11:02:44.269,,,,,,,,,,,,,,,,,,,,,,,,,,,,,,,,,,,,,,/muse/elements/jaw_clench
2021-04-05 11:02:44.762,0.6245109,0.65524,0.44597992,0.13661666,0.26375672,-0.056341697,0.17323092,0.23075004,0.9812942,0.48849812,0.3835304,0.8030753,0.80191547,0.6901053,0.5988778,0.7912367,0.6367015,0.53321403,0.4930597,0.71870553,805.4579,809.4872,792.5641,807.8755,757.50916,-0.5816650390625,-0.23065185546875,0.74920654296875,-4.583282470703125,24.50897216796875,-10.669403076171875,1,1.0,1.0,1.0,1.0,100.00
2021-04-05 11:02:45.093,,,,,,,,,,,,,,,,,,,,,,,,,,,,,,,,,,,,,,/muse/elements/jaw_clench
2021-04-05 11:02:45.268,0.69661,0.80152625,0.54648423,0.086961664,0.29521388,0.089851186,0.16502653,0.16787592,0.95541036,0.4747352,0.38059485,0.8030753,0.8726368,0.7372306,0.60362166,0.8136848,0.54290926,0.5380869,0.46281713,0.7424009,786.1172,780.07324,793.36993,813.1135,662.8205,-0.55938720703125,-0.01678466796875,0.8668212890625,15.634002685546875,-27.275390625,11.536712646484375,1,1.0,1.0,1.0,1.0,100.00
2021-04-05 11:02:45.287,,,,,,,,,,,,,,,,,,,,,,,,,,,,,,,,,,,,,,/muse/elements/jaw_clench
2021-04-05 11:02:45.767,,,,,,,,,,,,,,,,,,,,,,,,,,,,,,,,,,,,,,/muse/elements/blink
2021-04-05 11:02:45.784,0.7546241,0.8958576,0.50216806,0.18633413,0.30337566,0.21284387,0.089019224,0.20972675,0.95541036,0.4648074,-0.03945125,0.7974393,0.8692307,0.82270443,0.662599,0.90348125,0.5297971,0.51805454,0.20009342,0.63741463,433.95605,519.7802,502.45422,474.652,789.34064,-0.27130126953125,0.13372802734375,0.9681396484375,16.88262939453125,-11.043243408203125,-3.910369873046875,1,1.0,1.0,1.0,1.0,100.00
2021-04-05 11:02:46.113,,,,,,,,,,,,,,,,,,,,,,,,,,,,,,,,,,,,,,/muse/elements/jaw_clench
2021-04-05 11:02:46.292,0.7546241,0.8958576,0.5156933,0.18633413,0.30337566,0.21284387,0.11448877,0.20972675,0.95541036,0.4648074,-0.046188112,0.7974393,0.8692307,0.82270443,0.6548064,0.90348125,0.5297971,0.51805454,0.12890501,0.63741463,902.5641,856.2271,883.6264,901.75824,946.08057,-0.40478515625,0.08111572265625,0.91253662109375,-1.06170654296875,4.762725830078125,3.9776611328125,1,1.0,1.0,1.0,1.0,100.00
2021-04-05 11:02:46.622,,,,,,,,,,,,,,,,,,,,,,,,,,,,,,,,,,,,,,/muse/elements/jaw_clench
2021-04-05 11:02:46.803,0.7546241,0.8958576,0.5156933,0.18633413,0.30337566,0.21284387,0.11448877,0.20972675,0.95541036,0.4648074,-0.046188112,0.7974393,0.8692307,0.82270443,0.6548064,0.90348125,0.5297971,0.51805454,0.12890501,0.63741463,832.4542,781.28204,804.2491,830.0366,702.71063,-0.43536376953125,0.01019287109375,0.917236328125,6.796417236328125,1.951446533203125,-2.811279296875,1,1.0,1.0,1.0,1.0,100.00
2021-04-05 11:02:47.117,,,,,,,,,,,,,,,,,,,,,,,,,,,,,,,,,,,,,,/muse/elements/jaw_clench
2021-04-05 11:02:47.314,0.7546241,0.8958576,0.5156933,0.18633413,0.30337566,0.21284387,0.11448877,0.20972675,0.95541036,0.4648074,-0.046188112,0.7974393,0.8692307,0.82270443,0.6548064,0.90348125,0.5297971,0.51805454,0.12890501,0.63741463,808.68134,787.72894,805.05493,818.3516,743.00366,-0.432373046875,0.0050048828125,0.89483642578125,5.659942626953125,-8.127288818359375,2.4822998046875,1,2.0,1.0,1.0,2.0,100.00
2021-04-05 11:02:47.775,,,,,,,,,,,,,,,,,,,,,,,,,,,,,,,,,,,,,,/muse/elements/jaw_clench
2021-04-05 11:02:47.822,0.7546241,0.8958576,0.5156933,0.18633413,0.30337566,0.21284387,0.11448877,0.20972675,0.95541036,0.4648074,-0.046188112,0.7974393,0.8692307,0.82270443,0.6548064,0.90348125,0.5297971,0.51805454,0.12890501,0.63741463,781.28204,855.0183,769.59705,785.7143,811.50183,-0.4508056640625,0.00726318359375,0.88641357421875,4.11224365234375,-3.521575927734375,0.994415283203125,1,2.0,1.0,1.0,2.0,100.00
2021-04-05 11:02:47.939,,,,,,,,,,,,,,,,,,,,,,,,,,,,,,,,,,,,,,/muse/elements/jaw_clench
2021-04-05 11:02:48.333,,,,,,,,,,,,,,,,,,,,,,,,,,,,,,,,,,,,,,/muse/elements/jaw_clench
2021-04-05 11:02:48.333,0.7546241,0.8958576,0.5156933,0.18633413,0.30337566,0.21284387,0.11448877,0.20972675,0.95541036,0.4648074,-0.046188112,0.7974393,0.8692307,0.82270443,0.6548064,0.90348125,0.5297971,0.51805454,0.12890501,0.63741463,810.696,736.9597,790.9524,812.3077,794.9817,-0.44171142578125,0.01708984375,0.8995361328125,4.306640625,-6.2506103515625,2.115936279296875,1,2.0,1.0,1.0,2.0,100.00
2021-04-05 11:02:48.539,,,,,,,,,,,,,,,,,,,,,,,,,,,,,,,,,,,,,,/muse/elements/jaw_clench
2021-04-05 11:02:48.848,0.7546241,0.8958576,0.7654191,0.18633413,0.30337566,0.21284387,0.7247007,0.20972675,0.95541036,0.4648074,0.39812753,0.7974393,0.8692307,0.82270443,0.5445231,0.90348125,0.5297971,0.51805454,0.36376932,0.63741463,804.2491,784.90845,777.6557,805.05493,730.10986,-0.43951416015625,0.01519775390625,0.9046630859375,4.628143310546875,-5.674896240234375,2.325286865234375,1,2.0,1.0,1.0,2.0,100.00
2021-04-05 11:02:49.045,,,,,,,,,,,,,,,,,,,,,,,,,,,,,,,,,,,,,,/muse/elements/jaw_clench
2021-04-05 11:02:49.359,0.8418335,0.8958576,0.7244656,0.6297538,0.53812444,0.21284387,0.6386819,0.24957189,0.91054296,0.4648074,0.40504235,0.72438264,0.7185319,0.82270443,0.5364255,0.81332576,0.4521445,0.51805454,0.38749427,0.37269056,809.0842,796.1905,772.01465,802.23444,753.8828,-0.42462158203125,0.01885986328125,0.90936279296875,5.226287841796875,-6.452484130859375,0.88226318359375,1,1.0,1.0,1.0,1.0,100.00
2021-04-05 11:02:49.863,0.6617646,0.8958576,0.6541817,0.57291204,0.382742,0.21284387,0.5526509,0.1971948,0.97134686,0.4648074,0.41187534,0.75217843,0.73342836,0.82270443,0.6216376,0.7901102,0.4239813,0.51805454,0.38949215,0.2729787,794.17584,773.22345,774.0293,803.0403,760.7326,-0.42803955078125,0.01177978515625,0.90753173828125,8.74786376953125,-9.25628662109375,-2.4822998046875,1,1.0,1.0,1.0,1.0,100.00
2021-04-05 11:02:50.378,0.74181217,0.8958576,0.25459126,0.583712,0.39747667,0.21284387,-0.0474754,0.20412523,1.0078555,0.4648074,0.21224439,0.75217843,0.7564763,0.82270443,0.74505126,0.80418354,0.43807375,0.51805454,0.42129105,0.35215008,806.6667,779.67035,784.5055,818.7546,753.8828,-0.35009765625,0.031982421875,0.925048828125,4.209442138671875,-6.258087158203125,0.052337646484375,1,1.0,1.0,1.0,1.0,100.00
2021-04-05 11:02:50.884,0.85269284,0.55012727,0.4133994,0.55585337,0.4393651,0.3721521,0.11681711,0.17665817,0.80132,0.29976577,0.30085525,0.4212674,0.7491669,0.6877516,0.7034189,0.79902005,0.40701255,0.43331257,0.43977636,0.34030446,821.5751,786.1172,796.1905,830.84247,781.685,-0.3751220703125,0.0262451171875,0.92095947265625,5.465545654296875,-0.695343017578125,1.77947998046875,1,1.0,1.0,1.0,1.0,100.00
2021-04-05 11:02:51.026,,,,,,,,,,,,,,,,,,,,,,,,,,,,,,,,,,,,,,/muse/elements/jaw_clench
2021-04-05 11:02:51.153,,,,,,,,,,,,,,,,,,,,,,,,,,,,,,,,,,,,,,/muse/elements/jaw_clench
2021-04-05 11:02:51.402,0.84834564,0.412247,0.3580976,0.67833155,0.34980035,0.19256304,0.079900436,0.21731466,0.8091075,0.29976577,0.3274169,0.5938005,0.72418815,0.6781343,0.677803,0.8373645,0.40413615,0.3563356,0.40673774,0.43195647,780.4762,758.71796,759.92676,798.20514,766.3736,-0.4168701171875,0.0311279296875,0.90869140625,5.084228515625,-3.289794921875,2.40753173828125,1,1.0,1.0,1.0,1.0,100.00
2021-04-05 11:02:51.664,,,,,,,,,,,,,,,,,,,,,,,,,,,,,,,,,,,,,,/muse/elements/jaw_clench
2021-04-05 11:02:51.908,0.3815588,0.4408056,0.39141017,0.6912918,0.055649016,0.1794773,0.13101673,0.17276697,0.53072983,0.32691675,0.40446323,0.66149795,0.6160841,0.656853,0.6103566,0.7749254,0.48921135,0.39916,0.44663212,0.514425,815.12823,800.2198,790.14655,823.1868,850.18317,-0.43487548828125,0.02838134765625,0.90411376953125,5.076751708984375,-4.254302978515625,2.76641845703125,1,1.0,1.0,1.0,1.0,100.00
2021-04-05 11:02:51.994,,,,,,,,,,,,,,,,,,,,,,,,,,,,,,,,,,,,,,/muse/elements/jaw_clench
2021-04-05 11:02:52.430,0.32781857,0.36924657,0.24333864,0.58998036,0.1274505,-0.017871669,0.0950784,0.1467938,0.540348,0.26971138,0.30547363,0.66665524,0.5622865,0.6193949,0.59632546,0.73585266,0.46769413,0.3656174,0.40648043,0.49807113,768.3883,769.59705,774.0293,770.80585,763.1502,-0.4189453125,0.038330078125,0.910400390625,4.35150146484375,-5.682373046875,1.375732421875,1,1.0,1.0,1.0,1.0,100.00
2021-04-05 11:02:52.945,0.1450553,0.4590535,0.434214,0.41189405,0.19873719,0.07494271,0.13568546,0.07112207,0.27805522,0.2215385,0.33286008,0.53050166,0.5432672,0.6021178,0.6096053,0.68202907,0.53698754,0.4006217,0.44584063,0.5316688,780.4762,788.93774,792.96704,783.2967,747.4359,-0.42095947265625,0.0340576171875,0.91217041015625,4.897308349609375,-2.714080810546875,1.016845703125,1,1.0,1.0,1.0,1.0,100.00
2021-04-05 11:02:53.454,0.17515835,0.35784185,0.5168843,0.37238187,0.2554834,-0.19742484,0.16781591,0.10466677,0.18138438,0.2051021,0.29099715,0.47699922,0.40941867,0.56154084,0.6031522,0.66973984,0.41498846,0.32453477,0.40536705,0.4723243,811.0989,782.8938,777.25275,815.12823,811.9048,-0.42657470703125,0.02484130859375,0.90899658203125,4.9945068359375,-3.78326416015625,1.09161376953125,1,1.0,1.0,1.0,1.0,100.00
2021-04-05 11:02:53.975,0.17515835,0.35784185,0.70057666,0.37238187,0.2554834,-0.19742484,0.12955756,0.10466677,0.18138438,0.2051021,0.02489566,0.47699922,0.40941867,0.56154084,0.6784616,0.66973984,0.41498846,0.32453477,0.4837548,0.4723243,796.1905,782.49084,776.8498,807.0696,730.5128,-0.42425537109375,0.024658203125,0.90435791015625,4.42626953125,-3.887939453125,0.575714111328125,1,1.0,1.0,1.0,1.0,100.00
2021-04-05 11:02:54.477,0.17515835,0.35784185,0.70057666,0.77955145,0.2554834,-0.19742484,0.12955756,0.5405096,0.18138438,0.2051021,0.02489566,0.8151658,0.40941867,0.56154084,0.6784616,0.81187326,0.41498846,0.32453477,0.4837548,0.7953261,807.0696,788.5348,788.1319,813.91943,771.2088,-0.431396484375,0.02679443359375,0.90045166015625,4.000091552734375,-3.641204833984375,2.0037841796875,1,1.0,1.0,1.0,1.0,100.00
2021-04-05 11:02:54.993,0.17515835,0.35784185,0.70057666,0.7952614,0.2554834,-0.19742484,0.12955756,0.5363753,0.18138438,0.2051021,0.02489566,0.851951,0.40941867,0.56154084,0.6784616,0.77743906,0.41498846,0.32453477,0.4837548,0.6743156,793.7729,776.8498,797.3993,809.4872,611.6484,-0.37420654296875,0.01470947265625,0.92724609375,4.62066650390625,-18.863983154296875,-4.9346923828125,1,1.0,1.0,1.0,1.0,100.00
2021-04-05 11:02:55.501,1.0613904,0.5510572,0.5785402,0.72641706,0.42671138,0.58943766,0.008973071,0.62252074,0.77588224,0.3018308,0.4441861,0.9046638,0.6985453,0.64930105,0.5632665,0.7641976,0.54474974,0.41530487,0.40666088,0.63857895,757.1062,730.9158,768.3883,780.87915,702.71063,-0.2928466796875,-0.01495361328125,0.94482421875,3.03558349609375,-1.158905029296875,21.794891357421875,1,1.0,1.0,1.0,1.0,100.00
2021-04-05 11:02:55.845,,,,,,,,,,,,,,,,,,,,,,,,,,,,,,,,,,,,,,/muse/elements/jaw_clench
2021-04-05 11:02:56.001,0.6466167,0.58404374,0.5157245,0.66467506,0.43552494,0.6573995,-0.096193515,0.61736333,0.55715173,0.1582406,0.41986975,0.8916281,0.75999296,0.60209626,0.5984921,0.77912253,0.52632815,0.4151742,0.3633903,0.5627442,799.81683,758.71796,787.72894,815.9341,650.7326,-0.4381103515625,0.03875732421875,0.88702392578125,5.973968505859375,3.94775390625,2.355194091796875,1,1.0,1.0,1.0,1.0,100.00
2021-04-05 11:02:56.506,0.5120937,0.58404374,0.5897298,0.5436359,0.46629858,0.6573995,-0.0049791476,0.6628028,0.4866794,0.1582406,0.42176214,0.6955676,0.78509474,0.60209626,0.59582347,0.7976218,0.55274844,0.4151742,0.40339333,0.5733201,813.1135,786.52014,793.7729,817.5458,724.4689,-0.4306640625,0.02532958984375,0.90460205078125,7.559051513671875,-5.884246826171875,-1.74957275390625,1,1.0,1.0,1.0,1.0,100.00
2021-04-05 11:02:56.539,,,,,,,,,,,,,,,,,,,,,,,,,,,,,,,,,,,,,,/muse/elements/jaw_clench
2021-04-05 11:02:57.026,0.65112185,0.14721268,0.57607055,0.48814008,0.50443876,0.4975844,-0.044250686,0.52770334,0.64659834,0.5681528,0.5950704,0.5831983,0.74682146,0.5574195,0.60358226,0.8556528,0.47338542,0.27851433,0.34840605,0.5953742,781.28204,752.27106,766.3736,795.38464,759.92676,-0.42474365234375,0.0394287109375,0.90753173828125,4.239349365234375,-4.553375244140625,2.31781005859375,1,1.0,1.0,1.0,1.0,100.00
2021-04-05 11:02:57.534,0.5191295,0.2527653,0.56784374,0.48814008,0.33165216,0.30062973,-0.033676,0.52770334,0.65858585,0.5681528,0.5822048,0.5831983,0.7182621,0.6716107,0.6455011,0.8556528,0.28045598,0.20529732,0.2814698,0.5953742,806.6667,762.74725,803.44324,809.89014,836.08057,-0.43841552734375,0.0274658203125,0.89337158203125,4.015045166015625,-3.297271728515625,0.19439697265625,1,1.0,1.0,1.0,1.0,100.00
2021-04-05 11:02:58.038,0.6713947,0.38692033,0.47109413,0.6612864,0.5243089,0.44403538,-0.055723652,0.58452535,0.8871248,0.695799,0.5822048,0.68763417,0.6909296,0.6611923,0.65969324,0.7509989,0.33166245,0.2456307,0.16339163,0.3683139,764.7619,790.54944,755.89746,767.1795,713.1868,-0.43536376953125,0.01934814453125,0.897216796875,4.059906005859375,-3.828125,0.186920166015625,1,1.0,1.0,1.0,1.0,100.00
2021-04-05 11:02:58.545,0.82508063,0.4704539,0.4819349,0.652737,0.4461261,0.41456237,-0.059860818,0.5394028,0.8966258,0.6460172,0.43013906,0.68763417,0.77277035,0.70505387,0.6862187,0.76992476,0.3362437,0.22820546,0.17917037,0.40281865,797.3993,770.0,763.1502,791.75824,687.8022,-0.44403076171875,0.02288818359375,0.9046630859375,6.1309814453125,-5.375823974609375,2.115936279296875,1,1.0,1.0,1.0,1.0,100.00
2021-04-05 11:02:59.069,0.88831127,0.5720364,0.4384052,0.6796727,0.48658538,0.6378402,0.092039965,0.45615485,0.8949807,0.6460172,0.19912843,0.7781222,0.77027076,0.6395742,0.6797693,0.7953194,0.36641416,0.3165466,0.1665383,0.3902131,826.4103,785.31134,800.2198,830.4396,792.96704,-0.44378662109375,0.02789306640625,0.89959716796875,6.317901611328125,-6.11602783203125,3.117828369140625,1,1.0,1.0,1.0,1.0,100.00
2021-04-05 11:02:59.588,0.8358049,0.65604585,0.4384052,0.9538719,0.27032387,0.7099244,0.092039965,0.39364102,0.71034145,0.6460172,0.19912843,0.69029313,0.80899405,0.6225331,0.6797693,0.81684995,0.30830386,0.32660672,0.1665383,0.42913383,786.9231,775.2381,779.2674,772.4176,745.0183,-0.38165283203125,0.05267333984375,0.92913818359375,7.2076416015625,-15.783538818359375,2.758941650390625,1,1.0,1.0,1.0,1.0,100.00
2021-04-05 11:03:00.101,0.60747457,0.65604585,0.4384052,0.9745976,0.4446227,0.7099244,0.092039965,0.46351942,0.5125787,0.6460172,0.19912843,0.6719703,0.81934065,0.6225331,0.6797693,0.819783,0.57478637,0.32660672,0.1665383,0.47235987,801.8315,779.67035,780.4762,815.5311,757.50916,-0.3870849609375,0.0428466796875,0.91876220703125,1.547698974609375,-1.31591796875,3.955230712890625,1,1.0,1.0,1.0,1.0,100.00
2021-04-05 11:03:00.619,0.98498243,0.42674053,0.6901206,1.0956664,0.59944457,0.47956678,0.04161877,0.6535971,0.5689145,0.4326984,0.26324752,0.79455274,0.8345908,0.6496545,0.58843946,0.8642356,0.7071509,0.45096076,0.46390292,0.7670567,820.7692,804.2491,816.7399,839.707,1073.8096,-0.404541015625,0.029296875,0.91729736328125,4.1571044921875,-4.957122802734375,0.2392578125,1,1.0,1.0,1.0,1.0,100.00
2021-04-05 11:03:01.127,1.1202192,0.60662884,0.66370493,1.0840545,0.6280649,0.47659054,0.07095844,0.7546298,0.5248828,0.5623787,0.30441993,0.8102524,0.8628808,0.599291,0.55274624,0.9478432,0.7512511,0.4850749,0.4780481,0.8789826,807.47253,782.49084,771.2088,801.4286,694.65204,-0.39996337890625,0.0233154296875,0.91375732421875,5.1141357421875,-3.51409912109375,1.0467529296875,1,1.0,1.0,1.0,1.0,100.00
2021-04-05 11:03:01.643,1.1666402,0.5496791,0.685752,1.0875046,0.68938416,0.4643287,0.11202322,0.7282137,0.6774309,0.5623787,0.30807832,0.79588604,0.7798049,0.56439424,0.45175284,0.91979563,0.6730977,0.44739947,0.42367783,0.8546843,809.4872,790.9524,790.9524,820.3663,772.4176,-0.39337158203125,0.02667236328125,0.914794921875,5.03936767578125,-5.480499267578125,0.538330078125,1,1.0,1.0,1.0,1.0,100.00
2021-04-05 11:03:02.161,0.83929,0.5038556,0.46546263,0.7722145,0.51315147,0.28860718,-0.036388244,0.28083432,0.77133167,0.54838264,0.24040668,0.6916562,0.67370695,0.528084,0.49756584,0.78945434,0.4311078,0.37004608,0.2937406,0.55728674,786.9231,779.2674,799.011,791.3553,801.8315,-0.37286376953125,0.0289306640625,0.92559814453125,4.83001708984375,-6.1309814453125,0.3289794921875,1,1.0,1.0,1.0,1.0,100.00
2021-04-05 11:03:02.666,0.77830064,0.26207823,0.3806062,0.6654071,0.41662797,0.17537032,-0.14054926,0.17795578,0.8110382,0.17494386,0.25485218,0.618589,0.6834048,0.55298465,0.54369515,0.78472114,0.35367814,0.23702109,0.22437707,0.38158566,794.9817,773.22345,767.1795,807.0696,741.39197,-0.37213134765625,0.02728271484375,0.93115234375,4.418792724609375,-6.3104248046875,0.097198486328125,1,1.0,1.0,1.0,1.0,100.00
2021-04-05 11:03:03.181,0.9192529,0.27330333,0.38718918,0.6335256,0.39272156,0.03257649,-0.07299764,0.28380758,0.81720096,0.01654727,0.43829814,0.63838685,0.71724916,0.5295287,0.5707454,0.81000036,0.34049088,0.24118575,0.19378407,0.40563712,805.8608,790.54944,793.7729,814.7253,782.8938,-0.3826904296875,0.02252197265625,0.92706298828125,4.583282470703125,-4.68048095703125,1.854248046875,1,1.0,1.0,1.0,1.0,100.00
2021-04-05 11:03:03.707,1.1433899,0.3413676,0.56108433,0.86787176,0.41682357,0.07039684,0.267017,0.37993234,0.6928786,-0.18365218,0.5240063,0.707302,0.7416741,0.52396613,0.56762236,0.81250817,0.36183086,0.233168,0.21249586,0.4575999,799.011,768.7912,777.25275,801.8315,721.6484,-0.3829345703125,0.02734375,0.923828125,5.06927490234375,-4.366455078125,0.79254150390625,1,1.0,1.0,1.0,1.0,100.00
2021-04-05 11:03:04.211,1.005255,0.28684703,0.59915835,0.82342595,0.3742355,-0.11160478,0.29002753,0.39823726,0.7162658,-0.07937621,0.5205687,0.74685943,0.7677225,0.51639724,0.6310251,0.8368133,0.40908822,0.30370563,0.26824883,0.5063213,782.8938,756.7033,778.46155,784.5055,751.4652,-0.38232421875,0.03070068359375,0.92901611328125,5.203857421875,-5.405731201171875,1.592559814453125,1,1.0,1.0,1.0,1.0,100.00
2021-04-05 11:03:04.726,0.7813062,0.39893332,0.5706743,0.7607219,0.29700983,-0.26606843,0.28611842,0.306697,0.753405,-0.07435613,0.61797434,0.7384919,0.69934374,0.51027226,0.6353945,0.77154475,0.44703102,0.33341613,0.37288234,0.5160581,813.1135,786.52014,792.5641,823.5897,759.92676,-0.3748779296875,0.03179931640625,0.92596435546875,4.7552490234375,-4.927215576171875,0.9869384765625,1,1.0,1.0,1.0,1.0,100.00
2021-04-05 11:03:05.231,0.7417851,0.5424873,0.29451722,0.42901894,0.37492877,0.08135088,-0.07247866,0.2773814,0.72799355,0.29303768,0.46770704,0.7064455,0.68173283,0.5259165,0.647763,0.7707284,0.46854487,0.3798065,0.4068511,0.5284579,794.57874,773.6264,784.90845,801.4286,829.6337,-0.382080078125,0.02777099609375,0.92059326171875,4.852447509765625,-4.269256591796875,1.495361328125,1,1.0,1.0,1.0,1.0,100.00
2021-04-05 11:03:05.750,0.7932422,0.454324,0.16669811,0.39101762,0.362633,0.07282009,-0.065525554,0.21588364,0.6066095,0.36298725,0.55483127,0.5791927,0.6152275,0.5305651,0.6014185,0.70219815,0.3942863,0.24663247,0.30409122,0.52341896,805.4579,779.67035,786.9231,817.9487,790.54944,-0.38824462890625,0.02740478515625,0.9215087890625,4.2767333984375,-4.269256591796875,0.725250244140625,1,1.0,1.0,1.0,1.0,100.00
2021-04-05 11:03:06.258,0.8414226,0.47763577,-0.13645099,0.33275932,0.32882,-0.04063554,-0.018271005,0.15267345,0.7464158,0.3708675,0.5470333,0.43778658,0.6186265,0.52565354,0.55240864,0.7350794,0.28382486,0.15130647,0.108275235,0.5463808,799.011,773.22345,790.54944,809.0842,754.68866,-0.40252685546875,0.01983642578125,0.91754150390625,4.90478515625,-2.699127197265625,0.456085205078125,1,1.0,1.0,1.0,1.0,100.00
2021-04-05 11:03:06.785,0.78905153,0.5375905,0.22449242,0.15734692,0.1503677,-0.090091035,0.09749816,0.1172801,0.72100455,0.33468497,0.4571833,0.550837,0.630797,0.52365625,0.5093239,0.7907547,0.20113292,0.030981816,-0.026004389,0.4572813,795.78754,775.2381,772.8205,803.8461,747.8388,-0.40283203125,0.02166748046875,0.9114990234375,5.390777587890625,-5.203857421875,0.91217041015625,1,1.0,1.0,1.0,1.0,100.00
2021-04-05 11:03:07.310,0.7698455,0.56597996,0.49401078,0.40772787,0.12500581,0.031282615,0.1614743,0.098147,0.7304317,0.38046625,0.34548697,0.54145813,0.6578989,0.49240893,0.40104118,0.7075486,0.3075884,0.14897408,0.094860055,0.43028027,805.4579,800.2198,796.99634,801.8315,718.022,-0.406005859375,0.01641845703125,0.914306640625,3.9178466796875,-5.21881103515625,0.171966552734375,1,1.0,1.0,1.0,1.0,100.00
2021-04-05 11:03:07.824,0.54235107,0.45394504,0.5484124,0.36754626,0.08741789,0.07852485,0.041955244,0.07092907,0.56379765,0.39985642,0.1690596,0.55264336,0.66299623,0.50304604,0.41522092,0.7141088,0.3428283,0.21539302,0.117038876,0.39036417,783.69965,779.2674,772.01465,794.17584,783.69965,-0.401123046875,0.00823974609375,0.91644287109375,4.306640625,-5.450592041015625,0.366363525390625,1,1.0,1.0,1.0,1.0,100.00
2021-04-05 11:03:08.330,0.39558712,0.13680972,0.39425364,0.31273344,0.23834689,-0.11245721,0.0114866365,0.12174035,0.58207726,0.27485654,0.35768846,0.5720371,0.68618274,0.526026,0.48058417,0.6749818,0.3284947,0.24516255,0.1171185,0.37022075,796.1905,781.28204,794.9817,795.38464,664.0293,-0.408447265625,-0.00372314453125,0.91143798828125,4.66552734375,-4.47113037109375,1.74957275390625,1,1.0,1.0,1.0,1.0,100.00
2021-04-05 11:03:08.848,0.41088,0.2212281,0.2508523,0.20260479,0.36998573,-0.015833538,-0.07500991,0.27928922,0.6498484,0.21693338,0.30735895,0.637368,0.69169104,0.55369437,0.50209725,0.7076942,0.40308002,0.3434853,0.25306803,0.48197582,811.50183,789.7436,801.4286,812.3077,848.1685,-0.40948486328125,0.0042724609375,0.91375732421875,5.4730224609375,-3.57391357421875,1.966400146484375,1,1.0,1.0,1.0,1.0,100.00
2021-04-05 11:03:09.366,0.5493941,0.26583108,0.18474357,0.36342958,0.4416418,-0.04280846,0.037972804,0.4158782,0.69916373,0.2614627,0.3395919,0.6302502,0.7573917,0.5501717,0.4783755,0.7194518,0.4096215,0.32817048,0.2895345,0.4697307,782.0879,776.04395,781.685,782.49084,742.1978,-0.41259765625,0.00634765625,0.9088134765625,5.36834716796875,-5.06927490234375,0.5682373046875,1,1.0,1.0,1.0,1.0,100.00
2021-04-05 11:03:09.871,0.585444,0.57813925,0.417493,0.47620484,0.6195252,0.16335434,0.13538602,0.6797735,1.0603312,0.451051,0.31647292,0.9697145,0.75505793,0.5482543,0.44071677,0.75943506,0.40355247,0.30032134,0.26847324,0.4741747,792.96704,794.57874,796.1905,800.2198,807.0696,-0.417236328125,-3.662109375E-4,0.91058349609375,3.7982177734375,-2.609405517578125,-1.4056396484375,1,1.0,1.0,1.0,1.0,100.00
2021-04-05 11:03:10.385,0.5156577,0.54070425,0.38407198,0.54901665,0.70488393,0.067700386,0.17214449,0.7767798,1.1284696,0.45507884,0.19991346,1.0581707,0.7380763,0.5030547,0.48659325,0.7653188,0.314417,0.21751824,0.1909027,0.45419583,805.8608,780.4762,792.1612,803.0403,778.46155,-0.42303466796875,0.01611328125,0.9027099609375,4.246826171875,-5.24871826171875,-0.58319091796875,1,1.0,1.0,1.0,1.0,100.00
2021-04-05 11:03:10.890,0.46094194,0.59685034,0.5677818,0.6893573,0.7495156,0.23141733,0.1341938,0.8046456,1.126862,0.4830264,0.20142888,1.0826437,0.6408582,0.49873662,0.57603216,0.7647299,0.26278707,0.2468636,0.19316135,0.5060551,790.54944,771.6117,776.04395,779.67035,723.663,-0.42742919921875,-0.0072021484375,0.90374755859375,4.53094482421875,-2.97576904296875,0.8074951171875,1,1.0,1.0,1.0,1.0,100.00
2021-04-05 11:03:11.393,0.38734156,0.34478965,0.4059288,0.66613156,0.81116664,0.17673677,0.01861105,0.8180428,1.0816308,0.46686858,0.21989891,1.079569,0.59652424,0.43680844,0.53965914,0.69399065,0.20646603,0.24237944,0.2096352,0.48735595,811.9048,793.36993,801.02563,828.022,858.24176,-0.42010498046875,0.00189208984375,0.90631103515625,4.7552490234375,-6.280517578125,1.039276123046875,1,1.0,1.0,1.0,1.0,100.00
2021-04-05 11:03:11.908,0.611119,0.51679343,0.5369689,0.72747797,0.91917676,0.29411495,0.13848655,0.81453764,1.0601658,0.46040016,0.41640824,1.0677702,0.5804641,0.45599478,0.48814735,0.67423683,0.1466079,0.20150964,0.15747447,0.3834127,787.326,780.07324,782.49084,804.65204,816.337,-0.41851806640625,-0.00164794921875,0.906494140625,5.30853271484375,-4.366455078125,1.31591796875,1,1.0,1.0,1.0,1.0,100.00
2021-04-05 11:03:12.419,0.71263576,0.6563747,0.47735083,0.6553668,0.94810647,0.36719838,0.20931889,0.77062446,1.0496935,0.4556504,0.40767148,1.0672942,0.5910633,0.45506886,0.44247735,0.6826403,0.28359255,0.27211922,0.26675978,0.42384762,789.34064,783.2967,773.22345,792.5641,735.7509,-0.42840576171875,0.0047607421875,0.9051513671875,5.27862548828125,-4.074859619140625,1.413116455078125,1,1.0,1.0,1.0,1.0,100.00
2021-04-05 11:03:12.926,0.7259401,0.75922495,0.52493924,0.6501355,0.828579,0.40241367,0.21722305,0.6584652,1.1091866,0.4277313,0.43094808,1.0306431,0.6566859,0.48762515,0.46900192,0.7217375,0.37775633,0.31517324,0.3795934,0.41232467,789.7436,768.3883,792.96704,797.3993,774.83514,-0.421142578125,0.001708984375,0.90386962890625,5.450592041015625,-5.1739501953125,0.82244873046875,1,1.0,1.0,1.0,1.0,100.00
2021-04-05 11:03:13.433,0.7542309,0.73830855,0.41970992,0.5985438,0.61750114,0.34813982,0.09443926,0.57131433,1.0762457,0.42457557,0.27741167,1.0732931,0.6870397,0.53074,0.4459383,0.7308805,0.38257864,0.31734768,0.39349878,0.41075182,770.40295,770.80585,819.15753,796.1905,947.28937,-0.42596435546875,0.0010986328125,0.90325927734375,4.71038818359375,-5.15899658203125,1.18133544921875,1,1.0,1.0,1.0,1.0,100.00
2021-04-05 11:03:13.951,0.6636262,0.53948957,0.38445202,0.41842687,0.788488,0.038803883,-0.025831548,0.65887094,1.1310058,0.51489,0.22609845,1.0920384,0.7375657,0.53771406,0.4500104,0.73962885,0.31793267,0.13357617,0.36740464,0.2874446,777.25275,766.77655,784.90845,791.75824,711.1722,-0.40435791015625,0.00616455078125,0.9102783203125,5.21881103515625,-5.929107666015625,-0.46356201171875,1,1.0,1.0,1.0,1.0,100.00
2021-04-05 11:03:14.459,0.77076536,0.5118788,0.4095115,0.50789446,1.0495512,-0.049630698,-0.002409102,0.6907941,1.152153,0.54134256,0.3455836,1.0566982,0.7145591,0.5536242,0.49456665,0.6994795,0.23472296,-0.009804245,0.11305956,0.2543593,823.9927,800.6227,805.8608,820.7692,811.0989,-0.4129638671875,0.006591796875,0.91015625,4.957122802734375,-6.108551025390625,0.695343017578125,1,1.0,1.0,1.0,1.0,100.00
2021-04-05 11:03:14.977,0.777521,0.4825729,0.55088586,0.64239633,1.0509917,-0.09717281,0.047696657,0.6214617,1.0513242,0.54134256,0.32829237,1.0113059,0.7208841,0.5033721,0.5427071,0.65432113,0.29666606,0.12221579,0.105344914,0.32624453,804.65204,772.8205,783.2967,802.23444,838.49817,-0.40887451171875,0.00811767578125,0.9149169921875,5.420684814453125,-6.467437744140625,1.65985107421875,1,1.0,1.0,1.0,1.0,100.00
2021-04-05 11:03:15.502,0.77051896,0.46168756,0.6223703,0.7007273,1.0152489,0.04201466,-0.028114617,0.4772197,1.0778737,0.4384919,0.39052123,0.8226881,0.65294135,0.49111623,0.5530044,0.6384745,0.28028366,0.1388952,0.17483138,0.3485187,780.07324,763.95605,772.01465,798.60803,711.1722,-0.39923095703125,0.0177001953125,0.9239501953125,5.24871826171875,-6.29547119140625,1.024322509765625,1,1.0,1.0,1.0,1.0,100.00
2021-04-05 11:03:16.010,0.63313925,0.4838397,0.4200567,0.64103717,0.6912939,0.07266424,-0.118495695,0.17295161,0.9782633,0.23004225,0.3671835,0.8501581,0.59978044,0.49904218,0.56289715,0.666888,0.29748687,0.21257243,0.22230764,0.36212295,809.4872,789.7436,791.3553,814.7253,905.78754,-0.3895263671875,0.0067138671875,0.91864013671875,4.74029541015625,-5.99639892578125,-0.097198486328125,1,1.0,1.0,1.0,1.0,100.00
2021-04-05 11:03:16.513,0.4177241,0.5037596,0.3597505,0.37137908,0.6913706,0.09653854,-0.088549845,0.21398985,0.97653395,0.21996951,0.3386123,0.6575052,0.5921738,0.53522456,0.60292155,0.76489335,0.25903076,0.1434772,0.24023919,0.31881568,773.22345,763.95605,772.01465,785.31134,746.63007,-0.3724365234375,0.0108642578125,0.9281005859375,4.673004150390625,-5.4132080078125,0.814971923828125,1,1.0,1.0,1.0,1.0,100.00
2021-04-05 11:03:17.021,0.3421059,0.43220985,0.141982,0.28806984,0.4625934,-0.060210463,-0.124653555,0.32825536,0.89227486,0.27324268,0.3810776,0.6167289,0.65210634,0.5569644,0.6409018,0.7812438,0.2925651,0.15071137,0.26944992,0.3918452,807.0696,799.011,799.011,813.91943,844.1392,-0.38629150390625,0.01593017578125,0.9254150390625,4.725341796875,-4.2767333984375,1.622467041015625,1,1.0,1.0,1.0,1.0,100.00
2021-04-05 11:03:17.542,0.27988106,0.21576197,0.32713273,0.27719927,0.42502743,-0.030814815,-0.063553534,0.33327717,0.89429444,0.23772922,0.45494217,0.6069821,0.7255373,0.54541004,0.6650743,0.78902644,0.25720018,0.06612394,0.1871332,0.38280612,808.2784,788.5348,791.75824,822.7839,737.76556,-0.39324951171875,0.01776123046875,0.92425537109375,4.6954345703125,-3.715972900390625,1.951446533203125,1,1.0,1.0,1.0,1.0,100.00
2021-04-05 11:03:18.069,0.4732921,0.29838052,0.2763419,0.365797,0.4320056,0.028474044,-0.13217466,0.36601114,0.8938917,0.25375932,0.44456974,0.547615,0.68037444,0.5180523,0.5998968,0.68314767,0.19612682,0.06300707,0.11086153,0.35739365,779.2674,771.6117,775.2381,789.7436,712.381,-0.38677978515625,0.02337646484375,0.922119140625,5.181427001953125,-5.0244140625,2.205657958984375,1,1.0,1.0,1.0,1.0,100.00
2021-04-05 11:03:18.577,0.74585253,0.68355787,0.3406051,0.44780755,0.40855357,0.11765613,0.011412736,0.26782045,0.63094246,0.43893242,0.42130953,0.46331543,0.62693524,0.4732653,0.5454896,0.62600636,0.14824414,0.11308832,0.022956975,0.26163384,788.5348,772.8205,792.5641,792.96704,804.2491,-0.39959716796875,0.030029296875,0.917724609375,5.405731201171875,-4.246826171875,1.996307373046875,1,1.0,1.0,1.0,1.0,100.00
2021-04-05 11:03:19.089,0.8396196,0.8354947,0.5565382,0.44902223,0.55624115,0.13474108,0.1875212,0.2406328,0.6379862,0.3931872,0.19096713,0.556315,0.5796174,0.4424232,0.446778,0.6011567,0.18681559,0.18765424,0.10643314,0.27856135,773.6264,772.8205,791.3553,788.93774,709.5604,-0.40045166015625,0.03411865234375,0.91888427734375,5.21881103515625,-5.00946044921875,0.897216796875,1,1.0,1.0,1.0,1.0,100.00
2021-04-05 11:03:19.596,0.76338875,0.79579973,0.6002397,0.4920989,0.51882046,0.06788476,0.2082803,0.12327974,0.69559073,0.37178308,0.29533213,0.49634135,0.6166176,0.4866595,0.45418215,0.620754,0.24181494,0.2511443,0.17781423,0.2870673,785.7143,791.3553,790.54944,799.011,682.1612,-0.41143798828125,0.02239990234375,0.90985107421875,4.5458984375,-4.358978271484375,0.919647216796875,1,1.0,1.0,1.0,1.0,100.00
2021-04-05 11:03:20.101,0.6202265,0.2516027,0.57877505,0.4873382,0.5315439,0.13020405,0.18606442,0.1632999,0.72711575,0.21046294,0.29360828,0.5822078,0.6378726,0.56094724,0.3880808,0.6111281,0.22979419,0.13302533,0.16688842,0.27330685,801.02563,780.4762,767.98535,803.44324,829.6337,-0.40899658203125,0.025146484375,0.91485595703125,3.970184326171875,-4.732818603515625,0.635528564453125,1,1.0,1.0,1.0,1.0,100.00
2021-04-05 11:03:20.604,0.5533801,0.27710629,0.39033398,1.2209024,0.42513067,0.14703737,0.078852415,0.72647905,0.6239568,0.12312889,0.28296545,0.9923947,0.62135386,0.55516756,0.3716897,0.560222,0.2312964,0.103221156,0.17264675,0.24887307,784.90845,766.3736,769.59705,780.07324,791.75824,-0.406982421875,0.023193359375,0.91729736328125,4.628143310546875,-3.648681640625,0.994415283203125,1,1.0,1.0,1.0,1.0,100.00
2021-04-05 11:03:21.121,0.30600026,0.36994836,0.032792307,1.3063388,0.47004798,0.2734264,0.008839696,0.83691925,0.6620573,0.14444967,0.1770203,1.0007187,0.6409674,0.6089086,0.3548397,0.57519144,0.30363953,0.20709805,0.104548596,0.29396877,811.50183,790.54944,801.8315,815.12823,698.68134,-0.41778564453125,0.02850341796875,0.90814208984375,4.9945068359375,-4.972076416015625,2.474822998046875,1,1.0,1.0,1.0,1.0,100.00
2021-04-05 11:03:21.637,-0.03398861,0.5891873,0.4615136,1.2353956,0.4476574,0.19787659,0.06404355,0.7885159,0.5429418,0.09405472,0.12503338,0.98894614,0.60962075,0.60461307,0.48407188,0.6051269,0.5183807,0.35570076,0.49439174,0.41989595,816.7399,798.20514,796.99634,830.84247,880.80585,-0.41412353515625,0.02569580078125,0.912841796875,4.47113037109375,-4.8748779296875,1.03179931640625,1,1.0,1.0,1.0,1.0,100.00
2021-04-05 11:03:22.167,0.20647533,0.65760994,0.41200516,0.2069777,0.5592418,0.19051374,0.029770877,0.36769277,0.6615338,0.27170515,0.25483844,0.6913405,0.61429316,0.5553262,0.43465054,0.5813846,0.42717978,0.26996756,0.43219742,0.4161398,758.315,763.5531,763.95605,768.7912,780.87915,-0.41961669921875,0.015869140625,0.90625,5.046844482421875,-4.358978271484375,1.1065673828125,1,1.0,1.0,1.0,1.0,100.00
2021-04-05 11:03:22.667,0.38843182,0.81,0.4034632,0.3824941,0.5101639,0.17378038,-0.015991155,0.37034476,0.7915751,0.29219836,0.2817735,0.63439775,0.6372239,0.4805082,0.42301843,0.5635239,0.3674515,0.17436713,0.37768587,0.37371734,803.44324,777.25275,790.54944,804.2491,794.57874,-0.41802978515625,0.0260009765625,0.90643310546875,5.076751708984375,-5.929107666015625,1.457977294921875,1,1.0,1.0,1.0,1.0,100.00
2021-04-05 11:03:23.181,0.66986436,0.84850806,0.39796293,0.528562,0.46016714,0.1928099,-0.0072494405,0.3990983,0.935965,0.26980153,0.28044683,0.7152502,0.6473065,0.45397657,0.42554107,0.5293404,0.27234846,0.10005608,0.3271914,0.36603805,804.65204,787.72894,797.8022,811.50183,803.0403,-0.41790771484375,0.0157470703125,0.90789794921875,4.104766845703125,-5.203857421875,0.770111083984375,1,1.0,1.0,1.0,1.0,100.00
2021-04-05 11:03:23.707,0.73941344,0.7934035,0.36250827,0.55762726,0.19920553,0.26332536,0.032664765,0.26557735,0.9090939,0.26880574,0.27600658,0.65249604,0.64438903,0.39283705,0.40374342,0.4936286,0.44446337,0.24768272,0.30003724,0.47060028,803.0403,774.43225,773.6264,798.20514,738.5714,-0.4151611328125,0.00860595703125,0.91204833984375,3.910369873046875,-4.957122802734375,0.740203857421875,1,1.0,1.0,1.0,1.0,100.00
2021-04-05 11:03:24.210,0.74115074,0.28061044,0.40869108,0.6357209,0.03408413,0.09625525,0.29664567,0.17770286,0.89341205,0.16101888,0.21125482,0.60306805,0.5593989,0.3630223,0.38536638,0.4364924,0.4710928,0.31662035,0.31245294,0.48309582,797.3993,788.5348,801.8315,816.7399,813.91943,-0.41107177734375,0.00457763671875,0.91180419921875,4.9945068359375,-4.867401123046875,1.697235107421875,1,1.0,1.0,1.0,1.0,100.00
2021-04-05 11:03:24.722,0.63676953,0.17358999,0.37116936,0.67808765,0.12065698,-0.007933889,0.3265032,0.1681441,0.61336166,0.22281976,0.1866757,0.3576983,0.5982072,0.4267587,0.3319919,0.42628977,0.53222686,0.29612735,0.34745416,0.45263597,785.31134,776.8498,784.10254,807.0696,745.82416,-0.41851806640625,0.00830078125,0.90740966796875,5.166473388671875,-4.3365478515625,1.2860107421875,1,1.0,1.0,1.0,1.0,100.00
2021-04-05 11:03:25.236,0.56918246,-0.0045404197,0.40963027,0.6754429,0.4288673,-0.17930189,0.30975646,0.3256583,1.171253,0.62859726,0.111639075,0.8432816,0.6325768,0.45839906,0.38748527,0.5482331,0.37123108,0.18704401,0.26894167,0.3176646,793.36993,770.40295,780.4762,791.75824,699.89014,-0.42108154296875,0.00390625,0.9169921875,4.91973876953125,-6.32537841796875,1.099090576171875,1,1.0,1.0,1.0,1.0,100.00
2021-04-05 11:03:25.749,0.4519208,0.20983729,0.40608925,0.49603382,0.5346542,-0.006754402,0.097296596,0.38148358,1.1735407,0.6215073,0.06932032,0.8432816,0.71808136,0.4999594,0.4500349,0.6782858,0.29912424,0.07974369,0.20865172,0.24128789,815.12823,794.9817,803.44324,820.7692,909.41394,-0.41143798828125,0.009521484375,0.912841796875,4.912261962890625,-5.734710693359375,1.86920166015625,1,1.0,1.0,1.0,1.0,100.00
2021-04-05 11:03:26.260,0.25321558,0.4738213,0.4186957,0.3021852,0.530402,0.14746718,-0.03267273,0.4439135,1.1757839,0.6275373,0.27837664,0.8433705,0.7013463,0.5063581,0.52536285,0.76445377,0.1682673,-0.010869391,0.1667947,0.14647682,802.6374,774.43225,780.87915,802.23444,811.0989,-0.4130859375,0.01409912109375,0.9150390625,5.2337646484375,-6.20574951171875,0.97198486328125,1,1.0,1.0,1.0,1.0,100.00
2021-04-05 11:03:26.786,0.381923,0.45425,0.3317708,0.42419913,0.40021127,0.19683623,-0.124153845,0.3893043,0.67125756,0.42788845,0.15813017,0.6758376,0.63621354,0.4756143,0.5165766,0.74879766,0.2087946,0.053382847,0.17894086,0.2196306,801.02563,784.5055,786.1172,809.89014,752.27106,-0.39031982421875,0.01751708984375,0.91522216796875,5.510406494140625,-6.646881103515625,-0.22430419921875,1,1.0,1.0,1.0,1.0,100.00
2021-04-05 11:03:27.310,0.46843067,0.298613,0.11438623,0.53625715,0.24015911,0.04659831,-0.2520803,0.3222264,0.61351883,0.37115347,0.17557026,0.608946,0.531763,0.47075397,0.49013394,0.6580236,0.2443242,0.11527645,0.20083643,0.26057208,793.36993,794.17584,805.4579,793.36993,755.4945,-0.39886474609375,0.01324462890625,0.9248046875,4.71038818359375,-5.121612548828125,1.443023681640625,1,1.0,1.0,1.0,1.0,100.00
2021-04-05 11:03:27.838,0.6481119,0.08508571,-0.0048061395,0.54304117,0.1973975,-0.043274127,-0.19584398,0.29218343,0.5809305,0.04100244,0.19822735,0.5806032,0.39063352,0.38432202,0.40489528,0.6277718,0.2561216,0.17534322,0.14313184,0.25502646,784.90845,773.6264,788.93774,788.93774,711.978,-0.38311767578125,0.02276611328125,0.9342041015625,6.41510009765625,-7.77587890625,-0.889739990234375,1,1.0,1.0,1.0,1.0,100.00
2021-04-05 11:03:28.361,0.5739834,0.597315,0.40340316,0.55408025,0.33774978,-0.007831061,0.015428003,0.23875763,0.6810548,0.04485421,0.32439017,0.5363117,0.48268774,0.3807687,0.38283607,0.5598076,0.2330381,0.16880605,0.08088764,0.22410949,840.5128,809.89014,819.9634,838.0952,882.8205,-0.36724853515625,0.01324462890625,0.928955078125,6.317901611328125,-6.220703125,2.474822998046875,1,1.0,1.0,1.0,1.0,100.00
2021-04-05 11:03:28.865,0.5829327,0.72245526,0.50678164,0.5622577,0.495878,0.093743935,0.01680335,0.40125218,0.74157673,0.0040881764,0.32439017,0.47555897,0.5146169,0.31840575,0.3378635,0.52749175,0.28678164,0.2393273,0.15618403,0.33725506,799.41394,782.0879,784.90845,812.3077,844.5421,-0.36175537109375,0.01995849609375,0.93206787109375,5.36834716796875,-5.600128173828125,1.435546875,1,1.0,1.0,1.0,1.0,100.00
2021-04-05 11:03:29.375,0.55275077,0.7224593,0.52910596,0.5411596,0.4464224,-3.757909E-5,-0.062151995,0.3220593,0.7679641,0.24484952,0.31271738,0.6149987,0.48278832,0.3432621,0.297697,0.5146839,0.2722425,0.21046239,0.22291774,0.38914388,782.0879,767.98535,781.28204,801.02563,737.3626,-0.36737060546875,0.018798828125,0.92437744140625,4.762725830078125,-5.03936767578125,1.398162841796875,1,1.0,1.0,1.0,1.0,100.00
2021-04-05 11:03:29.886,0.5444972,0.4176266,0.2835618,0.40222535,0.5333321,-0.07250289,-0.38399345,0.30054402,0.836449,0.2939794,0.2864654,0.6438023,0.4943194,0.36958167,0.2996569,0.57360995,0.25805798,0.16659667,0.2610254,0.37425512,815.12823,792.1612,796.1905,826.0073,963.00366,-0.364990234375,0.02215576171875,0.93121337890625,4.91973876953125,-3.2000732421875,1.45050048828125,1,1.0,1.0,1.0,1.0,100.00
2021-04-05 11:03:30.398,0.4190921,0.30661973,0.06255329,0.23452705,0.45878637,-0.088044874,-0.45095512,0.10928897,0.7763237,0.3000915,0.2549006,0.5844558,0.5572717,0.3737095,0.32511702,0.59517765,0.14885607,0.02392278,0.13929752,0.2751527,790.9524,776.04395,774.43225,784.90845,866.7033,-0.3671875,0.019287109375,0.92840576171875,5.420684814453125,-4.0374755859375,1.136474609375,1,1.0,1.0,1.0,1.0,100.00
2021-04-05 11:03:30.932,0.39498296,0.23172814,-0.055609,0.33695638,0.48833954,-0.050172683,-0.3255709,0.2970828,0.7639691,0.23361863,0.09418933,0.8789287,0.60793096,0.38295636,0.34435242,0.61964595,0.07002177,-0.06103475,-0.0047544753,0.07354551,768.7912,789.7436,782.8938,772.01465,830.84247,-0.37408447265625,0.02203369140625,0.9205322265625,4.97955322265625,-4.8150634765625,1.323394775390625,1,1.0,1.0,1.0,1.0,100.00
2021-04-05 11:03:31.453,0.33708003,0.25179064,0.3019209,0.40221304,0.24714902,-0.04491242,-0.08717632,0.33859456,0.67700356,0.014196872,0.14341667,0.860469,0.60134566,0.38985312,0.35810477,0.5699858,-5.476928E-4,-0.09997942,-0.11779958,0.02813215,795.78754,774.43225,779.2674,801.02563,815.12823,-0.37969970703125,0.029296875,0.92572021484375,5.854339599609375,-6.482391357421875,3.66363525390625,1,1.0,1.0,1.0,1.0,100.00
2021-04-05 11:03:31.980,0.51914793,0.57071656,0.4962028,0.6531971,0.2718309,0.12038849,0.08855024,0.5246154,0.6166558,0.03497452,0.06708128,0.84659207,0.5974261,0.4716154,0.3438917,0.57516193,-0.034735948,0.04563202,-0.15177442,-0.04463953,792.1612,790.9524,767.5824,794.17584,715.2015,-0.38775634765625,0.03497314453125,0.92681884765625,5.93658447265625,-4.94964599609375,-0.007476806640625,1,1.0,1.0,1.0,1.0,100.00
2021-04-05 11:03:32.482,0.11403954,0.7240719,0.7086591,0.30110082,0.16695885,0.16669963,0.23980801,-0.02285147,0.5643222,0.059252277,0.060962684,0.495367,0.68448997,0.5820273,0.39963898,0.5826713,0.18060434,0.19954364,-0.09552971,0.41892067,812.3077,796.5934,778.46155,819.5604,707.9487,-0.3834228515625,0.030517578125,0.9248046875,4.605712890625,-4.90478515625,-0.10467529296875,1,1.0,1.0,1.0,1.0,100.00
2021-04-05 11:03:33.006,0.4547967,0.7011656,1.0447335,0.3088284,0.36603224,0.18761836,0.7785821,0.3237257,0.62828463,0.019700838,0.4597041,0.5354402,0.69183993,0.5990955,0.37865865,0.5903142,0.05904046,0.21438837,-0.05301379,0.25305265,800.6227,794.57874,774.0293,781.685,720.0366,-0.391357421875,0.01776123046875,0.92474365234375,4.66552734375,-4.209442138671875,0.95703125,1,1.0,1.0,1.0,1.0,100.00
2021-04-05 11:03:33.512,0.6564364,0.6229331,0.8577175,0.29823112,0.46246266,0.115192525,0.6596327,0.4136053,0.7317144,-0.07203571,0.65678185,0.7082805,0.69684356,0.6402113,0.4858278,0.578317,0.13558306,0.22750598,0.09069489,0.24853067,806.26373,788.93774,780.87915,808.68134,713.1868,-0.39593505859375,0.0299072265625,0.91937255859375,4.882354736328125,-5.4730224609375,2.340240478515625,1,1.0,1.0,1.0,1.0,100.00
2021-04-05 11:03:34.019,0.73389745,0.6229331,0.8013627,0.3245005,0.57328117,0.115192525,0.5292494,0.60296136,0.7166857,-0.07203571,0.6635854,0.80431134,0.6193529,0.6402113,0.49149448,0.61647815,0.17971545,0.22750598,0.1384512,0.2785559,812.3077,792.96704,792.1612,813.91943,855.0183,-0.3946533203125,0.02276611328125,0.92236328125,4.897308349609375,-5.15899658203125,0.919647216796875,1,1.0,1.0,1.0,1.0,100.00
2021-04-05 11:03:34.545,0.82524705,0.6447089,0.4219306,0.38273332,0.49079835,0.086051814,0.14227444,0.49069816,0.6947673,0.07237615,0.5682731,0.8090261,0.5030625,0.263293,0.5016229,0.5996322,0.20140746,-0.016239585,0.1875899,0.33325845,790.9524,775.64105,780.87915,790.9524,790.54944,-0.39227294921875,0.019287109375,0.91973876953125,4.508514404296875,-3.529052734375,1.4654541015625,1,1.0,1.0,1.0,1.0,100.00
2021-04-05 11:03:35.073,0.6854411,0.5439379,0.45962366,0.4009845,0.3669189,0.113366716,-0.033900924,0.3849499,0.5305678,0.07237615,0.16248314,0.74549276,0.4376416,0.30430606,0.36117622,0.58638155,0.13432187,0.0071407114,0.122804984,0.33113387,806.6667,793.7729,803.0403,820.3663,747.4359,-0.395263671875,0.0208740234375,0.92181396484375,4.44122314453125,-5.4730224609375,0.95703125,1,1.0,1.0,1.0,1.0,100.00
2021-04-05 11:03:35.599,0.68267035,0.3448378,0.36102808,0.4678816,0.42808992,0.07561919,-0.0061061257,0.24933554,0.56547475,0.18420744,0.11063418,0.50617987,0.5540535,0.35155275,0.34914136,0.59185004,0.20145284,0.09455089,0.16041586,0.28718045,782.8938,773.6264,805.05493,800.6227,696.6667,-0.396484375,0.0147705078125,0.91973876953125,4.3963623046875,-4.50103759765625,0.3887939453125,1,1.0,1.0,1.0,1.0,100.00
2021-04-05 11:03:36.124,0.7533026,0.49067858,0.40909764,0.58991265,0.5857088,0.13944755,0.15912895,0.4621943,0.7247762,0.45960736,0.4521149,0.6596626,0.6278349,0.42092577,0.3280624,0.66683626,0.27473024,0.101964936,0.18791683,0.33729723,800.2198,799.81683,773.22345,791.3553,676.1172,-0.411376953125,-0.00982666015625,0.9173583984375,0.7476806640625,-1.39068603515625,-11.783447265625,1,1.0,1.0,1.0,1.0,100.00
2021-04-05 11:03:36.652,0.90071034,0.76054704,0.47437742,0.65523386,0.66176426,0.2382584,0.36098796,0.6305208,1.0172435,0.5505837,0.45473775,1.0383058,0.69037557,0.4362336,0.41564098,0.7228457,0.31113294,0.117272645,0.1865633,0.29335043,812.71063,809.0842,809.89014,834.87177,920.696,-0.41094970703125,-0.025390625,0.91827392578125,4.433746337890625,-2.01873779296875,2.27294921875,1,1.0,1.0,1.0,1.0,100.00
2021-04-05 11:03:37.162,0.85632503,0.92472994,0.66632605,0.7249121,0.65301377,0.48162904,0.46879306,0.812827,1.0455985,0.6097009,0.49532673,1.0637255,0.657996,0.40013206,0.42885453,0.72496873,0.33754814,0.16022462,0.20838135,0.3421172,801.4286,785.31134,785.7143,815.5311,719.6337,-0.42401123046875,-0.0196533203125,0.9066162109375,5.360870361328125,-3.910369873046875,1.951446533203125,1,1.0,1.0,1.0,1.0,100.00
2021-04-05 11:03:37.686,0.6462273,0.82683873,0.66357523,0.6817889,0.5880345,0.4588522,0.35763115,0.8072959,1.0425026,0.5487195,0.42992124,1.0645287,0.6308034,0.36095533,0.42803994,0.674972,0.3812002,0.2563834,0.2851811,0.4076631,814.3223,784.10254,782.49084,824.7985,761.13556,-0.4189453125,-0.0047607421875,0.90679931640625,4.448699951171875,-4.5758056640625,3.147735595703125,1,1.0,1.0,1.0,1.0,100.00
2021-04-05 11:03:38.198,0.49467456,0.45371428,0.6004632,0.5460374,0.4902003,0.27280897,0.05035995,0.67286354,0.8094581,0.48043925,0.3366888,0.9179105,0.5836028,0.35355723,0.4082519,0.5932962,0.4432511,0.30124283,0.34928298,0.49581346,795.38464,794.17584,794.17584,795.78754,769.59705,-0.40692138671875,-0.0052490234375,0.918212890625,5.5926513671875,-7.200164794921875,2.250518798828125,1,1.0,1.0,1.0,1.0,100.00
2021-04-05 11:03:38.707,0.6138049,-0.14925517,0.32510164,0.5371722,0.3441994,-0.17485958,-0.32754228,0.40973744,0.73540527,0.21407497,0.27703446,0.7940648,0.56721145,0.37348858,0.43386042,0.55794674,0.36010572,0.20267057,0.24359009,0.41698655,779.67035,763.95605,767.98535,784.10254,732.1245,-0.41455078125,0.01763916015625,0.91650390625,5.51788330078125,-4.463653564453125,0.64300537109375,1,1.0,1.0,1.0,1.0,100.00
2021-04-05 11:03:39.208,0.7143138,0.08369282,0.37225226,0.5696812,0.27700663,-0.11391529,-0.2222714,0.37433937,0.77697575,0.1969613,0.30145863,0.74635625,0.5260126,0.34745628,0.43659675,0.5557013,0.3349011,0.14497848,0.15696347,0.36994678,803.8461,783.2967,775.64105,809.4872,770.40295,-0.40814208984375,0.003662109375,0.91473388671875,5.316009521484375,-4.85992431640625,0.59814453125,1,1.0,1.0,1.0,1.0,100.00
2021-04-05 11:03:39.715,0.6961209,0.12262729,0.2704481,0.5696922,0.26668635,-0.12580724,-0.20510292,0.15517654,0.70700496,0.1498166,0.3253106,0.6715093,0.46405628,0.32550517,0.43395635,0.52736986,0.25143018,0.0555238,0.045517437,0.2519943,804.2491,785.7143,791.3553,808.2784,776.04395,-0.402587890625,0.0128173828125,0.91864013671875,5.78704833984375,-6.527252197265625,1.00189208984375,1,1.0,1.0,1.0,1.0,100.00
2021-04-05 11:03:40.235,0.6137355,0.1352235,0.28455827,0.47874686,0.34011063,-0.13091558,-0.18928593,0.069641784,0.72950345,0.089855835,0.3269041,0.47668597,0.52709776,0.33354813,0.45958742,0.52498776,0.24036032,0.051147744,0.054965537,0.26876077,786.1172,774.0293,776.04395,782.8938,764.35895,-0.4027099609375,0.013916015625,0.92010498046875,6.3104248046875,-5.57769775390625,1.854248046875,1,1.0,1.0,1.0,1.0,100.00
2021-04-05 11:03:40.746,0.6338381,0.20976174,0.2296978,-0.2517433,0.4197216,-0.1311984,-0.24718566,-0.023195239,0.5989403,0.03498236,-0.018619549,0.013247043,0.56987655,0.36746556,0.420408,0.52378863,0.25452295,0.03401669,0.052230213,0.27710792,809.89014,784.10254,797.8022,815.12823,763.5531,-0.39697265625,0.0166015625,0.927490234375,5.09918212890625,-5.54779052734375,2.691650390625,1,1.0,1.0,1.0,1.0,100.00
2021-04-05 11:03:41.275,0.64865464,0.22301221,0.25324515,0.41567844,0.4608046,-0.09452862,-0.2327434,0.39635438,0.52710307,0.061565965,0.18478164,0.5963111,0.6407912,0.4018657,0.4263715,0.59504354,0.28123122,0.09551141,0.15013582,0.3286585,797.3993,780.07324,784.5055,806.6667,744.21246,-0.3946533203125,0.0130615234375,0.91815185546875,4.88983154296875,-3.4991455078125,2.52716064453125,1,1.0,1.0,1.0,1.0,100.00
2021-04-05 11:03:41.799,0.6199462,0.24476409,0.18572897,0.54351366,0.47938505,-0.020437427,-0.16355664,0.380658,0.5406835,0.09445285,0.27171034,0.62340105,0.54323983,0.4053417,0.3446789,0.5594527,0.38451797,0.21860883,0.28513423,0.34504384,807.0696,790.14655,790.9524,809.4872,711.5751,-0.39373779296875,0.0186767578125,0.920166015625,5.66741943359375,-4.658050537109375,0.777587890625,1,1.0,1.0,1.0,1.0,100.00
2021-04-05 11:03:42.328,0.36473593,0.04452899,-0.050876778,0.5485772,0.41308916,-0.05463032,-0.14568461,0.28702095,0.5370019,0.086016424,0.29394227,0.6601449,0.4367683,0.39348343,0.39555964,0.51438695,0.41508806,0.31224978,0.32486248,0.38833487,811.9048,791.75824,801.4286,815.12823,905.38464,-0.39007568359375,0.0142822265625,0.91888427734375,4.119720458984375,-4.358978271484375,0.64300537109375,1,1.0,1.0,1.0,1.0,100.00
2021-04-05 11:03:42.852,0.44610983,-0.103092454,-0.2637956,0.47585866,0.37401903,-0.12531333,-0.21245235,0.045478348,0.49778372,0.07242309,0.2991283,0.6182693,0.40096298,0.41187808,0.4054548,0.49745014,0.38618985,0.26670253,0.26650736,0.3449784,768.7912,767.1795,786.1172,783.69965,770.0,-0.3846435546875,0.017333984375,0.926025390625,4.5159912109375,-5.203857421875,1.308441162109375,1,1.0,1.0,1.0,1.0,100.00
2021-04-05 11:03:43.378,0.7899841,0.040549155,0.015112077,0.6219944,0.27258646,-0.13205126,-0.2474868,0.20786192,0.49686652,0.09615642,0.16009694,0.65862644,0.40549818,0.34806028,0.38673118,0.5120311,0.27935803,0.23950154,0.1777858,0.38148427,796.99634,780.87915,791.3553,792.96704,771.6117,-0.37890625,0.01739501953125,0.92279052734375,5.084228515625,-4.194488525390625,1.278533935546875,1,1.0,1.0,1.0,1.0,100.00
2021-04-05 11:03:43.893,0.97397405,0.5504049,0.33807835,0.6807212,0.17160523,-0.057855036,0.023941675,0.22197096,0.60376126,0.41556254,0.2832329,0.7365027,0.5335708,0.33053067,0.29292625,0.5711237,0.13111942,0.18008079,0.101430655,0.36993873,789.34064,774.0293,778.86444,781.28204,757.50916,-0.3824462890625,0.01641845703125,0.92681884765625,4.717864990234375,-4.91973876953125,0.785064697265625,1,1.0,1.0,1.0,1.0,100.00
2021-04-05 11:03:44.418,1.0103055,0.7121681,0.37663278,0.72967017,0.20967066,0.054885235,0.14631891,0.22412696,0.6201778,0.41556254,0.39342272,0.75123954,0.59199005,0.28004912,0.3283992,0.5905471,0.17322266,0.27331725,0.17144343,0.43690544,776.8498,749.85345,767.98535,767.5824,686.1905,-0.39361572265625,0.01666259765625,0.9219970703125,5.181427001953125,-4.08233642578125,0.979461669921875,1,1.0,1.0,1.0,1.0,100.00
2021-04-05 11:03:44.920,0.96187073,0.9373083,0.5456238,0.64384866,0.27350485,0.021234062,0.28042892,0.3522704,0.61446047,0.3693156,0.44726536,0.7876973,0.6592598,0.35075015,0.35988802,0.63504016,0.21933308,0.22474276,0.13616839,0.34958616,804.65204,796.1905,790.14655,816.7399,1012.96704,-0.4078369140625,0.02691650390625,0.90362548828125,5.330963134765625,-5.136566162109375,1.966400146484375,1,1.0,1.0,1.0,1.0,100.00
2021-04-05 11:03:45.434,0.9677133,0.9373083,0.6715409,0.9061326,0.4634697,0.021234062,0.52169275,0.46283352,0.5269116,0.3693156,0.4465165,0.74156857,0.718128,0.35075015,0.4154542,0.6112536,0.2692446,0.22474276,0.1593411,0.31558937,778.46155,760.32965,785.31134,796.5934,721.6484,-0.4127197265625,0.0269775390625,0.91046142578125,4.762725830078125,-4.44122314453125,0.8074951171875,1,1.0,1.0,1.0,1.0,100.00
2021-04-05 11:03:45.943,1.003554,0.9373083,0.78604704,0.99728996,0.5117197,0.021234062,0.6298281,0.56982553,0.518972,0.3693156,0.3537028,0.5698764,0.7324739,0.35075015,0.38934276,0.6032351,0.35499674,0.22474276,0.13260925,0.2438769,803.0403,793.7729,799.011,808.2784,766.3736,-0.4149169921875,0.02203369140625,0.9134521484375,4.53094482421875,-3.46923828125,0.657958984375,1,1.0,1.0,1.0,1.0,100.00
2021-04-05 11:03:46.446,1.1987073,0.4452156,0.85305154,1.1845151,0.62624085,0.49488017,0.75464225,0.47666094,0.5064493,0.5018768,0.26057082,0.3425675,0.74546045,0.3668184,0.46035928,0.560866,0.24650396,-0.18199119,0.13412909,0.31997722,796.1905,791.75824,801.8315,812.3077,1038.3517,-0.4083251953125,0.0125732421875,0.910400390625,4.314117431640625,-5.45806884765625,-0.11962890625,1,1.0,1.0,1.0,1.0,100.00
2021-04-05 11:03:46.961,1.4332243,0.4909481,0.6524757,1.2339967,0.5799815,0.38827908,0.4117738,0.4890337,0.6881204,0.5018768,0.033601154,0.27319732,0.53060204,0.30154535,0.35101932,0.5319868,-0.016268916,-0.1642284,-0.033422593,0.35532352,796.1905,784.5055,786.52014,795.78754,730.9158,-0.41046142578125,0.0167236328125,0.90911865234375,4.942169189453125,-4.53094482421875,1.54022216796875,1,1.0,1.0,1.0,1.0,100.00
2021-04-05 11:03:47.493,1.362324,0.5248985,0.6159671,1.2339967,0.4962829,0.16074085,0.33852917,0.4890337,0.7013484,0.25013864,0.033601154,0.27319732,0.51174366,0.3041117,0.3309457,0.5319868,-0.05315391,-0.2563108,0.0054329964,0.35532352,799.41394,784.10254,862.27106,804.2491,736.9597,-0.41192626953125,0.024658203125,0.90863037109375,4.80010986328125,-5.75714111328125,1.0467529296875,1,1.0,1.0,1.0,1.0,100.00
2021-04-05 11:03:48.000,1.259597,0.789368,0.5355468,0.9481734,0.33776188,0.07038169,0.27779236,0.29214096,0.6643022,0.1059786,-0.028968513,0.44392887,0.5040245,0.34043494,0.3120792,0.64630044,-0.13310722,-0.23531398,0.011820202,0.1301908,796.1905,779.2674,889.2674,798.60803,813.1135,-0.40032958984375,0.02215576171875,0.91497802734375,5.323486328125,-5.14404296875,0.8673095703125,1,1.0,1.0,1.0,1.0,100.00
2021-04-05 11:03:48.526,1.0727189,0.9343888,0.37313557,0.90799147,0.25526646,0.10287651,0.0311023,0.49148494,0.46371573,-0.060920365,-0.3019151,0.5612045,0.49632388,0.4810152,0.26274893,0.57002157,-0.06926932,-0.37332717,0.07213961,0.17195009,798.60803,770.0,784.90845,796.1905,728.0952,-0.39447021484375,0.0281982421875,0.9161376953125,7.095489501953125,-8.889923095703125,1.801910400390625,1,1.0,1.0,1.0,1.0,100.00
2021-04-05 11:03:49.053,1.072357,0.6671657,0.37313557,0.9239318,0.36818773,0.04584404,0.0311023,0.5625833,0.5197405,0.123192,-0.3019151,0.58107346,0.45560473,0.3256749,0.26274893,0.5494447,0.11118121,-9.4684155E-4,0.07213961,0.22499256,809.89014,784.10254,798.20514,827.2161,842.1245,-0.44927978515625,-0.00347900390625,0.922119140625,9.517974853515625,-20.882720947265625,-3.386993408203125,1,1.0,1.0,1.0,1.0,100.00
2021-04-05 11:03:49.577,1.0361977,0.27287206,0.37313557,0.88874453,0.4336741,0.028925762,0.0311023,0.69118834,0.5816342,0.07352151,-0.3019151,0.5566531,0.36313486,0.18672761,0.26274893,0.43187258,0.2356263,0.19285072,0.07213961,0.28214598,562.49084,525.0183,534.68866,562.0879,790.9524,-0.19464111328125,0.05621337890625,0.9471435546875,-7.88055419921875,3.4991455078125,11.088104248046875,1,1.0,1.0,1.0,1.0,100.00
2021-04-05 11:03:49.581,,,,,,,,,,,,,,,,,,,,,,,,,,,,,,,,,,,,,,/muse/elements/blink
2021-04-05 11:03:49.647,,,,,,,,,,,,,,,,,,,,,,,,,,,,,,,,,,,,,,/muse/elements/jaw_clench
2021-04-05 11:03:49.920,,,,,,,,,,,,,,,,,,,,,,,,,,,,,,,,,,,,,,/muse/elements/blink
2021-04-05 11:03:50.084,0.955535,0.28348643,0.37313557,0.8667752,0.38943246,0.019362353,0.0311023,0.76375794,0.4790209,0.013467932,-0.3019151,0.49571928,0.2957836,0.18174264,0.26274893,0.36040545,0.35470456,0.20295455,0.07213961,0.3743534,832.8571,802.6374,814.7253,834.87177,800.2198,-0.376953125,0.03033447265625,0.92169189453125,-3.835601806640625,3.21502685546875,-5.794525146484375,1,1.0,1.0,1.0,1.0,100.00
2021-04-05 11:03:50.591,0.955535,0.25007665,0.37313557,0.8667752,0.38943246,0.072631694,0.0311023,0.76375794,0.4790209,-0.20821182,-0.3019151,0.49571928,0.2957836,0.18659417,0.26274893,0.36040545,0.35470456,0.23844638,0.07213961,0.3743534,820.7692,805.8608,831.6484,812.3077,916.6667,-0.39697265625,0.02777099609375,0.91253662109375,1.772003173828125,-9.398345947265625,5.016937255859375,1,1.0,1.0,1.0,1.0,100.00
2021-04-05 11:03:51.108,0.955535,0.25007665,0.37313557,0.8667752,0.38943246,0.072631694,0.0311023,0.76375794,0.4790209,-0.20821182,-0.3019151,0.49571928,0.2957836,0.18659417,0.26274893,0.36040545,0.35470456,0.23844638,0.07213961,0.3743534,795.38464,787.326,798.60803,797.3993,839.304,-0.3983154296875,0.02789306640625,0.9227294921875,3.192596435546875,-4.23187255859375,-0.396270751953125,1,1.0,1.0,1.0,1.0,100.00
2021-04-05 11:03:51.635,0.955535,0.25007665,0.77674264,0.8667752,0.38943246,0.072631694,0.21566725,0.76375794,0.4790209,-0.20821182,0.44702792,0.49571928,0.2957836,0.18659417,0.52174705,0.36040545,0.35470456,0.23844638,0.048857037,0.3743534,827.2161,802.23444,804.2491,818.7546,778.86444,-0.40594482421875,-0.0133056640625,0.9073486328125,3.84307861328125,-3.970184326171875,-2.10845947265625,1,1.0,1.0,1.0,1.0,100.00
2021-04-05 11:03:52.140,0.9614603,0.25007665,0.7532438,0.5780418,0.35513058,0.072631694,0.22116835,0.026952432,0.5825712,-0.20821182,0.45800266,0.50368047,0.47905445,0.18659417,0.5389843,0.7094295,0.042770993,0.23844638,0.06404601,0.21981077,834.87177,825.6044,819.15753,830.4396,1058.4982,-0.4075927734375,0.0081787109375,0.91583251953125,4.523468017578125,-3.2598876953125,2.6019287109375,1,1.0,1.0,1.0,1.0,100.00
2021-04-05 11:03:52.645,0.92382497,0.25007665,0.5969769,0.7263112,0.36437985,0.072631694,0.11056731,0.16929457,0.6057197,-0.20821182,0.46620423,0.5615824,0.63657796,0.18659417,0.52613467,0.69796365,0.043276772,0.23844638,0.034048755,0.2055653,780.07324,782.8938,777.6557,786.52014,767.1795,-0.41326904296875,-8.544921875E-4,0.91424560546875,4.366455078125,-5.14404296875,0.16448974609375,1,1.0,1.0,1.0,1.0,100.00
2021-04-05 11:03:53.150,1.0816873,0.25007665,0.44244412,0.8756948,0.2742619,0.072631694,-0.021957982,0.18392017,0.5979858,-0.20821182,0.23609523,0.49459404,0.60726905,0.18659417,0.49892277,0.6833696,0.022366304,0.23844638,0.021994617,0.215113,791.3553,833.663,781.685,790.54944,764.7619,-0.37969970703125,-3.662109375E-4,0.9281005859375,6.616973876953125,-12.620849609375,0.186920166015625,1,1.0,1.0,1.0,1.0,100.00
2021-04-05 11:03:53.651,1.1028892,0.44669572,0.60905397,0.98716646,0.41053724,0.11696541,0.16471612,0.55454767,0.6577551,0.16539034,0.2966671,0.7574268,0.64740205,0.4343782,0.47939602,0.59834516,0.22930823,0.5386302,0.21847057,0.4876132,809.0842,779.67035,781.685,797.3993,784.90845,-0.33050537109375,0.0267333984375,0.95050048828125,5.4132080078125,3.760833740234375,3.865509033203125,1,1.0,1.0,1.0,1.0,100.00
2021-04-05 11:03:54.166,1.1789117,0.48603198,0.6837739,1.002652,0.45622402,0.04461342,0.27129757,0.6897945,0.8953703,0.37982866,0.3749788,0.8546441,0.62101656,0.43768808,0.43261108,0.5440114,0.4208394,0.47111937,0.28192556,0.612164,783.2967,786.9231,791.3553,776.8498,755.89746,-0.3798828125,0.017333984375,0.91717529296875,3.790740966796875,0.16448974609375,0.58319091796875,1,1.0,1.0,1.0,1.0,100.00
2021-04-05 11:03:54.693,1.1135373,0.5271603,0.72493494,1.011833,0.61166507,0.045866776,0.37461993,0.6957305,0.9966718,0.41929522,0.3964159,0.90235656,0.7437111,0.4318651,0.391268,0.68202555,0.65772307,0.46219403,0.3287721,0.66881174,836.8865,805.4579,796.5934,833.663,759.92676,-0.3927001953125,7.32421875E-4,0.924072265625,3.641204833984375,-5.659942626953125,0.979461669921875,1,1.0,1.0,1.0,1.0,100.00
2021-04-05 11:03:55.222,1.1536779,0.5436927,0.5895458,1.1798769,0.49272326,-0.059016712,0.37004367,0.64005584,0.99439,0.42027062,0.37303165,0.8991564,0.758118,0.46404293,0.3200723,0.737625,0.5529629,0.24485683,0.14543968,0.5553582,809.89014,794.17584,791.3553,806.6667,803.44324,-0.3712158203125,0.003173828125,0.935302734375,4.68048095703125,-6.0711669921875,0.291595458984375,1,1.0,1.0,1.0,1.0,100.00
2021-04-05 11:03:55.745,1.0763636,0.36534765,0.5096452,1.1503001,0.44057485,-0.033355188,0.32681167,0.50014806,0.9589975,0.25912943,0.3768706,0.87047964,0.7125383,0.4629118,0.3369639,0.74009085,0.4516124,-0.0050956504,0.07503319,0.43791878,801.8315,792.96704,793.7729,813.5165,716.4103,-0.36981201171875,-0.0045166015625,0.930419921875,3.596343994140625,-4.658050537109375,0.022430419921875,1,1.0,1.0,1.0,1.0,100.00
2021-04-05 11:03:56.248,1.102142,0.41663355,0.34075484,1.1113735,0.4673323,0.025091542,0.21593288,0.40764034,0.88053715,0.19588642,0.34073693,0.73336905,0.6114888,0.3829144,0.35663027,0.62533015,0.15601668,-0.013146197,-0.03414177,0.23494035,818.7546,798.60803,795.78754,821.5751,838.9011,-0.35845947265625,-8.544921875E-4,0.9342041015625,5.181427001953125,-5.390777587890625,0.800018310546875,1,1.0,1.0,1.0,1.0,100.00
2021-04-05 11:03:56.759,0.9838961,0.34671125,0.09371212,0.90205187,0.5202552,-0.015024356,0.008431274,0.3896367,0.9284652,0.17504413,0.27323362,0.81621265,0.5835161,0.3914556,0.36953202,0.5869489,0.1321825,0.034570415,0.0024540834,0.2517472,792.96704,771.2088,781.685,800.2198,783.2967,-0.3626708984375,-0.00274658203125,0.93231201171875,4.987030029296875,-5.1739501953125,1.801910400390625,1,1.0,1.0,1.0,1.0,100.00
2021-04-05 11:03:57.261,0.9280294,0.32973784,-0.09563965,0.8036473,0.5132089,-0.04778487,-0.14541365,0.39585567,0.9239639,0.16549204,0.10908449,0.8170496,0.5843613,0.40287238,0.3717786,0.530393,0.17817043,0.06396749,0.03774931,0.25577822,828.8278,800.2198,799.41394,817.5458,733.3333,-0.36962890625,0.00201416015625,0.9334716796875,5.06927490234375,-4.85992431640625,0.934600830078125,1,1.0,1.0,1.0,1.0,100.00
2021-04-05 11:03:57.768,0.6736126,0.101098284,-0.034886632,0.46077746,0.31727886,-0.22821635,-0.30672893,0.31312245,0.9237426,0.33421844,0.20726596,0.8027789,0.59723794,0.4422475,0.39310455,0.495426,0.20087834,0.07857191,0.07731584,0.2481665,812.3077,776.4469,772.8205,814.7253,773.6264,-0.38641357421875,0.00616455078125,0.92498779296875,4.089813232421875,-1.472930908203125,2.026214599609375,1,1.0,1.0,1.0,1.0,100.00
2021-04-05 11:03:58.272,0.81290144,0.3391046,0.2311393,0.26259026,0.16518629,-0.25233874,-0.35973114,0.23433854,0.8366315,0.36233398,0.1918614,0.68001527,0.54189235,0.3598715,0.38938683,0.43063265,0.15637861,0.04166113,0.09172389,0.20246902,796.99634,790.54944,782.49084,799.81683,745.0183,-0.38629150390625,0.01275634765625,0.92303466796875,5.375823974609375,-5.570220947265625,2.1234130859375,1,1.0,1.0,1.0,1.0,100.00
2021-04-05 11:03:58.779,0.8729247,0.45980227,0.45793086,0.46031064,0.14361897,-0.40708157,-0.37678972,0.37834036,0.5166674,0.3299501,0.1834447,0.6627832,0.5229928,0.25163305,0.3103149,0.48408064,0.093776114,-0.019562034,0.019321803,0.20522808,794.57874,800.6227,795.78754,800.6227,790.9524,-0.39129638671875,0.01727294921875,0.92779541015625,5.30853271484375,-2.691650390625,0.500946044921875,1,1.0,1.0,1.0,1.0,100.00
2021-04-05 11:03:59.283,0.88718176,0.43197486,0.48466536,0.46031064,0.40309703,-0.16488443,-0.2906096,0.37834036,0.48231694,0.27717403,0.21432732,0.6627832,0.5614477,0.2148048,0.30721366,0.48408064,0.026713332,-0.10810986,-0.00404108,0.20522808,805.4579,793.36993,799.011,817.5458,927.9487,-0.40045166015625,0.0125732421875,0.91741943359375,4.68048095703125,-2.878570556640625,0.538330078125,1,1.0,1.0,1.0,1.0,100.00
2021-04-05 11:03:59.793,0.7359933,0.4874301,0.60804003,0.46031064,0.4299898,0.06529473,0.002170891,0.37834036,0.44645402,0.07930111,0.2807187,0.6627832,0.58610713,0.33239225,0.318944,0.48408064,0.041898195,-0.20682295,-0.07526561,0.20522808,804.65204,782.49084,781.685,802.23444,745.42126,-0.4129638671875,0.0076904296875,0.91448974609375,4.792633056640625,-3.476715087890625,0.740203857421875,1,1.0,1.0,1.0,1.0,100.00
2021-04-05 11:04:00.297,0.80880916,0.5490374,0.6093274,0.46031064,0.6322319,0.13120732,0.122167766,0.37834036,0.413066,0.048907083,0.2977946,0.6627832,0.67578197,0.37974694,0.34849328,0.48408064,-0.004953246,-0.18514445,-0.092558846,0.20522808,821.1722,799.41394,788.1319,814.7253,803.44324,-0.42724609375,0.01593017578125,0.907470703125,4.20196533203125,-4.8748779296875,1.0467529296875,1,1.0,1.0,1.0,1.0,100.00
2021-04-05 11:04:00.805,0.5492666,0.63274294,0.5934357,0.5939476,0.4860541,0.042070996,0.1608675,0.55726963,0.5497895,0.17917714,0.38576636,0.556464,0.5483171,0.43626043,0.4122977,0.4840463,0.104373455,-0.09826825,-0.11621291,0.17561765,811.50183,790.54944,796.5934,801.8315,830.84247,-0.41632080078125,0.00531005859375,0.9095458984375,5.121612548828125,-4.897308349609375,0.366363525390625,1,1.0,1.0,1.0,1.0,100.00
2021-04-05 11:04:01.318,0.5887939,0.5802618,0.52081585,0.49280906,0.45514777,-0.12662312,0.20724732,0.47692356,0.6149647,0.17565513,0.38219824,0.60216254,0.5253734,0.35540596,0.39152384,0.61954933,0.11123197,-0.016533058,-0.071981445,0.10979508,809.0842,802.23444,806.26373,807.0696,774.83514,-0.4283447265625,0.01171875,0.90338134765625,4.50103759765625,-5.211334228515625,0.9271240234375,1,1.0,1.0,1.0,1.0,100.00
2021-04-05 11:04:01.831,0.5711051,0.60076046,0.38798064,0.39827678,0.40740886,-0.14851989,0.1323417,0.38791522,0.6959442,0.28003904,0.40157136,0.595925,0.5342625,0.3259453,0.4216236,0.64582306,0.1839305,0.03556264,-0.041250516,0.09223632,813.5165,797.3993,802.23444,799.41394,853.00366,-0.4244384765625,0.0023193359375,0.90380859375,4.463653564453125,-4.089813232421875,1.637420654296875,1,1.0,1.0,1.0,1.0,100.00
2021-04-05 11:04:02.344,0.46823424,0.6785061,0.45929402,0.31848454,0.34210157,-0.11642416,0.15498662,0.38926798,0.62510026,0.20152701,0.3993188,0.5234969,0.5258654,0.27077892,0.37337196,0.6583117,0.20609863,0.049717043,-0.010964964,0.10566976,796.1905,790.9524,780.07324,791.75824,769.59705,-0.41290283203125,0.00787353515625,0.90728759765625,4.94964599609375,-4.127197265625,0.85235595703125,1,1.0,1.0,1.0,1.0,100.00
2021-04-05 11:04:02.851,0.45739055,0.6974272,0.33957824,0.4177499,0.50318813,-0.0643214,-0.032782074,0.52674925,0.9100288,0.35090885,0.30603024,0.87445116,0.45533228,0.2428565,0.42004633,0.5673739,0.227413,0.056709226,0.040260043,0.19338736,807.0696,803.0403,790.14655,799.81683,707.1429,-0.42315673828125,0.0013427734375,0.90667724609375,5.151519775390625,-6.50482177734375,1.12152099609375,1,1.0,1.0,1.0,1.0,100.00
2021-04-05 11:04:03.353,0.54182386,0.79113007,0.43900982,0.46436694,0.5391787,0.10498775,0.14005521,0.5775883,0.8923222,0.52330494,0.33515644,0.8736075,0.43723133,0.23250447,0.4272427,0.5255142,0.24236314,0.012937232,-0.022503732,0.21488807,787.326,770.80585,816.337,797.8022,826.4103,-0.41766357421875,0.0074462890625,0.9085693359375,5.375823974609375,-6.033782958984375,0.665435791015625,1,1.0,1.0,1.0,1.0,100.00
2021-04-05 11:04:03.857,0.6582674,0.7958122,0.57177216,0.7844375,0.5944689,0.44317877,0.20079528,0.6572374,0.8518848,0.5917595,0.29666722,0.8894476,0.4186449,0.33251637,0.4656899,0.59544986,0.26175228,0.16707861,0.06364569,0.26955748,807.8755,807.47253,780.87915,803.0403,682.96704,-0.42816162109375,0.00909423828125,0.9078369140625,5.405731201171875,-3.805694580078125,1.831817626953125,1,1.0,1.0,1.0,1.0,100.00
2021-04-05 11:04:04.361,0.6872749,0.9237872,0.622898,0.94680923,0.34898347,0.56358814,0.31011632,0.7485883,0.6992082,0.5566321,0.29666722,0.85580486,0.50422996,0.34343454,0.40060562,0.5885146,0.27022883,0.18890785,0.019173672,0.24315612,828.8278,805.8608,807.0696,822.381,813.5165,-0.42822265625,0.00787353515625,0.91064453125,4.897308349609375,-4.852447509765625,1.31591796875,1,1.0,1.0,1.0,1.0,100.00
2021-04-05 11:04:04.889,0.8195412,0.9408809,0.74698335,1.0588616,0.29412845,0.5229654,0.3828447,0.81810045,0.56627446,0.5566321,0.30934376,0.7870747,0.4700286,0.28074104,0.36753628,0.59243155,0.15124615,0.14176227,0.07132069,0.2172337,840.5128,803.44324,810.293,817.9487,819.9634,-0.4169921875,0.00274658203125,0.9088134765625,4.47113037109375,-4.254302978515625,1.45050048828125,1,1.0,1.0,1.0,1.0,100.00
2021-04-05 11:04:05.409,0.7470458,0.7618905,0.6249996,0.9054478,0.5588628,0.25725505,0.32779765,0.7860999,0.60302895,0.35499096,0.23670799,0.72774273,0.42941007,0.2122864,0.32800624,0.51209253,0.11997009,-0.07196186,0.06609697,0.0843816,801.8315,779.2674,780.07324,799.011,730.5128,-0.421142578125,0.00701904296875,0.90618896484375,4.598236083984375,-4.448699951171875,1.323394775390625,1,1.0,1.0,1.0,1.0,100.00
2021-04-05 11:04:05.919,0.8568497,0.62802655,0.58241016,0.79592955,0.5920088,0.1239625,0.25783637,0.6485535,0.5377899,0.33729956,0.29176733,0.62324756,0.43024454,0.233359,0.42184386,0.61933076,0.084444985,-0.077241175,0.10319875,0.023051338,840.9158,818.7546,814.7253,844.94507,1031.0989,-0.42327880859375,0.0062255859375,0.90972900390625,4.792633056640625,-4.0673828125,0.575714111328125,1,1.0,1.0,1.0,1.0,100.00
2021-04-05 11:04:06.428,0.8647424,0.29443198,0.30351722,0.61572903,0.5994195,0.12639353,0.012437052,0.5672396,0.6585638,0.2665415,0.180795,0.6770322,0.49891487,0.26335672,0.40719315,0.6536071,0.111733414,-0.06768687,0.1289078,0.059066467,792.96704,786.9231,790.14655,797.8022,775.2381,-0.42437744140625,1.220703125E-4,0.8988037109375,5.301055908203125,-5.944061279296875,-0.49346923828125,1,1.0,1.0,1.0,1.0,100.00
2021-04-05 11:04:06.941,0.9573521,0.35335404,0.26979744,0.63704085,0.52371156,0.15853067,-0.103304155,0.5833658,0.6564521,0.15528505,0.19719587,0.88329333,0.5245842,0.2689121,0.40487668,0.68523216,0.08722233,-0.06060947,0.06808279,0.060713116,804.65204,783.2967,767.1795,799.81683,678.93774,-0.422607421875,0.00885009765625,0.9097900390625,4.269256591796875,-4.8150634765625,3.9178466796875,1,1.0,1.0,1.0,1.0,100.00
2021-04-05 11:04:07.448,1.0881826,0.46180007,0.44695812,0.8190141,0.672779,0.23380609,0.007066142,0.66761976,0.8301532,0.24163656,0.29050487,0.8737137,0.59131885,0.28653812,0.37571624,0.6608434,0.067520194,-0.124800675,-0.025130568,-0.012464776,809.4872,782.49084,794.9817,814.3223,810.696,-0.42584228515625,0.00543212890625,0.91485595703125,4.56085205078125,-4.4561767578125,1.39068603515625,1,1.0,1.0,1.0,1.0,100.00
2021-04-05 11:04:07.965,1.0198346,0.48454124,0.543552,0.84396034,0.7289935,0.2032915,-0.036977455,0.59989274,0.8213417,0.23439144,0.27060303,0.81236255,0.53753203,0.36429137,0.40298524,0.6209937,-0.23328763,-0.21230176,-0.14166196,-0.10559197,807.0696,788.5348,793.36993,804.2491,738.5714,-0.42266845703125,-0.00579833984375,0.9097900390625,4.568328857421875,-4.717864990234375,0.844879150390625,1,1.0,1.0,1.0,1.0,100.00
2021-04-05 11:04:08.470,1.0259503,0.5470467,0.68066114,0.9335783,0.71319693,0.19778042,0.01381814,0.51693,0.8213417,0.23660108,0.3178122,0.6900876,0.52414674,0.4334064,0.40388823,0.5414185,-0.13636298,-0.23903398,-0.12434521,-0.13982318,804.65204,787.72894,792.5641,812.3077,719.2308,-0.40765380859375,0.0059814453125,0.9107666015625,4.38140869140625,-5.435638427734375,0.874786376953125,1,1.0,1.0,1.0,1.0,100.00
2021-04-05 11:04:08.990,0.7682131,0.40665665,0.5367683,0.72567165,0.5487491,0.025237119,-0.19693674,0.44747776,0.7224553,0.09668573,0.2593558,0.7680559,0.4870635,0.4737153,0.36015126,0.48318523,-0.01343057,-0.14529993,-0.10858141,-0.03850481,817.5458,807.47253,808.68134,800.6227,759.92676,-0.43585205078125,-0.02764892578125,0.9173583984375,-3.48419189453125,3.745880126953125,-21.720123291015625,1,1.0,1.0,1.0,1.0,100.00
2021-04-05 11:04:09.502,0.7804431,0.35186842,0.44216195,0.66687447,0.5615936,-0.007303301,-0.06955089,0.61121917,0.7193374,0.16485982,0.20707114,0.78076464,0.4709505,0.4079778,0.3078082,0.43497556,0.08795463,-0.047755256,-0.068878576,0.03919225,842.1245,727.6923,996.04395,780.87915,761.9414,-0.45635986328125,-0.57098388671875,0.6826171875,-20.755615234375,-1.039276123046875,-4.97955322265625,1,1.0,1.0,1.0,1.0,100.00
2021-04-05 11:04:10.023,0.6733707,0.24148872,0.1509031,0.47429472,0.58927625,-0.07121391,-0.029143525,0.66427606,0.6933872,0.060572922,0.082158394,0.73759043,0.46204036,0.3302532,0.25955272,0.42887905,0.075752534,-0.007509853,-0.050837744,0.02117061,808.2784,757.50916,819.5604,828.022,875.56775,-0.5076904296875,-0.3017578125,0.793701171875,32.277374267578125,-13.959197998046875,32.501678466796875,1,1.0,1.0,1.0,1.0,100.00
2021-04-05 11:04:10.525,0.7390007,0.22213197,0.2138656,0.44512507,0.59015375,0.112027444,0.07806247,0.67364746,0.67842984,0.03841645,-0.05618523,0.73759043,0.47242665,0.18425864,0.069735564,0.39594314,-0.0052354587,-0.009510426,-0.03482466,-0.018071098,790.14655,797.8022,779.67035,796.1905,826.4103,-0.42266845703125,-0.0699462890625,0.91253662109375,9.891815185546875,-16.650848388671875,5.30853271484375,1,1.0,1.0,1.0,1.0,100.00
2021-04-05 11:04:11.027,0.7390007,0.24631085,0.2138656,0.44512507,0.59015375,0.16935925,0.07806247,0.67364746,0.67842984,0.03841645,-0.05618523,0.73759043,0.47242665,0.17860082,0.069735564,0.39594314,-0.0052354587,0.01172661,-0.03482466,-0.018071098,783.2967,788.1319,772.4176,786.1172,721.6484,-0.39508056640625,0.00225830078125,0.91412353515625,10.818939208984375,-17.891998291015625,1.4056396484375,1,1.0,1.0,1.0,1.0,100.00
2021-04-05 11:04:11.544,1.0529492,0.24631085,0.2138656,0.44512507,0.79636645,0.16935925,0.07806247,0.67364746,0.7700774,0.03841645,-0.05618523,0.73759043,0.5594074,0.17860082,0.069735564,0.39594314,0.48241252,0.01172661,-0.03482466,-0.018071098,838.9011,819.5604,798.60803,825.6044,877.5824,-0.40966796875,0.01605224609375,0.91497802734375,3.656158447265625,-2.998199462890625,2.7813720703125,1,1.0,1.0,1.0,1.0,100.00
2021-04-05 11:04:12.063,1.0529492,0.24631085,0.2138656,0.44512507,0.79636645,0.16935925,0.07806247,0.67364746,0.7700774,0.03841645,-0.05618523,0.73759043,0.5594074,0.17860082,0.069735564,0.39594314,0.48241252,0.01172661,-0.03482466,-0.018071098,808.2784,811.50183,785.31134,811.0989,865.4945,-0.4119873046875,0.01055908203125,0.90740966796875,4.5458984375,-4.598236083984375,-1.2261962890625,1,1.0,1.0,1.0,1.0,100.00
2021-04-05 11:04:12.590,0.9132546,0.67173034,0.595263,0.44512507,0.668913,0.29144043,-0.09316136,0.67364746,0.7777115,0.13155052,0.13771173,0.73759043,0.6742257,0.34309217,0.38319138,0.39594314,0.36317074,-0.11965319,0.09194557,-0.018071098,796.5934,800.2198,803.0403,799.81683,718.8278,-0.38665771484375,-1.8310546875E-4,0.92291259765625,4.78515625,-9.009552001953125,-0.55328369140625,1,1.0,1.0,1.0,1.0,100.00
2021-04-05 11:04:13.093,0.7813363,0.70642173,0.7091522,0.9196388,0.42899975,0.3166567,-0.029805016,0.2805352,0.7643541,0.25765106,0.27225062,0.6072918,0.7728342,0.3525886,0.3418259,0.5073712,0.26992837,-0.04579506,0.101183675,0.29856405,780.87915,775.64105,799.41394,786.9231,836.08057,-0.398681640625,-0.018798828125,0.916259765625,3.536529541015625,0.3887939453125,-1.114044189453125,1,1.0,1.0,1.0,1.0,100.00
2021-04-05 11:04:13.609,0.9919759,0.67624325,0.69739014,0.9196388,0.5818501,0.2888556,-0.061848536,0.2805352,0.7484113,0.23069498,0.2668013,0.6072918,0.7527743,0.3490714,0.34771565,0.5073712,0.047342252,-0.068548694,0.076819405,0.29856405,807.0696,798.20514,780.4762,799.011,845.7509,-0.43438720703125,-0.022216796875,0.904052734375,5.21881103515625,-3.940277099609375,1.39068603515625,1,1.0,1.0,1.0,1.0,100.00
2021-04-05 11:04:14.126,0.9919759,0.74621886,0.7187293,0.9825453,0.5818501,0.346248,0.12747425,0.25568503,0.7484113,0.22931214,0.27406487,0.60658705,0.7527743,0.3641744,0.28102416,0.4867005,0.047342252,0.031749845,0.11295516,0.35397643,816.337,802.23444,788.93774,811.50183,781.28204,-0.4205322265625,-0.017578125,0.9024658203125,5.689849853515625,-6.542205810546875,1.428070068359375,1,1.0,1.0,1.0,1.0,100.00
2021-04-05 11:04:14.644,1.0275853,0.5105097,0.58982,0.3598597,0.6151531,0.5232946,0.09869909,0.7441721,0.764311,0.22125064,-0.0046581696,0.66880745,0.5802827,0.435664,0.33748728,0.62946004,0.13530244,-0.09819988,0.065236405,0.2207729,815.9341,803.8461,794.9817,815.12823,763.1502,-0.42974853515625,-0.0142822265625,0.90740966796875,4.56085205078125,-4.17205810546875,0.8673095703125,1,1.0,1.0,1.0,1.0,100.00
2021-04-05 11:04:15.162,0.58621985,0.6148583,0.55626094,0.34544426,0.6346618,0.4478215,0.0037539492,0.64335,0.88617975,0.3072163,0.21429259,0.9415132,0.56475896,0.37194347,0.390519,0.65613365,0.15750752,0.12312514,0.16374762,0.31763715,814.7253,790.14655,796.5934,825.6044,753.8828,-0.43206787109375,-0.01611328125,0.90191650390625,4.56085205078125,-5.263671875,1.03179931640625,1,1.0,1.0,1.0,1.0,100.00
2021-04-05 11:04:15.678,0.58679944,0.6787942,0.62707424,0.49235627,0.61321944,0.48951718,-0.13639317,0.6140841,0.8963494,0.61711115,0.21034774,0.96594477,0.5612192,0.33153915,0.42987227,0.64941674,0.13266203,0.04735646,0.21779574,0.27908123,804.65204,802.23444,782.0879,802.23444,810.696,-0.4288330078125,-0.01947021484375,0.90484619140625,5.2337646484375,-6.0113525390625,0.19439697265625,1,1.0,1.0,1.0,1.0,100.00
2021-04-05 11:04:16.188,0.55503434,0.7529902,0.62264997,0.55843496,0.8205821,0.7089108,-0.14093374,0.5071395,1.1274927,0.97524303,0.21034774,0.90860146,0.5290356,0.31317392,0.42658857,0.6614395,0.12704985,-0.0033453528,0.23065953,0.31191075,798.20514,787.326,800.2198,800.2198,751.8681,-0.43560791015625,-0.01934814453125,0.9049072265625,5.525360107421875,-4.702911376953125,1.68975830078125,1,1.0,1.0,1.0,1.0,95.00
2021-04-05 11:04:16.715,0.6897167,0.8725711,0.67451525,0.6988261,0.7333828,0.7657989,-0.15104893,0.50661755,1.1278257,0.97524303,0.14510721,0.9043094,0.44170207,0.2964859,0.4112449,0.6233867,0.0729811,-0.18286458,0.20428415,0.15631713,804.2491,785.7143,781.685,794.9817,690.6227,-0.43255615234375,-0.01904296875,0.9031982421875,4.8150634765625,-4.388885498046875,1.921539306640625,1,1.0,1.0,1.0,1.0,95.00
2021-04-05 11:04:17.225,0.57495356,0.7718504,0.67451525,0.54836553,0.60672957,0.7045707,-0.15104893,0.14811748,1.1180936,0.97524303,0.14510721,0.5113036,0.4385415,0.2772154,0.4112449,0.6002308,0.14839566,-0.16661619,0.20428415,0.1548776,806.6667,801.02563,796.1905,803.0403,793.36993,-0.4322509765625,-0.0218505859375,0.90216064453125,4.882354736328125,-5.36834716796875,1.80938720703125,1,1.0,1.0,1.0,1.0,95.00
2021-04-05 11:04:17.754,0.4489306,0.6337858,-0.05836544,0.4435404,0.47822607,0.310385,-0.53872633,0.13805377,0.99646705,0.6207171,0.097484365,0.55455726,0.5236957,0.20028502,0.29149514,0.4941957,0.20183375,-0.033613343,0.13701798,0.16427441,805.8608,785.31134,784.5055,811.50183,711.1722,-0.43438720703125,-0.01898193359375,0.90435791015625,4.11224365234375,-4.007568359375,1.27105712890625,1,1.0,1.0,1.0,1.0,95.00
2021-04-05 11:04:18.256,0.3652653,0.044304807,-0.1326877,0.41675708,0.37795526,-0.15060185,-0.59855664,0.24196757,0.77992487,0.49467793,0.17294021,0.60050976,0.5663833,0.18304072,0.2232434,0.44317386,0.16667286,-0.050442085,0.06027618,0.16395612,830.4396,808.68134,805.8608,824.3956,745.0183,-0.42816162109375,-0.01995849609375,0.90673828125,5.001983642578125,-4.83001708984375,0.964508056640625,1,1.0,1.0,1.0,1.0,95.00
2021-04-05 11:04:18.762,0.7167133,0.024092289,0.1123822,0.41983852,0.5178677,-0.35256663,-0.5862934,0.2665601,0.75975305,0.20653783,0.19011833,0.57256955,0.60702693,0.28711212,0.19796762,0.32912412,0.15993233,0.032974876,0.124518454,0.1696348,815.5311,794.17584,790.14655,809.4872,921.9048,-0.42657470703125,-0.0166015625,0.90203857421875,4.777679443359375,-5.330963134765625,0.79254150390625,1,1.0,1.0,1.0,1.0,95.00
2021-04-05 11:04:19.284,0.797677,0.13517424,0.25488353,0.6381862,0.44993067,-0.2253453,-0.38143784,0.3374698,0.7781391,0.24516203,0.20271657,0.56931734,0.6113865,0.33120748,0.24276163,0.46570063,0.1987019,0.033254933,0.07255453,0.21355583,782.0879,780.4762,808.2784,793.7729,923.5165,-0.42840576171875,-0.01995849609375,0.89739990234375,5.330963134765625,-5.046844482421875,1.009368896484375,1,1.0,1.0,1.0,1.0,95.00
2021-04-05 11:04:19.792,0.9201714,0.40144563,0.41560334,0.88022494,0.52240866,0.048470963,-0.27150133,0.31097168,0.71541053,0.24868436,0.1585313,0.5662511,0.64612925,0.37726277,0.3186121,0.58380795,0.2760452,0.07247018,0.127725,0.24334244,794.57874,792.5641,791.75824,800.2198,728.49817,-0.40289306640625,-0.01470947265625,0.9229736328125,4.942169189453125,-6.3702392578125,0.91217041015625,1,1.0,1.0,1.0,1.0,95.00
2021-04-05 11:04:20.298,0.827452,0.5792583,0.4941245,0.88392574,0.5503168,0.18317547,-0.100949705,0.37162545,0.7103943,0.05974482,0.14514677,0.70766854,0.6524629,0.31333888,0.36239624,0.59886664,0.3058743,-0.0035211025,0.07102512,0.23892863,819.15753,800.6227,804.65204,801.4286,820.3663,-0.41522216796875,-0.01788330078125,0.91705322265625,4.3963623046875,-4.0374755859375,1.128997802734375,1,1.0,1.0,1.0,1.0,95.00
2021-04-05 11:04:20.810,0.74452084,0.542694,0.508981,0.6761876,0.48927894,0.21462306,0.057470825,0.27736434,0.5530586,0.24642138,0.08262775,0.70439136,0.56196123,0.2870397,0.18439317,0.47405058,-0.066757396,-0.14798674,-0.1019487,0.1444934,788.93774,773.6264,798.60803,793.36993,684.17584,-0.38775634765625,-0.01287841796875,0.9239501953125,4.628143310546875,-8.979644775390625,2.332763671875,1,1.0,1.0,1.0,1.0,95.00
2021-04-05 11:04:21.340,0.65143245,0.43476892,0.4451949,0.5634508,0.48453027,0.16315842,-0.017617937,0.3506158,0.66221994,0.44272125,0.19457424,0.8596754,0.47597954,0.21433567,0.17926092,0.44811487,0.030922974,-0.10173008,0.0016441771,0.1864596,807.47253,803.0403,796.99634,811.9048,789.7436,-0.3743896484375,2.44140625E-4,0.931884765625,4.6954345703125,-4.942169189453125,1.188812255859375,1,1.0,1.0,1.0,1.0,95.00
2021-04-05 11:04:21.843,0.6488508,0.5645251,0.58360696,0.42332676,0.40767327,0.12785691,0.035274345,0.46458954,0.7261259,0.47561482,0.19830641,0.9988351,0.4568755,0.18584636,0.17793038,0.5032253,0.041264087,-0.08328195,-0.023627985,0.16091135,823.9927,799.41394,789.34064,811.9048,730.9158,-0.37518310546875,0.00128173828125,0.92877197265625,5.121612548828125,-3.327178955078125,1.188812255859375,1,1.0,1.0,1.0,1.0,95.00
2021-04-05 11:04:22.354,0.6392974,0.6007774,0.48875326,0.41337487,0.42114094,0.084245056,0.014833707,0.5241622,0.71211296,0.43715757,0.15242554,0.9740854,0.43071002,0.17027606,0.19544397,0.4756495,0.121104844,0.018049603,0.01938586,0.1855865,811.50183,791.3553,789.34064,801.02563,750.65936,-0.37591552734375,0.0054931640625,0.92718505859375,5.45806884765625,-4.53094482421875,1.6748046875,1,1.0,1.0,1.0,1.0,95.00
2021-04-05 11:04:22.856,0.6983894,0.61850244,0.4874775,0.5408151,0.34046695,0.056633495,0.03268896,0.43689618,0.69579047,0.3664744,0.13332535,0.9364932,0.5461638,0.26226243,0.35958317,0.5367493,0.08607454,-0.07334752,0.005810407,0.16027728,786.9231,794.57874,798.20514,781.685,826.0073,-0.37969970703125,0.04931640625,0.92230224609375,16.441497802734375,-12.620849609375,10.99090576171875,1,1.0,1.0,1.0,1.0,95.00
2021-04-05 11:04:23.365,0.7220265,0.40380627,0.21562378,0.80349356,0.28381485,0.08675248,-0.05598909,0.32315293,0.5858361,0.21543247,0.07567785,0.5734795,0.5770813,0.2911117,0.39289758,0.51797605,0.08050583,-0.08409198,0.010785655,0.17499231,794.57874,740.58606,734.94507,757.50916,767.1795,-0.32958984375,0.197509765625,0.92376708984375,-3.4393310546875,2.714080810546875,2.40753173828125,1,1.0,1.0,1.0,1.0,95.00
2021-04-05 11:04:23.888,1.0240234,0.5213419,0.33275163,0.9724071,0.6722564,0.17275609,-0.106029935,0.24500678,1.025807,0.21543247,0.014206499,0.40397564,0.5952388,0.3297469,0.46164128,0.630127,0.06598375,-0.135259,-0.011890059,0.13151543,782.49084,757.50916,739.3773,772.01465,757.50916,-0.346923828125,0.19696044921875,0.8162841796875,7.357177734375,-33.653106689453125,17.114410400390625,1,1.0,1.0,1.0,1.0,95.00
2021-04-05 11:04:24.217,,,,,,,,,,,,,,,,,,,,,,,,,,,,,,,,,,,,,,/muse/elements/blink
2021-04-05 11:04:24.410,1.1480321,0.616747,0.3315389,1.0869247,0.78373057,0.20149048,-0.09282857,0.3944308,1.0229677,0.18599312,-0.17359714,0.35255978,0.53881466,0.27657846,0.30918026,0.6263704,0.07142021,-0.06021172,-0.049865436,0.11310867,634.21246,620.5128,552.4176,632.1978,798.20514,-0.53118896484375,0.21624755859375,0.85601806640625,-1.92901611328125,17.009735107421875,-4.605712890625,1,1.0,1.0,1.0,1.0,95.00
2021-04-05 11:04:24.615,,,,,,,,,,,,,,,,,,,,,,,,,,,,,,,,,,,,,,/muse/elements/blink
2021-04-05 11:04:24.925,1.1480321,0.616747,0.3315389,1.0869247,0.78373057,0.20149048,-0.09282857,0.3944308,1.0229677,0.18599312,-0.17359714,0.35255978,0.53881466,0.27657846,0.30918026,0.6263704,0.07142021,-0.06021172,-0.049865436,0.11310867,799.011,808.2784,788.93774,779.2674,789.34064,-0.5286865234375,0.0902099609375,0.79925537109375,-4.17205810546875,-7.902984619140625,-8.680572509765625,1,1.0,1.0,1.0,1.0,95.00
2021-04-05 11:04:25.451,1.1480321,0.616747,0.3315389,1.0869247,0.78373057,0.20149048,-0.09282857,0.3944308,1.0229677,0.18599312,-0.17359714,0.35255978,0.53881466,0.27657846,0.30918026,0.6263704,0.07142021,-0.06021172,-0.049865436,0.11310867,801.8315,801.4286,809.4872,806.26373,802.23444,-0.45050048828125,0.062255859375,0.8907470703125,-0.538330078125,-3.357086181640625,-2.355194091796875,1,1.0,1.0,1.0,1.0,95.00
2021-04-05 11:04:25.980,1.1480321,0.616747,0.3315389,1.0869247,0.78373057,0.20149048,-0.09282857,0.3944308,1.0229677,0.18599312,-0.17359714,0.35255978,0.53881466,0.27657846,0.30918026,0.6263704,0.07142021,-0.06021172,-0.049865436,0.11310867,817.9487,799.41394,884.83514,816.7399,784.5055,-0.47845458984375,0.02374267578125,0.87420654296875,3.51409912109375,-1.15142822265625,-3.18511962890625,1,2.0,1.0,1.0,2.0,95.00
2021-04-05 11:04:26.481,0.82691765,0.616747,0.3315389,0.64230746,0.49851117,0.20149048,-0.09282857,0.71822023,0.7559724,0.18599312,-0.17359714,0.53190976,0.5825976,0.27657846,0.30918026,0.51155466,0.3617981,-0.06021172,-0.049865436,0.3541405,803.8461,785.7143,822.7839,815.9341,713.5897,-0.46746826171875,0.04364013671875,0.88543701171875,3.222503662109375,-4.62066650390625,3.75335693359375,1,1.0,1.0,1.0,1.0,100.00
2021-04-05 11:04:26.991,0.9804591,0.616747,0.3315389,0.6782907,0.3562662,0.20149048,-0.09282857,0.6088459,0.8602109,0.18599312,-0.17359714,0.6871643,0.5531987,0.27657846,0.30918026,0.5050498,0.27146533,-0.06021172,-0.049865436,0.3461011,836.4835,814.3223,804.2491,817.9487,754.2857,-0.4822998046875,0.02508544921875,0.876220703125,3.768310546875,-4.972076416015625,-0.814971923828125,1,1.0,1.0,1.0,1.0,100.00
2021-04-05 11:04:27.501,0.9610223,0.616747,0.6502311,0.67694575,0.25783175,0.20149048,0.23713492,0.43950728,0.7901035,0.18599312,0.27889675,0.71114737,0.516301,0.27657846,0.33841938,0.5467473,0.22093774,-0.06021172,0.050383404,0.35371032,807.47253,785.7143,812.3077,812.3077,865.89746,-0.46978759765625,0.01324462890625,0.9090576171875,1.727142333984375,-4.8150634765625,1.15142822265625,1,1.0,1.0,1.0,1.0,100.00
2021-04-05 11:04:28.011,1.0197169,0.616747,0.768948,0.74116725,0.16364862,0.20149048,0.4489009,0.2032095,0.7732689,0.18599312,0.48791748,0.83888525,0.47967795,0.27657846,0.24866751,0.54917246,0.132981,-0.06021172,0.14943802,0.46775416,814.3223,812.71063,794.9817,813.5165,683.7729,-0.4390869140625,0.00665283203125,0.9005126953125,1.68975830078125,-6.377716064453125,2.6617431640625,1,1.0,1.0,1.0,1.0,100.00
2021-04-05 11:04:28.521,0.9112713,0.616747,0.79473245,0.8010432,0.17176387,0.20149048,0.40339616,0.20079313,0.7500628,0.18599312,0.48791748,0.83888525,0.49024925,0.27657846,0.218776,0.51461625,0.14169736,-0.06021172,0.13736719,0.4789667,828.8278,809.4872,802.6374,827.2161,800.6227,-0.43017578125,-6.103515625E-4,0.90484619140625,4.059906005859375,-5.323486328125,0.934600830078125,1,1.0,1.0,1.0,1.0,100.00
2021-04-05 11:04:29.031,1.0214719,0.8857404,0.9185172,0.9268829,0.23317595,0.09820689,0.4163308,0.24336956,0.4846725,0.2996826,0.44832593,0.6962601,0.60010886,0.25523055,0.16642848,0.48600858,0.19392031,0.08510525,0.19329287,0.49953878,803.0403,793.7729,803.8461,804.2491,731.7216,-0.4290771484375,0.00439453125,0.903564453125,5.30853271484375,-5.69732666015625,1.18133544921875,1,1.0,1.0,1.0,1.0,100.00
2021-04-05 11:04:29.544,0.84051406,0.7033305,0.96543217,0.8004828,0.24352962,-0.021161953,0.29617023,0.16688488,0.5741924,0.3020941,0.33831844,0.64214766,0.50706506,0.29979602,0.17231523,0.49229097,0.12854126,0.057604235,0.18390803,0.33734432,821.5751,799.011,803.0403,809.4872,729.707,-0.4493408203125,0.0341796875,0.9052734375,10.549774169921875,-5.839385986328125,1.727142333984375,1,1.0,1.0,1.0,1.0,100.00
2021-04-05 11:04:30.059,0.7577116,0.7526073,1.0032887,0.64289427,0.32753566,0.14304511,0.208942,0.1266001,0.73168254,0.45787218,0.3698091,0.7895017,0.45768946,0.30830723,0.16639182,0.5165929,0.107404344,0.025388926,0.14856729,0.25976562,345.7143,298.1685,313.88278,333.22345,920.696,-0.3431396484375,0.037109375,0.93865966796875,-2.953338623046875,2.758941650390625,6.68426513671875,1,1.0,1.0,1.0,1.0,100.00
2021-04-05 11:04:30.093,,,,,,,,,,,,,,,,,,,,,,,,,,,,,,,,,,,,,,/muse/elements/blink
2021-04-05 11:04:30.583,0.4091596,0.61549866,0.9510586,0.027204545,0.34687856,0.16773148,-0.0026491932,-0.032719497,0.71688247,0.31262144,0.26545298,0.74438417,0.35569394,0.33943582,0.14971861,0.5034405,0.039038874,-0.03487477,-0.0023471704,0.1305208,865.89746,878.3883,882.01465,869.12085,717.2161,-0.38330078125,0.02667236328125,0.9232177734375,3.790740966796875,-4.747772216796875,2.504730224609375,1,1.0,1.0,1.0,1.0,100.00
2021-04-05 11:04:31.090,0.36279118,0.82155263,0.9510586,-0.2522304,0.42150772,0.3952914,-0.0026491932,-0.17605162,0.6883978,0.2830889,0.26545298,0.6486943,0.35695308,0.32282117,0.14971861,0.48377064,0.05256828,-0.104870796,-0.0023471704,0.07261238,860.65936,838.49817,855.0183,857.8388,823.9927,-0.40325927734375,0.01373291015625,0.89141845703125,6.1907958984375,3.895416259765625,-1.60003662109375,1,1.0,1.0,1.0,1.0,100.00
2021-04-05 11:04:31.598,0.36279118,0.82155263,0.9510586,-0.2522304,0.42150772,0.3952914,-0.0026491932,-0.17605162,0.6883978,0.2830889,0.26545298,0.6486943,0.35695308,0.32282117,0.14971861,0.48377064,0.05256828,-0.104870796,-0.0023471704,0.07261238,849.3773,837.6923,873.95605,841.31866,709.9634,-0.439208984375,0.01605224609375,0.9005126953125,5.615081787109375,-5.031890869140625,1.667327880859375,1,1.0,1.0,1.0,1.0,100.00
2021-04-05 11:04:32.110,0.9204675,0.82155263,0.9510586,-0.2522304,0.5247917,0.3952914,-0.0026491932,-0.17605162,0.59798807,0.2830889,0.26545298,0.6486943,0.46947038,0.32282117,0.14971861,0.48377064,0.3007394,-0.104870796,-0.0023471704,0.07261238,839.707,826.8132,826.4103,833.2601,709.5604,-0.42523193359375,0.01824951171875,0.9193115234375,4.68048095703125,-4.747772216796875,1.323394775390625,1,1.0,1.0,1.0,1.0,100.00
2021-04-05 11:04:32.638,0.84743506,0.82155263,0.9510586,-0.2522304,0.52663255,0.3952914,-0.0026491932,-0.17605162,0.6189388,0.2830889,0.26545298,0.6486943,0.45383713,0.32282117,0.14971861,0.48377064,0.19261917,-0.104870796,-0.0023471704,0.07261238,814.3223,799.41394,827.2161,839.707,695.8608,-0.40692138671875,0.01959228515625,0.92333984375,3.850555419921875,-5.21881103515625,0.934600830078125,1,1.0,1.0,1.0,1.0,100.00
2021-04-05 11:04:33.148,0.7202172,0.7753628,0.77961755,-0.2522304,0.483442,0.4243388,0.23579584,-0.17605162,0.6926597,0.45423692,0.28730658,0.6486943,0.5030713,0.20914184,0.40553397,0.48377064,0.15718025,0.02941031,0.1329783,0.07261238,803.8461,797.3993,791.3553,817.1429,796.1905,-0.41107177734375,0.0072021484375,0.91754150390625,5.24871826171875,-2.998199462890625,0.112152099609375,1,1.0,1.0,1.0,1.0,100.00
2021-04-05 11:04:33.672,0.48634222,0.5964726,0.6216658,-0.2522304,0.40327868,0.327479,0.17618111,-0.17605162,0.7699822,0.4572208,0.050592083,0.6486943,0.531948,0.29077154,0.48263684,0.48377064,0.08054763,-0.020036584,-0.04132008,0.07261238,826.8132,812.71063,822.7839,826.4103,731.7216,-0.419921875,0.0174560546875,0.90814208984375,5.084228515625,-3.96270751953125,0.70281982421875,1,1.0,1.0,1.0,1.0,100.00
2021-04-05 11:04:34.184,0.5117378,0.5017968,0.50548744,0.21346898,0.31645545,0.24481604,0.09693343,0.293541,0.7885349,0.34694335,0.35645342,0.71728635,0.536494,0.35336143,0.55817646,0.7177647,0.0409807,-0.07759633,-0.047540754,0.074942596,823.9927,808.2784,816.7399,826.8132,749.0476,-0.41363525390625,0.02850341796875,0.91571044921875,5.600128173828125,-5.3533935546875,4.05242919921875,1,1.0,1.0,1.0,1.0,100.00
2021-04-05 11:04:34.689,0.8631139,0.52419823,0.40104088,0.5686514,0.31562942,0.24145523,0.09170843,0.4062983,0.9334027,0.39865977,0.43477544,0.8551426,0.51883775,0.38330036,0.5147128,0.6616534,-0.071772926,-0.16317855,-0.05165105,0.00246179,815.5311,811.9048,782.49084,816.7399,784.5055,-0.414794921875,0.02618408203125,0.91082763671875,4.29168701171875,-2.773895263671875,0.94207763671875,1,1.0,1.0,1.0,1.0,100.00
2021-04-05 11:04:35.204,1.0488523,0.88460946,0.4873708,0.6420897,0.30588636,0.4785474,0.08161042,0.3460241,0.9069528,0.5165662,0.37521076,0.85861856,0.50854206,0.36198768,0.41335222,0.5985993,-0.12467711,-0.19762152,-0.089895956,0.002355995,811.9048,808.2784,807.47253,814.3223,761.13556,-0.4119873046875,0.033203125,0.92041015625,4.2169189453125,-4.628143310546875,1.7645263671875,1,1.0,1.0,1.0,1.0,100.00
2021-04-05 11:04:35.732,1.0413204,0.94482714,0.57596016,0.6615007,0.2806423,0.54745406,0.1760303,0.29479092,0.9031372,0.52267855,0.3957725,0.8537131,0.5311461,0.3485687,0.20180322,0.5303834,-0.12797509,-0.20516308,-0.07566757,-0.03334501,801.4286,800.2198,791.3553,816.337,751.06226,-0.41015625,0.02056884765625,0.90869140625,4.306640625,-4.867401123046875,1.218719482421875,1,1.0,1.0,1.0,1.0,100.00
2021-04-05 11:04:36.237,0.86498123,0.8971157,0.64254576,0.5200859,0.3480086,0.47289094,0.15167075,0.31881395,0.7563203,0.4735976,0.21980694,0.7650433,0.55050707,0.36012605,0.30461925,0.53544265,-0.11887724,-0.12801847,-0.0674605,-0.033095997,798.60803,794.17584,792.5641,802.6374,673.69965,-0.41864013671875,0.00775146484375,0.9095458984375,3.06549072265625,-4.209442138671875,-0.70281982421875,1,1.0,1.0,1.0,1.0,100.00
2021-04-05 11:04:36.741,0.57579076,0.5373892,0.4726273,0.47477514,0.3970291,0.13192694,-0.010742796,0.3207452,0.7342624,0.37891245,0.25984368,0.7071874,0.5245957,0.32463402,0.43959054,0.5526485,-0.16118549,-0.16720815,-0.083862014,-0.118964076,809.89014,801.02563,803.0403,811.9048,832.8571,-0.414306640625,0.0035400390625,0.9088134765625,4.553375244140625,-4.68048095703125,-0.665435791015625,1,1.0,1.0,1.0,1.0,100.00
2021-04-05 11:04:37.262,0.5050454,0.41914636,0.50245047,0.49571422,0.44207802,0.016203087,-0.10562657,0.36069852,0.6447251,0.31236565,0.1685302,0.64054304,0.49298427,0.22784728,0.5201453,0.5816808,-0.13464297,-0.20890689,-0.10179212,-0.08879542,790.54944,780.4762,785.7143,799.41394,815.12823,-0.41864013671875,0.00250244140625,0.9095458984375,4.8748779296875,-5.2337646484375,0.097198486328125,1,1.0,1.0,1.0,1.0,100.00
2021-04-05 11:04:37.789,0.5438902,0.6067948,0.5776958,0.45661417,0.3613872,0.022435237,-0.05703786,0.34729072,0.59780157,0.26187083,0.19260703,0.67774725,0.46346533,0.1647165,0.4383738,0.534929,-0.1216099,-0.2524596,-0.05179505,-0.0050610113,814.3223,798.20514,804.65204,811.50183,649.12085,-0.41033935546875,0.0062255859375,0.91339111328125,5.14404296875,-4.643096923828125,0.112152099609375,1,1.0,1.0,1.0,1.0,100.00
2021-04-05 11:04:38.306,0.7382634,0.7377111,0.6296546,0.47594953,0.3778983,0.066177405,0.0590149,0.46520698,0.6216349,0.26187083,0.23391896,0.7129465,0.5449926,0.16752267,0.32165182,0.5679968,0.02517187,-0.145239,0.14683747,0.0763134,818.3516,799.41394,788.93774,820.3663,906.99634,-0.41656494140625,0.004638671875,0.90765380859375,5.12908935546875,-3.22998046875,0.949554443359375,1,1.0,1.0,1.0,1.0,100.00
2021-04-05 11:04:38.821,0.7320644,0.70424014,0.49144307,0.47221345,0.32303372,0.030942397,0.030527985,0.41236624,0.6216349,0.12722169,0.19744866,0.71533436,0.5413944,0.22663617,0.2724589,0.53640896,0.12329643,-0.0027854128,0.21992098,0.16682035,801.8315,784.5055,792.1612,805.05493,703.5165,-0.4158935546875,0.00189208984375,0.91046142578125,5.390777587890625,-3.581390380859375,0.95703125,1,1.0,1.0,1.0,1.0,100.00
2021-04-05 11:04:39.329,0.5811494,0.29440916,0.1631678,0.41823903,0.36621562,-0.0016033524,0.0034724053,0.24256569,0.57461417,-0.13785815,0.27336764,0.69572014,0.44976085,0.13977721,0.2985787,0.5242139,0.21416698,0.07096216,0.2365587,0.22700313,823.5897,828.022,785.31134,807.8755,777.6557,-0.4200439453125,-0.00201416015625,0.90985107421875,5.0244140625,-4.7552490234375,1.338348388671875,1,1.0,1.0,1.0,1.0,100.00
