TimeStamp,Delta_TP9,Delta_AF7,Delta_AF8,Delta_TP10,Theta_TP9,Theta_AF7,Theta_AF8,Theta_TP10,Alpha_TP9,Alpha_AF7,Alpha_AF8,Alpha_TP10,Beta_TP9,Beta_AF7,Beta_AF8,Beta_TP10,Gamma_TP9,Gamma_AF7,Gamma_AF8,Gamma_TP10,RAW_TP9,RAW_AF7,RAW_AF8,RAW_TP10,AUX_RIGHT,Accelerometer_X,Accelerometer_Y,Accelerometer_Z,Gyro_X,Gyro_Y,Gyro_Z,HeadBandOn,HSI_TP9,HSI_AF7,HSI_AF8,HSI_TP10,Battery,Elements
2021-04-16 09:46:04.481,0.14892092,0.51900256,0.32562956,0.092555866,0.48500925,0.72277844,-0.08061663,0.34281725,0.44564703,1.0013145,0.6665088,0.29344493,0.4711005,-0.050438855,0.20877716,0.591322,-0.06444474,-0.36122525,-0.26922262,-0.008919649,781.28204,811.0989,788.1319,773.6264,805.4579,0.211181640625,0.05975341796875,0.97918701171875,5.39825439453125,-5.450592041015625,1.054229736328125,1,2.0,1.0,1.0,2.0,70.00
2021-04-16 09:46:04.989,0.14892092,0.2338759,0.6482108,0.092555866,0.48500925,-0.123694286,0.25231078,0.34281725,0.44564703,0.15715271,0.45523056,0.29344493,0.4711005,-0.023535669,0.19946669,0.591322,-0.06444474,-0.3507364,-0.31423926,-0.008919649,682.96704,787.72894,809.4872,680.14655,709.15753,0.20611572265625,0.05426025390625,0.98223876953125,4.568328857421875,-4.613189697265625,0.485992431640625,1,2.0,1.0,1.0,2.0,70.00
2021-04-16 09:46:05.186,,,,,,,,,,,,,,,,,,,,,,,,,,,,,,,,,,,,,,/muse/elements/blink
2021-04-16 09:46:05.498,0.14892092,0.48169366,0.7573682,0.092555866,0.48500925,0.37786555,0.34908447,0.34281725,0.44564703,0.4350234,0.47087246,0.29344493,0.4711005,0.028146766,0.2531947,0.591322,-0.06444474,-0.41341236,-0.28858554,-0.008919649,819.9634,801.4286,808.2784,819.5604,779.67035,0.23541259765625,0.0582275390625,0.97723388671875,5.6524658203125,-8.919830322265625,1.435546875,1,2.0,1.0,1.0,2.0,70.00
2021-04-16 09:46:06.004,0.14892092,0.5308843,0.6913042,0.092555866,0.48500925,0.5622709,0.35398057,0.34281725,0.44564703,0.5032067,0.4747733,0.29344493,0.4711005,0.051925275,0.20550042,0.591322,-0.06444474,-0.406276,-0.20395157,-0.008919649,784.90845,796.99634,803.8461,779.67035,784.10254,0.26171875,0.05230712890625,0.97265625,4.35150146484375,-5.0244140625,0.291595458984375,1,2.0,1.0,1.0,2.0,70.00
2021-04-16 09:46:06.514,0.14892092,0.5012295,0.55581445,0.092555866,0.48500925,0.5456462,0.19582304,0.34281725,0.44564703,0.48676664,0.4286581,0.29344493,0.4711005,0.03432542,0.1737248,0.591322,-0.06444474,-0.3812503,-0.19837582,-0.008919649,794.9817,807.0696,807.47253,797.8022,875.56775,0.25848388671875,0.053955078125,0.97076416015625,3.99261474609375,-2.773895263671875,-0.710296630859375,1,2.0,1.0,1.0,2.0,70.00
2021-04-16 09:46:07.022,0.14892092,0.56384385,0.7980899,0.092555866,0.48500925,0.31860337,0.20625241,0.34281725,0.44564703,0.58819914,0.5321045,0.29344493,0.4711005,0.027619384,0.09909249,0.591322,-0.06444474,-0.4520264,-0.2977513,-0.008919649,803.8461,807.0696,807.0696,807.8755,819.15753,0.255126953125,0.0435791015625,0.971435546875,4.209442138671875,-3.66363525390625,0.545806884765625,1,2.0,1.0,1.0,2.0,70.00
2021-04-16 09:46:07.556,0.14892092,0.7478558,0.96786106,0.092555866,0.48500925,0.34414896,0.37184837,0.34281725,0.44564703,0.43068704,0.53102297,0.29344493,0.4711005,-0.013296031,0.16543716,0.591322,-0.06444474,-0.5661175,-0.39311886,-0.008919649,796.99634,803.44324,814.3223,790.54944,769.59705,0.22216796875,0.0535888671875,0.98199462890625,4.717864990234375,-1.457977294921875,-0.082244873046875,1,2.0,1.0,1.0,2.0,70.00
2021-04-16 09:46:07.851,,,,,,,,,,,,,,,,,,,,,,,,,,,,,,,,,,,,,,/muse/elements/blink
2021-04-16 09:46:08.046,,,,,,,,,,,,,,,,,,,,,,,,,,,,,,,,,,,,,,/muse/elements/blink
2021-04-16 09:46:08.089,0.14892092,0.8008305,0.9429564,0.092555866,0.48500925,0.4648303,0.38842306,0.34281725,0.44564703,0.43068704,0.53102297,0.29344493,0.4711005,-0.088245615,0.18425642,0.591322,-0.06444474,-0.6179372,-0.40623602,-0.008919649,873.5531,817.1429,814.3223,843.3333,745.82416,0.17474365234375,0.04730224609375,0.98150634765625,6.41510009765625,-6.7291259765625,-0.650482177734375,1,2.0,1.0,1.0,2.0,70.00
2021-04-16 09:46:08.603,0.14892092,0.76172596,0.61733556,0.092555866,0.48500925,0.44424286,0.3556053,0.34281725,0.44564703,0.41459358,0.45625645,0.29344493,0.4711005,-0.17922129,0.22843961,0.591322,-0.06444474,-0.55736107,-0.34342745,-0.008919649,809.4872,799.81683,803.44324,810.696,1055.6776,0.23443603515625,0.0616455078125,0.97314453125,6.138458251953125,-3.9776611328125,-2.572021484375,1,2.0,1.0,1.0,2.0,70.00
2021-04-16 09:46:09.123,0.14892092,0.41191012,0.21245657,0.092555866,0.48500925,0.3110532,0.26108596,0.34281725,0.44564703,0.12209308,0.22571307,0.29344493,0.4711005,-0.08281208,0.19982599,0.591322,-0.06444474,-0.6426318,-0.2736022,-0.008919649,805.8608,802.23444,810.696,795.38464,703.5165,0.2337646484375,0.12689208984375,0.975341796875,5.99639892578125,-4.972076416015625,2.40753173828125,1,2.0,1.0,1.0,2.0,70.00
2021-04-16 09:46:09.623,0.14892092,0.3277696,0.19963484,0.092555866,0.48500925,-0.12727733,0.20510119,0.34281725,0.44564703,0.034965552,0.22365817,0.29344493,0.4711005,-0.035824254,0.16362521,0.591322,-0.06444474,-0.5129902,-0.26589715,-0.008919649,813.91943,803.8461,801.4286,804.2491,850.18317,0.2298583984375,0.10064697265625,0.98443603515625,1.51031494140625,-6.14593505859375,-2.51220703125,1,2.0,1.0,1.0,2.0,70.00
2021-04-16 09:46:10.150,0.14892092,0.22631128,0.12764059,0.05278084,0.48500925,-0.11261666,0.07821263,0.2691043,0.44564703,0.07118634,0.11891357,0.2040271,0.4711005,-0.055962622,0.047300335,0.5711723,-0.06444474,-0.4187709,-0.2524176,0.34602273,800.6227,806.26373,816.337,805.8608,740.18317,0.206298828125,0.10040283203125,0.97442626953125,4.0374755859375,-4.8748779296875,2.392578125,1,1.0,1.0,1.0,1.0,70.00
2021-04-16 09:46:10.660,0.4603758,0.30115572,0.0048018075,0.17577942,0.61329234,-0.11608398,-0.04029207,0.29933313,0.54769075,-0.09644921,-0.014488201,0.2564568,0.47193503,-0.09183369,-0.05762245,0.5738251,0.37210682,-0.36858022,-0.29132617,0.37137982,877.5824,802.23444,801.8315,896.52014,743.00366,0.17547607421875,0.062255859375,0.97552490234375,-0.456085205078125,-4.18701171875,-0.91217041015625,1,1.0,1.0,1.0,1.0,70.00
2021-04-16 09:46:10.717,,,,,,,,,,,,,,,,,,,,,,,,,,,,,,,,,,,,,,/muse/elements/blink
2021-04-16 09:46:11.201,0.4603758,0.3307072,0.27106404,0.16673674,0.61329234,0.016352054,0.33435717,0.32362708,0.54769075,-0.12704872,0.18823293,0.23874144,0.47193503,-0.11260809,-0.008183884,0.5617932,0.37210682,-0.33553475,-0.25478035,0.37565145,809.89014,808.68134,804.65204,803.44324,772.8205,0.19970703125,0.04815673828125,0.98822021484375,5.1141357421875,-3.715972900390625,-0.112152099609375,1,1.0,1.0,1.0,1.0,70.00
2021-04-16 09:46:11.705,0.42950228,0.6130257,0.4211847,0.3116849,0.6532436,0.26739514,0.33729586,0.31296882,0.5360846,0.04431046,0.33451217,0.093756974,0.45010886,-0.060421906,0.08201655,0.570926,0.31701848,-0.3874408,-0.27136865,0.42952994,768.7912,809.0842,808.2784,798.60803,684.9817,0.193359375,0.06707763671875,0.9949951171875,5.988922119140625,-8.95721435546875,3.431854248046875,1,1.0,1.0,1.0,1.0,70.00
2021-04-16 09:46:12.217,0.42950228,1.0525337,0.8546911,0.3116849,0.6532436,0.7710675,0.5160308,0.31296882,0.5360846,0.33950225,0.42481074,0.093756974,0.45010886,0.14605197,0.22750829,0.570926,0.31701848,-0.46312076,-0.34679228,0.42952994,806.6667,801.8315,806.6667,815.12823,740.989,0.17022705078125,0.07366943359375,0.9805908203125,7.633819580078125,0.949554443359375,3.865509033203125,1,1.0,1.0,1.0,1.0,70.00
2021-04-16 09:46:12.739,0.42950228,0.8386752,0.85604966,0.3116849,0.6532436,0.57028747,0.36259186,0.31296882,0.5360846,0.3745514,0.40970963,0.093756974,0.45010886,0.13118385,0.22145763,0.570926,0.31701848,-0.36815414,-0.3050939,0.42952994,813.91943,807.0696,814.7253,804.2491,789.34064,0.14068603515625,0.1026611328125,0.98016357421875,8.41888427734375,-7.29736328125,-3.775787353515625,1,1.0,1.0,1.0,1.0,70.00
2021-04-16 09:46:13.264,0.6194148,0.61284494,0.76348823,0.6340159,0.23427051,0.3692412,0.2923767,0.44832015,0.32736987,0.3726427,0.3625327,0.40543985,0.5541845,0.12953913,0.16537516,0.6183812,0.3025463,-0.42722547,-0.37772053,0.35329023,818.3516,811.0989,807.0696,815.5311,764.35895,0.1064453125,0.1248779296875,0.9796142578125,7.005767822265625,1.727142333984375,4.20196533203125,1,1.0,1.0,1.0,1.0,70.00
2021-04-16 09:46:13.767,0.74665767,0.16239485,0.32724285,0.7249332,0.49707553,-0.018487042,0.017747512,0.2041638,0.64622706,0.27044773,0.20672898,0.31075865,0.5569968,0.08750275,0.063305356,0.49565795,0.20881684,-0.39165166,-0.3169452,0.13189532,816.7399,814.7253,809.4872,817.9487,755.89746,0.04498291015625,0.15411376953125,0.99566650390625,9.114227294921875,0.73272705078125,9.144134521484375,1,1.0,1.0,1.0,1.0,70.00
2021-04-16 09:46:14.308,0.8981687,0.79050803,0.6916821,0.7295934,0.6308249,0.23138049,0.31653902,0.27407345,0.89246076,0.35695028,0.4168247,0.6968916,0.5849996,0.09652965,0.14917466,0.4701996,0.19711119,-0.41127044,-0.3644287,0.22232433,812.3077,811.50183,802.23444,810.293,890.87915,0.11065673828125,0.2283935546875,0.95416259765625,2.34771728515625,-5.90667724609375,12.03765869140625,1,1.0,1.0,1.0,1.0,70.00
2021-04-16 09:46:14.809,1.0661718,0.8465932,0.6924894,0.7481746,0.7725511,0.21307263,0.28549525,0.2503797,0.89246076,0.34213912,0.4078376,0.7378898,0.61305904,0.06158782,0.11870498,0.48298457,0.16473089,-0.35299417,-0.23089415,0.3069671,639.85345,798.20514,819.15753,644.68866,828.022,0.01812744140625,0.06072998046875,1.00238037109375,-6.1907958984375,6.437530517578125,1.233673095703125,1,1.0,1.0,1.0,1.0,70.00
2021-04-16 09:46:14.877,,,,,,,,,,,,,,,,,,,,,,,,,,,,,,,,,,,,,,/muse/elements/blink
2021-04-16 09:46:15.315,1.1797217,0.95280004,0.7017782,0.6951572,0.8673898,0.28709483,0.32986292,0.2876265,0.88211286,0.33601275,0.4116981,0.7378898,0.65875524,0.099010706,0.12587257,0.47132793,0.14994226,-0.37509602,-0.23304616,0.350661,791.3553,784.90845,814.3223,781.28204,763.95605,-2.44140625E-4,0.15411376953125,1.0084228515625,8.73291015625,8.074951171875,-1.77947998046875,1,1.0,1.0,1.0,1.0,70.00
2021-04-16 09:46:15.823,1.1797217,0.8719966,0.4604933,0.47372705,0.8673898,0.026445962,-0.060886785,0.18015374,0.88211286,0.051376075,0.2115777,0.5072405,0.65875524,0.14141156,0.10283166,0.4488793,0.14994226,-0.3603314,-0.21285447,0.4315281,755.09155,784.90845,784.10254,778.0586,819.5604,-0.2081298828125,0.0115966796875,0.95867919921875,4.553375244140625,4.553375244140625,-2.893524169921875,1,1.0,1.0,1.0,1.0,70.00
2021-04-16 09:46:16.339,1.1797217,1.0144404,0.66842747,0.47372705,0.8673898,0.19501641,0.05423141,0.18015374,0.88211286,-0.018913437,0.19946991,0.5072405,0.65875524,0.19516505,0.17625284,0.4488793,0.14994226,-0.30032608,-0.23175912,0.4315281,456.52014,462.16116,502.85715,452.89377,750.65936,-0.33050537109375,0.12908935546875,0.9176025390625,12.015228271484375,4.254302978515625,6.32537841796875,1,1.0,1.0,1.0,1.0,70.00
2021-04-16 09:46:16.489,,,,,,,,,,,,,,,,,,,,,,,,,,,,,,,,,,,,,,/muse/elements/blink
2021-04-16 09:46:16.899,1.1797217,1.115843,0.813059,0.47372705,0.8673898,0.18503912,-0.09421027,0.18015374,0.88211286,-0.05391656,0.15491991,0.5072405,0.65875524,0.2781744,0.20654479,0.4488793,0.14994226,-0.17509107,-0.20829992,0.4315281,749.45056,754.68866,749.0476,766.3736,785.7143,-0.24456787109375,0.0789794921875,0.9176025390625,2.444915771484375,-5.330963134765625,-9.203948974609375,1,1.0,1.0,1.0,1.0,70.00
2021-04-16 09:46:17.032,,,,,,,,,,,,,,,,,,,,,,,,,,,,,,,,,,,,,,/muse/elements/blink
2021-04-16 09:46:17.400,1.1797217,1.115843,0.9056591,0.47372705,0.8673898,0.18503912,-0.26961917,0.18015374,0.88211286,-0.05391656,0.12380415,0.5072405,0.65875524,0.2781744,0.20161122,0.4488793,0.14994226,-0.17509107,-0.2264804,0.4315281,674.5055,645.4945,664.43225,668.86444,827.619,-0.388427734375,0.18145751953125,0.92047119140625,1.973876953125,7.379608154296875,8.202056884765625,1,2.0,1.0,1.0,2.0,70.00
2021-04-16 09:46:17.579,,,,,,,,,,,,,,,,,,,,,,,,,,,,,,,,,,,,,,/muse/elements/blink
2021-04-16 09:46:17.906,1.1797217,1.115843,0.9056591,0.47372705,0.8673898,0.18503912,-0.26961917,0.18015374,0.88211286,-0.05391656,0.12380415,0.5072405,0.65875524,0.2781744,0.20161122,0.4488793,0.14994226,-0.17509107,-0.2264804,0.4315281,758.315,784.5055,783.69965,755.09155,722.0513,-0.345458984375,-0.00762939453125,0.9345703125,-3.282318115234375,-15.230255126953125,-20.35186767578125,1,2.0,1.0,1.0,2.0,70.00
2021-04-16 09:46:18.448,1.1797217,1.115843,0.9056591,0.47372705,0.8673898,0.18503912,-0.26961917,0.18015374,0.88211286,-0.05391656,0.12380415,0.5072405,0.65875524,0.2781744,0.20161122,0.4488793,0.14994226,-0.17509107,-0.2264804,0.4315281,606.8132,653.1502,666.8498,604.7985,875.16486,-0.44512939453125,0.11737060546875,0.92755126953125,6.856231689453125,-1.278533935546875,10.36285400390625,1,2.0,1.0,1.0,2.0,70.00
2021-04-16 09:46:18.733,,,,,,,,,,,,,,,,,,,,,,,,,,,,,,,,,,,,,,/muse/elements/blink
2021-04-16 09:46:18.953,1.1797217,1.115843,0.9056591,0.47372705,0.8673898,0.18503912,-0.26961917,0.18015374,0.88211286,-0.05391656,0.12380415,0.5072405,0.65875524,0.2781744,0.20161122,0.4488793,0.14994226,-0.17509107,-0.2264804,0.4315281,840.10986,835.6777,823.5897,845.34796,1229.7435,-0.3831787109375,0.021240234375,0.931396484375,7.01324462890625,-7.05810546875,4.78515625,1,2.0,1.0,1.0,2.0,70.00
2021-04-16 09:46:19.463,1.1797217,1.115843,0.9056591,0.47372705,0.8673898,0.18503912,-0.26961917,0.18015374,0.88211286,-0.05391656,0.12380415,0.5072405,0.65875524,0.2781744,0.20161122,0.4488793,0.14994226,-0.17509107,-0.2264804,0.4315281,779.67035,811.9048,798.60803,780.07324,916.26373,-0.35894775390625,0.0284423828125,0.9300537109375,5.72723388671875,-6.7291259765625,-0.83740234375,1,2.0,1.0,1.0,2.0,70.00
2021-04-16 09:46:19.979,1.1797217,1.115843,0.9056591,0.47372705,0.8673898,0.18503912,-0.26961917,0.18015374,0.88211286,-0.05391656,0.12380415,0.5072405,0.65875524,0.2781744,0.20161122,0.4488793,0.14994226,-0.17509107,-0.2264804,0.4315281,821.978,818.3516,833.2601,810.293,862.27106,-0.35919189453125,0.0152587890625,0.9415283203125,4.732818603515625,-5.689849853515625,-0.70281982421875,1,2.0,1.0,1.0,2.0,70.00
2021-04-16 09:46:20.492,1.1797217,1.115843,0.9056591,0.47372705,0.8673898,0.18503912,-0.26961917,0.18015374,0.88211286,-0.05391656,0.12380415,0.5072405,0.65875524,0.2781744,0.20161122,0.4488793,0.14994226,-0.17509107,-0.2264804,0.4315281,778.86444,814.7253,793.7729,754.68866,758.71796,-0.333984375,0.0224609375,0.93902587890625,5.719757080078125,-8.590850830078125,1.936492919921875,1,2.0,1.0,1.0,2.0,70.00
2021-04-16 09:46:21.036,1.1797217,1.115843,0.9056591,0.47372705,0.8673898,0.18503912,-0.26961917,0.18015374,0.88211286,-0.05391656,0.12380415,0.5072405,0.65875524,0.2781744,0.20161122,0.4488793,0.14994226,-0.17509107,-0.2264804,0.4315281,656.77655,672.0879,680.14655,650.32965,1208.3883,-0.3277587890625,0.0111083984375,0.94580078125,4.687957763671875,-8.815155029296875,1.83929443359375,1,2.0,1.0,1.0,2.0,60.00
2021-04-16 09:46:21.548,1.1797217,1.115843,0.9056591,0.47372705,0.8673898,0.18503912,-0.26961917,0.18015374,0.88211286,-0.05391656,0.12380415,0.5072405,0.65875524,0.2781744,0.20161122,0.4488793,0.14994226,-0.17509107,-0.2264804,0.4315281,786.9231,857.03296,844.5421,793.36993,714.7985,-0.3126220703125,0.01885986328125,0.9542236328125,5.39825439453125,-4.85992431640625,1.60003662109375,1,2.0,1.0,1.0,2.0,60.00
2021-04-16 09:46:22.083,1.1797217,1.115843,0.9056591,0.47372705,0.8673898,0.18503912,-0.26961917,0.18015374,0.88211286,-0.05391656,0.12380415,0.5072405,0.65875524,0.2781744,0.20161122,0.4488793,0.14994226,-0.17509107,-0.2264804,0.4315281,737.3626,786.9231,806.6667,733.73627,641.4652,-0.31195068359375,0.02227783203125,0.931884765625,5.749664306640625,-1.009368896484375,1.95892333984375,1,2.0,1.0,1.0,2.0,60.00
2021-04-16 09:46:22.618,1.1797217,1.115843,0.9056591,0.47372705,0.8673898,0.18503912,-0.26961917,0.18015374,0.88211286,-0.05391656,0.12380415,0.5072405,0.65875524,0.2781744,0.20161122,0.4488793,0.14994226,-0.17509107,-0.2264804,0.4315281,781.685,798.20514,797.3993,778.46155,1058.9011,-0.33099365234375,0.01898193359375,0.9444580078125,4.299163818359375,-3.93280029296875,0.441131591796875,1,2.0,1.0,1.0,2.0,60.00
2021-04-16 09:46:23.135,1.1797217,1.115843,0.9056591,0.47372705,0.8673898,0.18503912,-0.26961917,0.18015374,0.88211286,-0.05391656,0.12380415,0.5072405,0.65875524,0.2781744,0.20161122,0.4488793,0.14994226,-0.17509107,-0.2264804,0.4315281,753.47986,757.1062,732.1245,748.24176,770.40295,-0.36016845703125,0.0157470703125,0.93963623046875,4.41131591796875,-4.029998779296875,1.158905029296875,1,2.0,1.0,1.0,2.0,60.00
2021-04-16 09:46:23.638,1.1797217,1.115843,0.9056591,0.47372705,0.8673898,0.18503912,-0.26961917,0.18015374,0.88211286,-0.05391656,0.12380415,0.5072405,0.65875524,0.2781744,0.20161122,0.4488793,0.14994226,-0.17509107,-0.2264804,0.4315281,820.7692,815.12823,809.4872,804.65204,811.0989,-0.3670654296875,0.0076904296875,0.93560791015625,4.448699951171875,-5.031890869140625,1.472930908203125,1,2.0,1.0,1.0,2.0,60.00
2021-04-16 09:46:24.143,1.1797217,1.115843,0.9056591,0.47372705,0.8673898,0.18503912,-0.26961917,0.18015374,0.88211286,-0.05391656,0.12380415,0.5072405,0.65875524,0.2781744,0.20161122,0.4488793,0.14994226,-0.17509107,-0.2264804,0.4315281,827.2161,834.87177,843.73627,NaN,768.3883,-0.36474609375,0.013427734375,0.9300537109375,5.57769775390625,-3.96270751953125,1.4056396484375,1,2.0,1.0,1.0,2.0,60.00
2021-04-16 09:46:24.658,1.1797217,1.115843,0.9056591,0.47372705,0.8673898,0.18503912,-0.26961917,0.18015374,0.88211286,-0.05391656,0.12380415,0.5072405,0.65875524,0.2781744,0.20161122,0.4488793,0.14994226,-0.17509107,-0.2264804,0.4315281,867.50916,844.94507,840.10986,867.9121,754.2857,-0.384033203125,0.01007080078125,0.92608642578125,4.284210205078125,-4.104766845703125,-0.261688232421875,1,2.0,1.0,1.0,2.0,60.00
2021-04-16 09:46:25.191,1.1797217,1.9002823,0.95713127,0.47372705,0.8673898,1.2339605,0.5818657,0.18015374,0.88211286,1.3361758,0.18957502,0.5072405,0.65875524,0.6220948,0.08057674,0.4488793,0.14994226,0.24021652,0.036458913,0.4315281,840.9158,831.6484,830.84247,837.28937,762.74725,-0.37066650390625,0.01666259765625,0.9327392578125,4.314117431640625,-5.271148681640625,0.097198486328125,1,2.0,1.0,1.0,2.0,60.00
2021-04-16 09:46:25.695,1.1797217,1.6262203,0.7919769,0.47372705,0.8673898,0.978182,0.5180232,0.18015374,0.88211286,1.3405014,0.25975373,0.5072405,0.65875524,0.4972579,0.20797591,0.4488793,0.14994226,0.015819283,-0.07608127,0.4315281,807.8755,808.2784,842.1245,803.8461,885.2381,-0.3729248046875,0.00347900390625,0.93377685546875,4.792633056640625,-4.388885498046875,0.635528564453125,1,2.0,1.0,1.0,2.0,60.00
2021-04-16 09:46:26.210,1.1797217,1.4950141,0.7451278,0.47372705,0.8673898,0.8611207,0.52547544,0.18015374,0.88211286,1.3405014,0.25975373,0.5072405,0.65875524,0.42924756,0.20371501,0.4488793,0.14994226,-0.082450524,-0.101004764,0.4315281,815.12823,813.1135,819.9634,816.7399,787.72894,-0.38214111328125,0.011962890625,0.92315673828125,3.99261474609375,-2.968292236328125,1.86920166015625,1,2.0,1.0,1.0,2.0,60.00
2021-04-16 09:46:26.736,1.1797217,0.6790529,0.56328684,0.47372705,0.8673898,0.16599867,0.3754605,0.18015374,0.88211286,0.54003567,0.38533568,0.5072405,0.65875524,0.23138745,0.22352101,0.4488793,0.14994226,-0.40946043,-0.1266999,0.4315281,796.5934,800.6227,810.696,807.0696,706.7399,-0.37457275390625,-0.0028076171875,0.92889404296875,4.777679443359375,-5.719757080078125,1.413116455078125,1,2.0,1.0,1.0,2.0,60.00
2021-04-16 09:46:27.265,1.1797217,0.6174277,0.61172456,0.47372705,0.8673898,0.14043698,0.24226904,0.18015374,0.88211286,0.44637126,0.4240824,0.5072405,0.65875524,0.14788148,0.12151985,0.4488793,0.14994226,-0.42420244,-0.08602953,0.4315281,823.5897,797.8022,818.7546,832.4542,861.06226,-0.37567138671875,-0.0045166015625,0.9254150390625,4.306640625,-5.450592041015625,0.934600830078125,1,2.0,1.0,1.0,2.0,60.00
2021-04-16 09:46:27.782,1.1797217,0.73139006,0.7114048,0.47372705,0.8673898,0.066868044,0.21464561,0.18015374,0.88211286,0.4481899,0.4787166,0.5072405,0.65875524,0.0815049,0.14244872,0.4488793,0.14994226,-0.4190942,-0.11941325,0.4315281,827.619,848.1685,805.05493,799.41394,775.64105,-0.37957763671875,-0.00921630859375,0.9278564453125,4.844970703125,-4.47113037109375,0.478515625,1,2.0,1.0,1.0,2.0,60.00
2021-04-16 09:46:28.284,1.1797217,0.70049787,0.8525362,0.47372705,0.8673898,0.14218612,0.36123976,0.18015374,0.88211286,0.565155,0.4699049,0.5072405,0.65875524,0.011994462,0.12839082,0.4488793,0.14994226,-0.47026256,-0.18609023,0.4315281,835.2747,814.3223,798.20514,821.1722,768.3883,-0.3804931640625,-0.010009765625,0.92498779296875,4.089813232421875,-4.5159912109375,0.605621337890625,1,2.0,1.0,1.0,2.0,60.00
2021-04-16 09:46:28.797,0.80345756,0.714991,0.9475611,0.7934433,0.049826413,0.17513873,0.5506238,0.42807677,0.5892106,0.56007814,0.6162919,0.9211051,0.27498406,0.03925518,0.17053649,0.46797276,0.25349337,-0.43117085,-0.21651112,0.29081383,815.5311,818.3516,826.0073,813.1135,757.50916,-0.38507080078125,-0.013427734375,0.92755126953125,4.32159423828125,-3.491668701171875,0.55328369140625,1,1.0,1.0,1.0,1.0,60.00
2021-04-16 09:46:29.299,0.7156816,0.9658319,1.0695884,0.81145513,5.7360204E-4,0.4129343,0.64005864,0.3601047,0.515352,0.603004,0.61745983,0.9215776,0.2502114,0.03268613,0.114648245,0.52060556,0.25375518,-0.4248012,-0.26158705,0.33660132,821.1722,807.8755,838.9011,817.5458,677.72894,-0.37518310546875,-0.01171875,0.93072509765625,4.90478515625,-6.362762451171875,0.201873779296875,1,1.0,1.0,1.0,1.0,60.00
2021-04-16 09:46:29.830,0.64032924,1.0425684,0.92245877,0.8122848,-0.08286152,0.51970017,0.5515148,0.36794874,0.49369618,0.5634482,0.5719755,0.9215776,0.15964188,0.018479766,0.094109945,0.5385431,0.2373787,-0.39060405,-0.35387793,0.33856675,820.3663,791.75824,820.7692,817.1429,889.2674,-0.3751220703125,-7.32421875E-4,0.93243408203125,4.329071044921875,-1.443023681640625,0.83740234375,1,1.0,1.0,1.0,1.0,60.00
2021-04-16 09:46:30.343,0.64032924,1.1814433,0.92426693,0.82440656,-0.08286152,0.57732457,0.55591047,0.322676,0.49369618,0.5241617,0.61794007,0.5602791,0.15964188,0.016539825,0.057086635,0.5799303,0.2373787,-0.36567056,-0.45515224,0.3677139,802.23444,818.3516,809.4872,784.5055,715.6044,-0.41265869140625,-0.01165771484375,0.91192626953125,3.887939453125,-5.3533935546875,1.607513427734375,1,1.0,1.0,1.0,1.0,60.00
2021-04-16 09:46:30.899,0.64032924,1.1958314,0.7908591,1.1988014,-0.08286152,0.65171,0.4471415,0.74024534,0.49369618,0.6592,0.5005832,0.70519674,0.15964188,-0.0031707722,0.06673925,0.52254796,0.2373787,-0.26820987,-0.46333814,0.31216678,816.337,818.3516,830.0366,817.1429,691.4286,-0.38238525390625,-0.01702880859375,0.93109130859375,4.179534912109375,-6.8487548828125,1.248626708984375,1,1.0,1.0,1.0,1.0,60.00
2021-04-16 09:46:31.450,0.64032924,1.2089245,1.037999,1.2457191,-0.08286152,0.6648985,0.5243536,0.75667334,0.49369618,0.6710574,0.58746755,0.6835983,0.15964188,-0.009324029,0.03306264,0.5114348,0.2373787,-0.22916418,-0.37367705,0.29538354,830.84247,820.7692,819.9634,821.1722,733.3333,-0.377685546875,-0.0135498046875,0.92572021484375,5.001983642578125,-4.56085205078125,2.385101318359375,1,1.0,1.0,1.0,1.0,65.00
2021-04-16 09:46:31.966,0.97542876,1.1211358,0.98614424,1.1088599,0.27756637,0.60259426,0.36676836,0.6249704,0.8259876,0.6710574,0.57160485,0.8754786,0.3663431,0.03786074,0.089946546,0.5105459,0.22485793,-0.14318813,-0.3497345,0.37070808,816.337,816.337,828.022,814.7253,805.4579,-0.38128662109375,-0.01422119140625,0.92169189453125,4.90478515625,-4.9346923828125,1.428070068359375,1,1.0,1.0,1.0,1.0,65.00
2021-04-16 09:46:32.485,1.0247893,1.0204196,0.7617398,1.0944607,0.33510363,0.5469444,0.10695796,0.60195726,0.9637404,0.6710574,0.36515892,0.88041884,0.37202978,0.03203728,0.05633301,0.5049579,0.19812188,-0.1564338,-0.30039468,0.36636126,804.65204,808.2784,813.91943,805.8608,759.12085,-0.37371826171875,-0.0146484375,0.92913818359375,5.24871826171875,-5.360870361328125,0.665435791015625,1,1.0,1.0,1.0,1.0,65.00
2021-04-16 09:46:33.010,1.038638,1.3000906,1.2938151,0.7933104,0.3242319,0.7494547,0.72754985,0.30861422,0.95767385,1.3699522,1.4030174,0.8332577,0.37282604,0.28958386,0.31290948,0.514905,0.23282892,-0.059295528,-0.07035986,0.40015188,813.5165,806.26373,805.8608,816.7399,1137.0696,-0.3665771484375,-0.01263427734375,0.92376708984375,4.358978271484375,-4.747772216796875,0.88226318359375,1,1.0,1.0,1.0,1.0,65.00
2021-04-16 09:46:33.513,1.054871,1.2979342,1.29953,0.72757924,0.3313697,0.73540175,0.73467225,0.2794085,0.97037834,1.3699522,1.4030174,0.7645399,0.4504863,0.27301624,0.2826908,0.64225084,0.27397728,-0.14358363,-0.070439555,0.4262723,801.02563,813.91943,806.26373,803.8461,707.5458,-0.37371826171875,-0.0086669921875,0.93505859375,4.53094482421875,-3.880462646484375,2.385101318359375,1,1.0,1.0,1.0,1.0,65.00
2021-04-16 09:46:34.056,1.0783615,1.3079422,1.3059529,0.71907645,0.41871378,0.7249939,0.736653,0.5091281,1.035378,1.3717424,1.4064976,0.8828661,0.5069788,0.32013687,0.35559362,0.74530977,0.34973308,-0.051082578,0.003625441,0.5612064,786.1172,809.0842,810.293,786.1172,641.8681,-0.3695068359375,-0.00592041015625,0.93310546875,4.358978271484375,-4.658050537109375,0.657958984375,1,1.0,1.0,1.0,1.0,65.00
2021-04-16 09:46:34.601,0.93677115,1.1565546,1.1715652,0.94071794,0.3831706,0.67154026,0.683954,0.586947,0.9242957,1.5216209,1.4561012,1.0985532,0.5556171,0.2759362,0.3465524,0.7020485,0.2615587,-0.09889568,-0.1100552,0.5100545,805.05493,820.7692,811.9048,795.78754,797.3993,-0.3736572265625,-0.0157470703125,0.92633056640625,4.493560791015625,-5.084228515625,0.91217041015625,1,1.0,1.0,1.0,1.0,65.00
2021-04-16 09:46:35.114,1.1621965,1.2170589,1.2181334,1.0092862,0.5960013,0.7121603,0.7766785,0.6936465,1.0998466,1.5216209,1.4561012,1.1259502,0.53446954,0.2730347,0.3922033,0.6400569,0.18596166,-0.05943694,-0.08417816,0.4761,818.7546,790.54944,801.8315,824.7985,887.6557,-0.37353515625,-0.0145263671875,0.929931640625,4.209442138671875,-4.807586669921875,0.777587890625,1,1.0,1.0,1.0,1.0,65.00
2021-04-16 09:46:35.626,1.580751,1.5260508,1.5980127,1.0462198,1.0839361,1.0276119,1.0619327,0.6817697,1.5274941,1.5707839,1.515379,1.0901575,0.6347883,0.5526519,0.5986661,0.5914636,0.28626615,-0.015588535,-0.025463795,0.38820702,819.15753,785.31134,828.022,832.8571,733.73627,-0.3792724609375,-0.01898193359375,0.927734375,4.71038818359375,-4.17205810546875,0.770111083984375,1,1.0,1.0,1.0,1.0,65.00
2021-04-16 09:46:36.140,1.840448,1.6245883,1.6890929,0.99423504,1.3366694,1.1013213,1.0980756,0.5794544,1.5274941,1.4549387,1.4155117,1.008552,0.7584475,0.80620116,0.6825084,0.6837998,0.43700695,0.20876439,0.0034836412,0.38432315,810.293,797.8022,799.81683,801.8315,583.8461,-0.37841796875,-0.0224609375,0.92822265625,5.166473388671875,-5.166473388671875,1.248626708984375,1,1.0,1.0,1.0,1.0,65.00
2021-04-16 09:46:36.680,1.840448,1.1581402,1.1493441,0.99423504,1.3366694,0.5849,0.42716914,0.5794544,1.5274941,1.1726987,0.62676597,1.008552,0.7584475,0.6358437,0.20704824,0.6837998,0.43700695,0.24510263,-0.48853603,0.38432315,780.07324,800.6227,798.20514,781.28204,732.9304,-0.379638671875,-0.0167236328125,0.92724609375,4.53094482421875,-4.0673828125,0.97198486328125,1,1.0,1.0,1.0,1.0,65.00
2021-04-16 09:46:37.193,1.840448,0.7590237,0.8790963,0.99423504,1.3366694,0.31298852,0.3374375,0.5794544,1.5274941,0.99754995,0.62516385,1.008552,0.7584475,0.271968,0.24813685,0.6837998,0.43700695,-0.031612877,-0.5031287,0.38432315,803.44324,800.2198,799.81683,802.23444,717.2161,-0.3687744140625,-0.01617431640625,0.9296875,4.777679443359375,-6.213226318359375,0.538330078125,1,1.0,1.0,1.0,1.0,65.00
2021-04-16 09:46:37.708,1.2856891,0.6201791,0.7855057,1.071439,0.5925333,0.26692548,0.2337079,0.64699215,0.8587532,0.99754995,0.6265416,0.77742517,0.54793406,0.22116251,0.20106861,0.7498034,0.2553548,-0.13071887,-0.38829046,0.56564826,826.0073,805.4579,809.0842,837.28937,1046.4103,-0.375732421875,-0.01593017578125,0.9266357421875,4.807586669921875,-4.4561767578125,0.216827392578125,1,1.0,1.0,1.0,1.0,65.00
2021-04-16 09:46:38.231,0.8732961,0.3453742,0.4352343,0.8353394,0.18991117,-0.014595298,0.022113768,0.47095355,0.7519154,0.1364599,0.11639697,0.6138761,0.34921834,-0.052538894,0.05725324,0.64053583,0.32368204,-0.40463072,-0.37329003,0.3901046,821.978,802.23444,804.65204,825.6044,1008.93774,-0.37481689453125,-0.0167236328125,0.93145751953125,4.523468017578125,-5.33843994140625,1.1663818359375,1,1.0,1.0,1.0,1.0,65.00
2021-04-16 09:46:38.747,0.68990666,0.40917376,0.3819176,0.720057,0.3228318,-0.06589351,-0.20097399,0.48580557,0.7859246,0.33374146,0.23623544,0.613881,0.36839643,0.041471917,-0.068773165,0.51320493,0.29209137,-0.41795725,-0.35831645,0.3575791,840.9158,822.381,827.2161,831.6484,736.9597,-0.37237548828125,-0.0145263671875,0.916015625,9.21142578125,-8.5235595703125,-0.9869384765625,1,1.0,1.0,1.0,1.0,65.00
2021-04-16 09:46:39.256,0.47830558,0.44043598,0.34654754,0.5737532,0.38635322,-0.034122553,-0.036637023,0.48334128,0.7248947,0.32856908,0.31953597,0.28713143,0.30956355,0.02686878,-0.094316475,0.27930674,0.30812672,-0.2631787,-0.46869403,0.3468644,760.7326,812.71063,820.7692,750.65936,693.8461,-0.26788330078125,0.01312255859375,0.96893310546875,2.145843505859375,-3.4991455078125,1.248626708984375,1,1.0,1.0,1.0,1.0,65.00
2021-04-16 09:46:39.760,0.2792134,0.3788418,0.43168402,0.47954237,0.4654398,0.087653354,0.07450669,0.5171543,0.57499826,0.3650527,0.30301625,0.26271537,0.34354675,0.10707143,-0.043846145,0.20613307,0.21858028,-0.2848792,-0.43901625,0.327638,813.1135,812.3077,807.0696,816.7399,741.39197,-0.352783203125,0.03857421875,0.93829345703125,8.5833740234375,1.218719482421875,0.97198486328125,1,1.0,1.0,1.0,1.0,65.00
2021-04-16 09:46:40.276,0.51665294,0.5821399,0.6830266,0.5279401,0.58190894,0.28261036,0.2908278,0.56530595,0.57499826,0.31204236,0.37990025,0.26271537,0.22292858,0.10758849,-0.020938732,0.18918157,0.12709185,-0.3069216,-0.37156373,0.35019594,816.7399,810.293,809.0842,812.3077,741.79486,-0.36474609375,0.00347900390625,0.9306640625,2.998199462890625,-4.777679443359375,-1.428070068359375,1,1.0,1.0,1.0,1.0,65.00
2021-04-16 09:46:40.808,0.51665294,0.62446314,0.6680942,0.5279401,0.58190894,0.21256174,0.22111224,0.56530595,0.57499826,0.28938174,0.39477408,0.26271537,0.22292858,0.0480199,-0.05037678,0.18918157,0.12709185,-0.49946046,-0.37757438,0.35019594,819.5604,804.65204,804.65204,815.9341,772.4176,-0.41064453125,0.01251220703125,0.91314697265625,3.656158447265625,-4.0374755859375,2.10845947265625,1,1.0,1.0,1.0,1.0,65.00
2021-04-16 09:46:41.327,0.6780599,0.5205853,0.55409926,0.5279401,0.07541945,0.07899528,0.07637721,0.56530595,0.16692358,0.25897908,0.40462604,0.26271537,0.13950667,-0.17089613,-0.010329124,0.18918157,0.010633178,-0.5071078,-0.39645898,0.35019594,792.96704,809.0842,806.6667,793.7729,697.0696,-0.39990234375,0.00311279296875,0.91717529296875,4.14215087890625,-7.01324462890625,1.428070068359375,1,1.0,1.0,1.0,1.0,70.00
2021-04-16 09:46:41.849,0.5901737,0.19885297,0.2529133,0.5279401,0.0074248724,-0.19647633,-0.15897931,0.56530595,0.26693282,0.07672116,0.18586889,0.26271537,0.22190417,-0.03963758,-0.018281512,0.18918157,-0.003050151,-0.49626985,-0.48941022,0.35019594,806.26373,816.7399,814.3223,800.2198,809.89014,-0.37103271484375,0.00592041015625,0.92816162109375,4.2767333984375,-6.2506103515625,0.515899658203125,1,1.0,1.0,1.0,1.0,70.00
2021-04-16 09:46:42.423,0.54302764,0.18391219,0.23753144,0.3770231,-0.03476899,-0.18860538,-0.3272209,0.0033103842,0.29737905,0.029884655,0.1433321,0.4561193,0.25562042,-0.013430006,-0.023636375,0.47761065,-0.08715696,-0.45776418,-0.416493,0.3894451,802.23444,808.2784,805.05493,795.78754,672.0879,-0.382568359375,0.00225830078125,0.92333984375,5.06927490234375,-4.523468017578125,0.934600830078125,1,1.0,1.0,1.0,1.0,70.00
2021-04-16 09:46:42.956,0.33855575,0.4361848,0.47640717,0.3770231,-0.056704793,-0.116972595,-0.2551896,0.0033103842,0.24520484,0.22398719,-0.033155564,0.4561193,0.36939073,-0.020034676,-0.032369696,0.47761065,0.03734947,-0.4716369,-0.39198342,0.3894451,817.1429,801.4286,800.2198,825.2015,713.1868,-0.38397216796875,0.00543212890625,0.93231201171875,4.50103759765625,-5.6524658203125,1.772003173828125,1,1.0,1.0,1.0,1.0,70.00
2021-04-16 09:46:43.509,0.31606165,0.45528138,0.54951626,0.3770231,-0.019271111,-0.048069924,-0.22280496,0.0033103842,0.24520484,0.19552857,0.02539283,0.4561193,0.38158265,-0.17069253,0.013639728,0.47761065,0.0685865,-0.423152,-0.3174349,0.3894451,763.95605,779.2674,840.10986,774.0293,715.2015,-0.3824462890625,0.00787353515625,0.92596435546875,4.59075927734375,-4.8150634765625,0.7177734375,1,1.0,1.0,1.0,1.0,70.00
2021-04-16 09:46:44.023,0.31606165,0.49677467,0.59735763,0.3770231,-0.019271111,-0.013387932,-0.2016016,0.0033103842,0.24520484,0.19552857,0.016631491,0.4561193,0.38158265,-0.20827436,0.01101525,0.47761065,0.0685865,-0.45707515,-0.34463167,0.3894451,820.7692,810.696,803.44324,813.1135,762.3443,-0.37823486328125,-8.544921875E-4,0.93048095703125,4.568328857421875,-5.420684814453125,0.829925537109375,1,1.0,1.0,1.0,1.0,70.00
2021-04-16 09:46:44.538,0.31606165,0.33155438,0.5905581,0.3770231,-0.019271111,-0.09309227,-0.270421,0.0033103842,0.24520484,0.18780471,-0.04038892,0.4561193,0.38158265,-0.2109231,0.026009718,0.47761065,0.0685865,-0.37085992,-0.3154448,0.3894451,810.293,819.9634,804.2491,795.78754,735.34796,-0.37542724609375,-0.0010986328125,0.9307861328125,4.777679443359375,-3.9178466796875,1.143951416015625,1,1.0,1.0,1.0,1.0,70.00
2021-04-16 09:46:45.072,0.31606165,0.12980191,0.44240034,0.3770231,-0.019271111,-0.1525182,-0.20736934,0.0033103842,0.24520484,0.1006216,-0.053140678,0.4561193,0.38158265,-0.18088648,0.060873426,0.47761065,0.0685865,-0.33003464,-0.27655426,0.3894451,807.47253,807.0696,811.9048,802.6374,673.2967,-0.38568115234375,-0.0023193359375,0.92645263671875,4.74029541015625,-5.375823974609375,1.562652587890625,1,2.0,1.0,1.0,2.0,70.00
2021-04-16 09:46:45.593,0.688849,0.061545752,0.15937282,0.87304896,0.3076449,-0.025945393,-0.08584267,0.30368838,1.3985436,-0.5448716,0.078957684,1.3011587,0.77208585,0.09903852,-0.043333035,0.7961449,0.18143451,-0.2424077,-0.35707927,0.41970003,800.2198,799.011,798.20514,803.0403,712.7839,-0.37451171875,-0.007568359375,0.92889404296875,4.463653564453125,-5.8319091796875,1.054229736328125,1,1.0,1.0,1.0,1.0,70.00
2021-04-16 09:46:46.125,0.6411767,0.106317274,0.11318357,0.77262896,0.25209045,-0.061464038,-0.085999876,0.25733003,1.398631,-0.27863437,0.2482351,1.3011587,0.63338023,0.0918264,0.025050778,0.7172104,0.15834674,-0.3207178,-0.34333414,0.3414544,795.78754,788.1319,817.5458,799.81683,1156.4103,-0.39849853515625,-0.00799560546875,0.92376708984375,6.639404296875,1.3458251953125,-2.684173583984375,1,1.0,1.0,1.0,1.0,70.00
2021-04-16 09:46:46.669,0.6411767,0.73355013,0.21393844,0.6261317,0.25209045,0.3376154,0.18777736,0.2526849,1.398631,0.29984802,0.4269075,1.2909237,0.63338023,0.08167183,0.059413288,0.7239814,0.15834674,-0.37271577,-0.34976995,0.30530006,801.8315,802.6374,798.20514,796.5934,728.0952,-0.4312744140625,-0.01373291015625,0.899658203125,4.673004150390625,-5.659942626953125,0.8074951171875,1,1.0,1.0,1.0,1.0,70.00
2021-04-16 09:46:47.202,0.57868856,0.81357133,0.3949727,0.3738716,0.21434215,0.34519795,0.29608616,0.16945054,1.1187763,0.35135886,0.44290125,1.159007,0.44356516,0.0977335,0.03213834,0.53568774,0.12575524,-0.38706213,-0.2362591,0.11102274,790.54944,782.8938,810.696,802.6374,1063.3334,-0.41436767578125,-0.00750732421875,0.91534423828125,4.628143310546875,-4.972076416015625,1.039276123046875,1,1.0,1.0,1.0,1.0,70.00
2021-04-16 09:46:47.710,1.2016666,0.81945443,0.6718522,0.7226939,0.6345559,0.3729089,0.44696504,0.5652394,1.1883347,0.43752497,0.43479198,1.1693789,0.25857848,0.025972575,-0.023021396,0.28304687,0.20440228,-0.3636572,-0.19223881,0.5551116,822.7839,815.5311,807.47253,819.9634,706.337,-0.40155029296875,-0.00775146484375,0.9169921875,4.583282470703125,-6.332855224609375,0.695343017578125,1,1.0,1.0,1.0,1.0,70.00
2021-04-16 09:46:48.218,1.1658767,0.44012725,0.61996645,0.99280804,0.7538103,0.014235865,0.32484207,0.7282199,1.2154794,0.3919578,0.19254594,1.2366581,0.295854,-0.0033179864,-0.0016087795,0.40136716,0.10154344,-0.42672327,-0.25374484,0.44371805,826.4103,804.65204,809.0842,826.4103,761.53845,-0.39105224609375,-0.01031494140625,0.91436767578125,4.97955322265625,-4.777679443359375,0.994415283203125,1,1.0,1.0,1.0,1.0,70.00
2021-04-16 09:46:48.745,1.1509134,0.3777012,0.5714898,1.0488642,0.77149564,0.13081339,0.3218496,0.7718791,1.2355717,0.36395028,0.25863758,1.2423669,0.28056648,-0.021231847,0.029598147,0.40113288,0.03257732,-0.46230444,-0.30593392,0.415422,799.81683,800.6227,796.5934,794.57874,825.6044,-0.3924560546875,-0.007080078125,0.92083740234375,4.56085205078125,-4.844970703125,0.94207763671875,1,1.0,1.0,1.0,1.0,70.00
2021-04-16 09:46:49.272,1.1153901,0.37624353,0.19015813,1.1727408,0.7845098,-0.00787882,0.06449865,0.86412054,1.1434494,0.25221825,0.32003933,1.1344906,0.28505218,0.03378969,0.029899955,0.4613754,-0.07894879,-0.5951037,-0.41997516,0.29787612,815.12823,803.0403,798.20514,801.02563,839.707,-0.39410400390625,-0.01226806640625,0.9212646484375,4.80010986328125,-4.658050537109375,0.95703125,1,1.0,1.0,1.0,1.0,70.00
2021-04-16 09:46:49.798,0.84214264,0.2863206,0.2016182,0.94069487,0.50852436,-0.10761037,0.09827912,0.70570457,1.0409588,0.08113273,0.31095567,0.9800026,0.21534695,0.040412612,0.09582737,0.48097423,0.04789496,-0.5335917,-0.40183964,0.28579506,806.6667,813.1135,807.8755,806.26373,741.39197,-0.3907470703125,-0.0128173828125,0.9229736328125,4.149627685546875,-3.970184326171875,1.27105712890625,1,1.0,1.0,1.0,1.0,70.00
2021-04-16 09:46:50.313,0.18051185,0.23518194,0.09495808,0.35933533,0.12717746,-0.25333968,-0.0715482,0.48319116,0.3164008,-0.13370606,0.29291695,0.25217876,0.25184312,-0.010427378,0.15849349,0.5254943,0.04766254,-0.38006297,-0.37493226,0.21104473,810.293,807.47253,811.9048,794.57874,759.5238,-0.4122314453125,0.00213623046875,0.9193115234375,7.274932861328125,-3.84307861328125,3.342132568359375,1,1.0,1.0,1.0,1.0,70.00
2021-04-16 09:46:50.840,0.18881048,0.015736947,-0.104462095,0.35885027,0.069261916,-0.01689021,-0.10821085,0.44032392,0.36929232,0.0490873,0.16035743,0.27878973,0.27266902,0.029606357,0.11615366,0.51572716,0.020364596,-0.33994272,-0.40912294,0.1850354,815.12823,809.89014,813.5165,822.381,762.74725,-0.4248046875,-0.0185546875,0.9332275390625,3.446807861328125,-4.553375244140625,-7.394561767578125,1,1.0,1.0,1.0,1.0,70.00
2021-04-16 09:46:51.348,0.4598501,-0.07280392,-0.09746229,0.43539852,0.13728602,-0.02179006,-0.028709479,0.37999114,0.5589319,0.044632066,0.116276085,0.32777837,0.32617822,0.036555253,0.010887767,0.5358457,-0.06173054,-0.32778913,-0.4158918,0.08378439,811.50183,807.0696,814.3223,817.9487,1019.81683,-0.364990234375,0.0791015625,0.981689453125,7.91046142578125,-11.162872314453125,15.290069580078125,1,1.0,1.0,1.0,1.0,70.00
2021-04-16 09:46:51.858,0.6199676,-0.09316729,0.08380335,0.6038604,0.14829732,-0.037897587,0.036136046,0.2962181,0.56713665,0.12162799,0.07342548,0.5485662,0.3930004,0.0054220827,-0.06782286,0.519157,0.05651907,-0.31097654,-0.5025545,0.12542967,799.011,825.2015,811.9048,799.81683,704.7253,-0.35443115234375,0.030029296875,0.9144287109375,-3.117828369140625,1.2261962890625,-7.738494873046875,1,1.0,1.0,1.0,1.0,65.00
2021-04-16 09:46:52.381,0.7544687,-0.0950065,0.2552801,0.7114711,0.2564064,-0.26391262,0.09585189,0.27322474,0.56713665,0.14915971,0.21887393,0.5485662,0.42349806,-0.036232747,-0.009730213,0.5217452,0.11700033,-0.25056297,-0.29710105,0.11774461,763.95605,785.7143,802.6374,745.82416,955.7509,-0.31597900390625,0.12933349609375,0.9793701171875,13.20404052734375,1.86920166015625,4.56085205078125,1,1.0,1.0,1.0,1.0,65.00
2021-04-16 09:46:52.909,0.7734836,0.22528239,0.40178692,0.768679,0.30539727,-0.099984445,-0.077384934,0.26369646,0.5505349,0.23139115,0.22545412,0.5008544,0.49504852,0.06956494,0.038519707,0.42592224,0.2237311,-0.17143111,-0.14023142,0.27798003,721.2454,766.77655,775.64105,709.5604,828.022,-0.38824462890625,0.0152587890625,0.9134521484375,1.547698974609375,-6.826324462890625,-2.265472412109375,1,1.0,1.0,1.0,1.0,65.00
2021-04-16 09:46:53.417,0.7734836,0.38348514,0.69769907,0.768679,0.30539727,-0.08118906,-0.04855008,0.26369646,0.5505349,0.22625044,0.22545412,0.5008544,0.49504852,0.16652317,0.04298855,0.42592224,0.2237311,-0.22785163,-0.08437218,0.27798003,819.9634,808.2784,789.34064,805.4579,716.0073,-0.39862060546875,0.02069091796875,0.9183349609375,4.007568359375,-4.66552734375,-0.478515625,1,1.0,1.0,1.0,1.0,65.00
2021-04-16 09:46:53.960,0.7734836,1.1570511,0.79829127,0.768679,0.30539727,0.14344615,-0.0015560719,0.26369646,0.5505349,0.33488506,0.2093725,0.5008544,0.49504852,0.32800207,0.021872472,0.42592224,0.2237311,-0.30190873,-0.17305148,0.27798003,840.9158,848.1685,773.6264,791.3553,841.7216,-0.39227294921875,0.01739501953125,0.91912841796875,4.254302978515625,-4.71038818359375,-1.2261962890625,1,1.0,1.0,1.0,1.0,65.00
2021-04-16 09:46:54.469,0.7734836,1.1570511,0.9383018,0.768679,0.30539727,0.14344615,0.1011928,0.26369646,0.5505349,0.33488506,0.08416506,0.5008544,0.49504852,0.32800207,0.0024534992,0.42592224,0.2237311,-0.30190873,-0.2124574,0.27798003,821.1722,800.6227,807.0696,825.6044,1054.0659,-0.395751953125,7.32421875E-4,0.91864013671875,4.2767333984375,-5.959014892578125,1.68975830078125,1,2.0,1.0,1.0,2.0,65.00
2021-04-16 09:46:55.002,0.7734836,1.1570511,0.7212085,0.768679,0.30539727,0.14344615,0.097673506,0.26369646,0.5505349,0.33488506,0.07772037,0.5008544,0.49504852,0.32800207,-1.0942474E-4,0.42592224,0.2237311,-0.30190873,-0.16952446,0.27798003,831.6484,809.0842,809.89014,813.1135,736.1539,-0.39111328125,0.0023193359375,0.925048828125,3.36456298828125,-5.2935791015625,-0.201873779296875,1,2.0,1.0,1.0,2.0,65.00
2021-04-16 09:46:55.545,0.7734836,0.5103955,0.5229453,0.8156124,0.30539727,-0.08443761,0.31305018,1.0293071,0.5505349,0.31377214,0.34866112,1.1508784,0.49504852,-0.010338657,0.07710541,0.5554724,0.2237311,-0.45791206,-0.36494017,0.4906969,775.64105,809.4872,807.8755,787.326,763.5531,-0.38873291015625,-0.0087890625,0.92218017578125,3.94775390625,-4.9346923828125,0.70281982421875,1,1.0,1.0,1.0,1.0,65.00
2021-04-16 09:46:56.087,0.77010036,0.5615082,0.5934947,0.96016985,1.0615039,0.017869268,0.27944568,1.1063633,1.5651553,0.34121275,0.41289574,1.3997703,0.3826767,0.03631102,0.09935142,0.64194757,0.33559638,-0.41343185,-0.3701907,0.53398585,786.9231,814.3223,811.9048,790.54944,732.52747,-0.38214111328125,-0.006103515625,0.92626953125,4.059906005859375,-4.59075927734375,0.777587890625,1,1.0,1.0,1.0,1.0,65.00
2021-04-16 09:46:56.627,0.717857,0.5283837,0.6576445,0.92410934,1.0475614,0.019705223,0.23785177,1.0270728,1.5893462,0.3746463,0.41499186,1.4939629,0.52613163,-0.0055790837,0.023019945,0.7372185,0.2931585,-0.35395247,-0.39269912,0.5838131,803.0403,804.2491,807.47253,809.4872,706.337,-0.385009765625,-0.00958251953125,0.92340087890625,4.643096923828125,-3.09539794921875,0.538330078125,1,1.0,1.0,1.0,1.0,65.00
2021-04-16 09:46:57.141,0.90338206,0.67106867,0.76766765,1.0741004,0.95699084,0.05265466,0.3386614,0.86871374,1.5439965,0.2686598,0.494185,1.501916,0.5808365,-0.018417219,0.045231465,0.81075275,0.18012188,-0.30664384,-0.43087268,0.54735225,817.5458,813.91943,808.2784,813.1135,664.83514,-0.38348388671875,-0.0098876953125,0.92303466796875,4.463653564453125,-4.807586669921875,1.435546875,1,1.0,1.0,1.0,1.0,65.00
2021-04-16 09:46:57.678,0.85914356,0.63803977,0.7399817,0.9838405,0.76302457,-0.059411142,0.3444681,0.7208686,1.487438,0.09155965,0.49589285,1.4436735,0.60526335,-0.06237627,-0.034979198,0.8176462,0.28946024,-0.30373088,-0.39901248,0.54643553,806.6667,811.0989,801.02563,800.2198,758.315,-0.38531494140625,-0.0096435546875,0.92620849609375,5.286102294921875,-5.196380615234375,1.256103515625,1,1.0,1.0,1.0,1.0,65.00
2021-04-16 09:46:58.199,0.78167737,0.43633667,0.48009107,0.8170009,0.41591033,-0.11934569,0.21400316,0.5875506,1.3352697,-0.058531564,0.47761217,1.2853678,0.5048016,-0.06786456,-0.08997889,0.75107,0.34620753,-0.34706223,-0.40150413,0.41244832,808.2784,816.7399,820.7692,803.0403,718.8278,-0.38848876953125,-0.00299072265625,0.92437744140625,4.807586669921875,-4.643096923828125,1.084136962890625,1,1.0,1.0,1.0,1.0,65.00
2021-04-16 09:46:58.721,0.4808902,0.14629029,0.19842619,0.6301263,0.09958854,-0.11992957,-0.0048431973,0.47635266,0.48808867,-0.12585385,0.20784816,0.6588101,0.47150669,-0.11664777,-0.15565866,0.7169457,0.418534,-0.34577808,-0.44764203,0.46210673,791.75824,795.78754,800.6227,809.0842,723.2601,-0.3779296875,-0.00885009765625,0.922607421875,4.50103759765625,-4.32159423828125,1.263580322265625,1,1.0,1.0,1.0,1.0,65.00
2021-04-16 09:46:59.239,0.47745183,0.43332243,0.13398986,0.5667945,-0.01775877,0.035651416,-0.10111352,0.35601845,0.10538478,0.07490526,0.27981102,0.58580387,0.41478595,-0.08649146,-0.0214522,0.6839945,0.27822563,-0.32720414,-0.3932095,0.30231488,827.2161,803.44324,804.65204,825.2015,768.7912,-0.39288330078125,-0.006103515625,0.9251708984375,4.17205810546875,-5.00946044921875,0.43365478515625,1,1.0,1.0,1.0,1.0,65.00
2021-04-16 09:46:59.761,0.47745183,0.5436119,0.28355804,0.5539877,-0.01775877,0.1601802,-0.111432,0.11851029,0.10538478,0.26798013,0.29131863,0.5619408,0.41478595,-0.078604884,0.027082803,0.6083929,0.27822563,-0.26460525,-0.26608965,0.30504918,810.696,808.2784,815.12823,800.2198,763.5531,-0.39569091796875,-0.0084228515625,0.92138671875,4.41131591796875,-5.031890869140625,1.203765869140625,1,1.0,1.0,1.0,1.0,65.00
2021-04-16 09:47:00.274,1.5940696,0.7906613,0.8582395,1.5688583,1.2101891,0.2540073,0.3088181,1.0206748,1.574754,0.5244484,0.3352902,1.6305454,0.5580781,-0.007977356,0.18431932,0.6468726,0.023936005,-0.19858415,-0.17859226,0.32696575,826.4103,801.8315,804.65204,835.2747,776.4469,-0.40435791015625,-0.02069091796875,0.91412353515625,4.598236083984375,-4.658050537109375,1.18133544921875,1,1.0,1.0,1.0,1.0,65.00
2021-04-16 09:47:00.423,,,,,,,,,,,,,,,,,,,,,,,,,,,,,,,,,,,,,,/muse/elements/blink
2021-04-16 09:47:00.781,1.5782317,0.8191364,0.9350923,1.5247765,1.2220283,0.3926887,0.37422597,1.0797695,1.5879632,0.53557897,0.32876128,1.6338395,0.5322325,0.03056128,0.14066693,0.60649806,0.06842081,-0.27958605,-0.262018,0.38394257,777.25275,799.41394,799.011,766.77655,778.0586,-0.3955078125,-0.02056884765625,0.92059326171875,4.44122314453125,-4.628143310546875,1.338348388671875,1,1.0,1.0,1.0,1.0,65.00
2021-04-16 09:47:01.286,1.5188735,0.8791205,0.9529684,1.4621888,1.1158864,0.49016193,0.37288877,1.0580825,1.6194961,0.57590353,0.31161755,1.6542716,0.46032992,0.12571487,0.14271776,0.60691243,0.2249983,-0.3700985,-0.3912302,0.37453055,778.86444,798.60803,815.12823,785.7143,743.00366,-0.40118408203125,-0.0244140625,0.9188232421875,4.837493896484375,-4.119720458984375,0.964508056640625,1,1.0,1.0,1.0,1.0,65.00
2021-04-16 09:47:01.795,1.337466,1.0095599,0.8962434,1.308853,0.91643256,0.6263918,0.39344376,1.0468545,1.5122283,0.506188,0.6358145,1.7124902,0.43283108,0.13516659,0.082477346,0.60457826,0.29780427,-0.520648,-0.47079244,0.38980362,828.022,819.15753,816.337,825.6044,805.8608,-0.39337158203125,-0.0225830078125,0.92620849609375,4.568328857421875,-4.47113037109375,1.143951416015625,1,1.0,1.0,1.0,1.0,65.00
2021-04-16 09:47:02.304,1.2811797,1.0102823,0.89202327,1.2371218,0.8365566,0.5482639,0.3894021,0.99436885,1.6197515,0.5943274,0.6773268,1.6223762,0.43140435,0.073422454,0.08371529,0.62862915,0.29342747,-0.45549515,-0.4458663,0.35948947,816.337,809.89014,797.8022,812.3077,832.8571,-0.38818359375,-0.0186767578125,0.92352294921875,4.807586669921875,-5.016937255859375,0.35888671875,1,1.0,1.0,1.0,1.0,70.00
2021-04-16 09:47:02.843,0.9174341,0.9856647,0.91625965,1.0627371,0.74840647,0.42432755,0.39532867,1.0519294,1.6354761,0.558696,0.6556633,1.6836456,0.45779952,-0.10972785,-0.0025825743,0.62271404,0.26509273,-0.2802973,-0.33992022,0.36304203,797.8022,807.8755,796.5934,793.36993,765.56775,-0.396728515625,-0.01849365234375,0.9212646484375,4.66552734375,-4.702911376953125,0.441131591796875,1,1.0,1.0,1.0,1.0,70.00
2021-04-16 09:47:03.384,0.6442681,0.77851045,0.7598873,0.97444785,0.8085708,0.27423355,0.0728766,1.0481699,1.5565245,0.48109642,0.5514274,1.5695318,0.37842688,-0.15747656,-0.13610019,0.6240364,0.299141,-0.27161697,-0.31782863,0.34197763,809.0842,805.4579,814.7253,809.4872,840.5128,-0.39825439453125,-0.018798828125,0.91766357421875,4.194488525390625,-5.562744140625,1.637420654296875,1,1.0,1.0,1.0,1.0,70.00
2021-04-16 09:47:03.893,0.6442681,0.6368827,0.6008159,0.97444785,0.8085708,0.057634868,-0.30588847,1.0481699,1.5565245,0.096443824,0.16058603,1.5695318,0.37842688,-0.053818244,-0.07889845,0.6240364,0.299141,-0.09931326,-0.2003723,0.34197763,784.90845,808.68134,793.7729,771.2088,652.3443,-0.3980712890625,-0.01995849609375,0.91851806640625,4.403839111328125,-4.83001708984375,0.79254150390625,1,1.0,1.0,1.0,1.0,70.00
2021-04-16 09:47:04.430,0.80507267,-0.1718908,-0.119154215,0.7347373,0.7216157,-0.46913767,-0.37994745,0.6654236,1.1695296,0.07986757,-0.0855468,1.2147678,0.51301134,0.022777038,0.025841197,0.5402116,0.12001032,-0.19833791,-0.33376,0.40811238,824.7985,808.68134,809.0842,819.9634,790.9524,-0.3887939453125,-0.03009033203125,0.93084716796875,3.970184326171875,-5.0244140625,0.680389404296875,1,1.0,1.0,1.0,1.0,70.00
2021-04-16 09:47:04.940,0.64840835,-0.058264982,0.084155194,0.6230933,0.5449025,-0.18398061,-0.38239327,0.5589648,1.1703049,0.22063199,-0.016291229,1.2231289,0.34395856,0.06271057,-0.007480266,0.39545587,0.1651194,-0.22654153,-0.3412523,0.40122876,805.05493,815.5311,816.7399,814.3223,743.00366,-0.38134765625,-0.02972412109375,0.92669677734375,5.09918212890625,-4.32159423828125,1.00189208984375,1,1.0,1.0,1.0,1.0,70.00
2021-04-16 09:47:05.473,0.5798084,0.16777004,0.29868853,0.7651876,0.4552482,-0.1510187,-0.22920637,0.47360262,1.1703049,0.23798016,0.04118751,1.2231289,0.3549997,0.011455591,-0.04007217,0.3758125,0.1803702,-0.31950447,-0.37419754,0.41242856,790.9524,818.7546,814.3223,782.0879,695.4579,-0.38592529296875,-0.0308837890625,0.9224853515625,4.463653564453125,-4.88983154296875,1.906585693359375,1,1.0,1.0,1.0,1.0,70.00
2021-04-16 09:47:05.996,0.53287745,0.29349187,0.3876335,0.82506263,0.24681972,-0.105069004,-0.1880816,0.38822666,0.888638,0.3268172,0.11135903,0.90599054,0.28148773,0.0270668,-9.160804E-4,0.2980895,0.24970196,-0.3432975,-0.41623184,0.40155745,796.1905,803.44324,808.68134,796.99634,817.1429,-0.38983154296875,-0.02099609375,0.92431640625,5.562744140625,-4.463653564453125,1.8841552734375,1,1.0,1.0,1.0,1.0,70.00
2021-04-16 09:47:06.515,0.66092634,0.490563,0.36247137,0.97251856,0.35546738,0.14126217,-0.0764614,0.44346353,1.0932077,0.39824796,0.19696142,1.1750813,0.43308493,0.023654368,0.009924562,0.42567396,0.2909192,-0.44068882,-0.47264028,0.41272578,813.1135,815.5311,810.696,811.50183,765.16486,-0.3717041015625,-0.02105712890625,0.92510986328125,4.344024658203125,-4.463653564453125,0.2691650390625,1,1.0,1.0,1.0,1.0,70.00
2021-04-16 09:47:07.025,0.83000666,0.5373583,0.26928446,0.97186,0.69413906,0.22248225,-0.13831493,0.7524425,1.2063597,0.40515524,0.17893355,1.3106697,0.5417429,0.0086418865,0.029564794,0.6894735,0.39019892,-0.41925752,-0.3963767,0.38377365,801.4286,800.2198,811.9048,797.8022,663.22345,-0.37701416015625,-0.0234375,0.9168701171875,4.493560791015625,-5.046844482421875,0.3887939453125,1,1.0,1.0,1.0,1.0,70.00
2021-04-16 09:47:07.538,0.792039,0.6076665,0.0745266,0.8872009,0.83295405,0.43185243,-0.09668645,0.8515127,1.4852,0.4370844,0.28556883,1.5184574,0.52670956,-0.013715557,0.060913533,0.70505565,0.39713302,-0.2825385,-0.34697556,0.5033305,763.95605,794.17584,805.05493,774.43225,863.0769,-0.3798828125,-0.02423095703125,0.9249267578125,4.314117431640625,-4.448699951171875,0.7177734375,1,1.0,1.0,1.0,1.0,70.00
2021-04-16 09:47:08.076,0.7815288,0.64469343,0.60436565,0.9024082,0.68889457,0.4695764,0.23725426,0.7019184,1.5678363,0.35109663,0.47420356,1.5725898,0.41916177,0.0045502167,0.001763867,0.5742926,0.3353844,-0.18900767,-0.3177742,0.4488774,788.5348,807.0696,797.8022,788.1319,749.45056,-0.38250732421875,-0.02447509765625,0.92376708984375,4.508514404296875,-3.626251220703125,0.58319091796875,1,1.0,1.0,1.0,1.0,70.00
2021-04-16 09:47:08.618,0.9970272,0.7763833,0.8352426,0.98214614,0.76107085,0.54053015,0.32632437,0.7855073,1.7709491,0.45106655,0.652921,1.7364872,0.3580433,0.11169984,0.061796676,0.4995684,0.21547817,-0.1996893,-0.3231196,0.42368,805.8608,802.6374,796.99634,807.8755,725.6777,-0.389892578125,-0.0283203125,0.92120361328125,4.329071044921875,-4.5758056640625,1.07666015625,1,1.0,1.0,1.0,1.0,70.00
2021-04-16 09:47:09.136,1.2450383,0.84194255,1.0048121,1.1034542,0.91859835,0.67516893,0.45004869,0.9054811,1.7642744,0.453741,0.7308398,1.7134162,0.37236258,0.13129492,0.20313646,0.56215596,0.16497871,-0.19189909,-0.32758102,0.4001304,773.22345,807.47253,797.8022,773.6264,672.0879,-0.4000244140625,-0.02618408203125,0.912841796875,4.358978271484375,-5.2935791015625,1.532745361328125,1,1.0,1.0,1.0,1.0,70.00
2021-04-16 09:47:09.678,1.3411604,0.8984559,1.1193935,1.2069229,1.0299098,0.7278788,0.5015678,1.0330217,1.6679901,0.44204625,0.72500044,1.6208272,0.4277683,0.100872755,0.24208763,0.61598957,0.1260419,-0.28440523,-0.39440662,0.3548593,805.8608,773.6264,810.696,814.3223,757.1062,-0.39825439453125,-0.02642822265625,0.91888427734375,5.24871826171875,-4.08233642578125,1.54022216796875,1,1.0,1.0,1.0,1.0,70.00
2021-04-16 09:47:10.089,,,,,,,,,,,,,,,,,,,,,,,,,,,,,,,,,,,,,,/muse/elements/blink
2021-04-16 09:47:10.218,1.3856583,0.92090356,1.2128295,1.2542568,1.0844276,0.7523448,0.6486093,1.0340549,1.6416756,0.45300353,0.74983597,1.5352513,0.4407079,0.08860199,0.251698,0.60862106,0.10974186,-0.33095133,-0.40814462,0.3211455,810.696,817.5458,788.5348,797.3993,806.26373,-0.39605712890625,-0.01983642578125,0.92193603515625,4.658050537109375,-4.90478515625,0.73272705078125,1,1.0,1.0,1.0,1.0,70.00
2021-04-16 09:47:10.742,1.3869371,0.8791089,1.2617033,1.465095,1.0847996,0.6613867,0.7589808,1.2919507,1.345994,0.31477407,0.6843836,1.1528426,0.50240606,-0.016554218,0.14188474,0.64266646,0.06323191,-0.51234084,-0.41820192,0.07741018,814.3223,802.6374,794.17584,813.91943,867.50916,-0.40447998046875,-0.0299072265625,0.9139404296875,6.2506103515625,-5.57769775390625,1.891632080078125,1,1.0,1.0,1.0,1.0,70.00
2021-04-16 09:47:11.274,1.4052728,0.8443246,0.8635051,1.4981045,1.1585058,0.46176934,0.6017283,1.3824245,1.2961942,0.23489636,0.47397193,1.2207572,0.40403113,-0.005153811,-0.016749188,0.6382651,0.0064316373,-0.5606549,-0.34139645,0.17825416,826.8132,797.8022,803.0403,827.2161,1071.7949,-0.38116455078125,-0.00286865234375,0.92510986328125,4.0673828125,-6.4898681640625,1.30096435546875,1,1.0,1.0,1.0,1.0,70.00
2021-04-16 09:47:11.792,0.5600173,0.6207875,0.66448987,1.1966927,0.67360175,0.22468998,0.33321983,1.1889257,1.333943,0.30434796,0.24463296,1.3776951,0.39484406,0.030402299,-0.016052464,0.5799876,0.22441493,-0.4110204,-0.34750026,0.3713752,826.0073,806.26373,803.44324,809.0842,722.0513,-0.39361572265625,-0.01641845703125,0.92236328125,4.388885498046875,-4.687957763671875,1.48040771484375,1,1.0,1.0,1.0,1.0,70.00
2021-04-16 09:47:12.315,0.9496583,0.81620353,0.9557573,0.90264106,0.7984265,0.4575469,0.5692763,0.9816106,1.4893422,0.41709104,0.4117833,1.4580421,0.38380566,0.13286231,-0.0050977324,0.55218256,0.14376062,-0.35932934,-0.3719112,0.355308,832.8571,811.0989,810.696,834.87177,797.3993,-0.39385986328125,-0.015869140625,0.923583984375,4.074859619140625,-3.768310546875,1.3458251953125,1,1.0,1.0,1.0,1.0,65.00
2021-04-16 09:47:12.821,0.98395985,0.7836289,1.0043949,1.0017072,0.6851061,0.40916824,0.49740463,0.8911149,1.4893422,0.42282757,0.37769577,1.3584013,0.36440694,0.06616771,0.023197595,0.4937332,0.09531057,-0.34585974,-0.42699966,0.2932665,818.3516,809.4872,807.47253,807.8755,831.2454,-0.3973388671875,-0.01910400390625,0.91851806640625,4.418792724609375,-4.433746337890625,0.755157470703125,1,1.0,1.0,1.0,1.0,65.00
2021-04-16 09:47:13.359,0.96243775,0.73271,0.9401743,0.96518147,0.54729426,0.300136,0.4073392,0.65275836,1.4557319,0.39870727,0.37587455,1.3039068,0.28978968,0.037513968,-0.040072676,0.39122906,-0.041092608,-0.36096093,-0.48721278,0.07682747,791.75824,791.75824,800.6227,792.1612,687.3993,-0.4017333984375,-0.02447509765625,0.9090576171875,4.366455078125,-3.21502685546875,0.829925537109375,1,1.0,1.0,1.0,1.0,65.00
2021-04-16 09:47:13.909,0.70953876,0.48121116,0.510801,0.7778978,0.034228507,-0.10444857,-0.25781602,0.060783066,0.51336676,0.17152719,0.1234226,0.46656492,0.2699015,-0.091025144,-0.1408376,0.40004978,-0.12349224,-0.45132977,-0.49398276,0.090747796,807.47253,811.0989,821.5751,812.3077,735.34796,-0.40118408203125,-0.02374267578125,0.9161376953125,4.65057373046875,-4.9346923828125,1.256103515625,1,1.0,1.0,1.0,1.0,65.00
2021-04-16 09:47:14.417,0.50690097,0.4531455,0.2914704,0.45027083,-0.018202461,-0.12514326,-0.118275724,0.009762753,0.33944306,0.18509613,0.10606612,0.38892424,0.4228532,-0.022756575,-0.15067597,0.4555591,-0.19943,-0.49902156,-0.40409064,0.074201465,806.6667,810.696,813.1135,811.0989,761.53845,-0.39697265625,-0.01629638671875,0.9207763671875,4.673004150390625,-4.97955322265625,0.441131591796875,1,1.0,1.0,1.0,1.0,65.00
2021-04-16 09:47:14.952,0.4818246,0.41732085,0.27739903,0.4811811,0.006185409,-0.08821567,-0.096104845,0.13632129,0.40224752,0.21252322,0.15297419,0.39936185,0.47718307,-0.05051413,-0.12169693,0.49926287,-0.13562314,-0.51098657,-0.3511941,0.073171005,824.7985,811.0989,814.3223,823.5897,937.2161,-0.40667724609375,-0.02294921875,0.917236328125,4.583282470703125,-4.687957763671875,1.33087158203125,1,1.0,1.0,1.0,1.0,65.00
2021-04-16 09:47:15.461,0.24178965,0.34265488,0.11727266,0.3740273,0.05828957,-0.17127134,-0.14754382,0.3692894,0.44014958,0.2942541,-0.024978451,0.42072847,0.45391124,-0.10028544,-0.010634595,0.46803153,-0.14895526,-0.5277811,-0.3541645,-0.016517691,772.01465,810.293,817.1429,764.7619,747.8388,-0.4046630859375,-0.02398681640625,0.9180908203125,4.74029541015625,-4.523468017578125,0.635528564453125,1,1.0,1.0,1.0,1.0,65.00
2021-04-16 09:47:15.999,0.045148212,0.7024912,0.3492021,0.30918315,0.06989026,0.27451858,0.12818892,0.40802157,0.39964464,0.7371806,0.5471585,0.40399215,0.33076853,-0.09471393,-0.002601746,0.4683375,-0.15434188,-0.49101645,-0.3741854,-0.03215667,814.7253,802.23444,809.4872,804.2491,759.92676,-0.40087890625,-0.02642822265625,0.9169921875,3.596343994140625,-4.807586669921875,0.4486083984375,1,1.0,1.0,1.0,1.0,65.00
2021-04-16 09:47:16.513,-0.0072122174,0.89471686,0.45655072,0.21510592,0.14889902,0.34076104,0.32136008,0.59949064,0.3458107,0.7400616,0.62307477,0.35446215,0.21414436,0.08245727,0.060912244,0.49509063,-0.22271802,-0.5198627,-0.39141023,0.07125303,841.31866,805.05493,794.9817,842.52747,1087.9121,-0.40380859375,-0.0277099609375,0.91546630859375,4.605712890625,-4.463653564453125,0.8673095703125,1,1.0,1.0,1.0,1.0,65.00
2021-04-16 09:47:17.028,-0.0072122174,1.1008774,0.65886056,0.21510592,0.14889902,0.39512148,0.498077,0.59949064,0.3458107,0.739307,0.63596773,0.35446215,0.21414436,0.14643215,0.05511207,0.49509063,-0.22271802,-0.43088916,-0.36440045,0.07125303,816.337,811.0989,805.8608,806.26373,736.1539,-0.40277099609375,-0.02679443359375,0.913818359375,5.39825439453125,-5.256195068359375,0.620574951171875,1,1.0,1.0,1.0,1.0,65.00
2021-04-16 09:47:17.537,-0.0072122174,0.92005527,0.57231677,0.21510592,0.14889902,0.05243367,0.50251305,0.59949064,0.3458107,0.42108366,0.5698247,0.35446215,0.21414436,0.041082803,0.07779115,0.49509063,-0.22271802,-0.46083885,-0.36224565,0.07125303,813.5165,804.65204,807.0696,807.0696,799.011,-0.39605712890625,-0.01690673828125,0.92010498046875,4.732818603515625,-6.89361572265625,1.727142333984375,1,1.0,1.0,1.0,1.0,65.00
2021-04-16 09:47:18.076,1.6985205,0.8111431,0.5954817,0.9399295,1.3356951,0.008735026,0.41939935,0.8735447,1.0880013,0.25758365,0.51719916,1.0592754,0.2128473,-0.089992926,0.012931115,0.4224826,-0.078179695,-0.44160783,-0.38137314,-0.093879245,818.7546,805.05493,800.6227,821.5751,1052.4542,-0.37603759765625,-0.0111083984375,0.9288330078125,4.972076416015625,-5.203857421875,1.45050048828125,1,1.0,1.0,1.0,1.0,65.00
2021-04-16 09:47:18.590,1.2352229,0.27100673,0.47631136,1.1692828,1.0558361,-0.28576395,0.2231112,0.82694453,0.75211895,-0.30496216,0.33897176,0.814171,0.3601799,-0.1896419,-0.020414613,0.54680914,0.016716935,-0.52181685,-0.41912082,-0.044753306,740.58606,799.81683,811.0989,738.5714,793.7729,-0.3721923828125,-0.015380859375,0.92657470703125,4.65057373046875,-5.54779052734375,1.1663818359375,1,1.0,1.0,1.0,1.0,65.00
2021-04-16 09:47:19.119,1.2352229,0.33822775,0.29709747,1.1692828,1.0558361,-0.261964,-0.08932745,0.82694453,0.75211895,0.111078314,0.14243108,0.814171,0.3601799,-0.19175367,-0.028892446,0.54680914,0.016716935,-0.35714957,-0.49528477,-0.044753306,794.17584,793.36993,798.60803,790.14655,1009.7436,-0.37554931640625,-0.01202392578125,0.9229736328125,4.433746337890625,-4.000091552734375,0.73272705078125,1,1.0,1.0,1.0,1.0,65.00
2021-04-16 09:47:19.642,1.2352229,0.4254084,0.15732387,1.4299301,1.0558361,-0.08530883,-0.12225354,1.0340792,0.75211895,0.2193487,0.44236472,0.81081444,0.3601799,-0.15059292,0.029900953,0.65577996,0.016716935,-0.2318782,-0.47988334,0.07627173,787.326,796.99634,797.3993,800.2198,1068.5714,-0.3779296875,-0.01361083984375,0.92828369140625,4.762725830078125,-4.777679443359375,0.710296630859375,1,1.0,1.0,1.0,1.0,65.00
2021-04-16 09:47:20.178,1.2352229,0.42809144,0.21134019,1.4299301,1.0558361,0.116692215,-0.1526204,1.0340792,0.75211895,0.25888753,0.47808138,0.81081444,0.3601799,-0.15630914,0.018072395,0.65577996,0.016716935,-0.14780603,-0.37285167,0.07627173,818.3516,810.696,811.0989,804.2491,820.7692,-0.37786865234375,-0.01519775390625,0.93243408203125,4.987030029296875,-5.256195068359375,0.8074951171875,1,1.0,1.0,1.0,1.0,65.00
2021-04-16 09:47:20.681,1.4741422,0.35325906,0.2441199,1.4299301,1.2195723,0.26923877,-0.13826707,1.0340792,1.2843639,0.2526815,0.47883058,0.81081444,0.65988815,-0.114590526,-0.004447179,0.65577996,0.34860197,-0.18845926,-0.34006688,0.07627173,835.6777,807.8755,812.71063,826.4103,1174.9451,-0.3807373046875,-0.01544189453125,0.9293212890625,4.38140869140625,-4.50103759765625,0.8673095703125,1,1.0,1.0,1.0,1.0,65.00
2021-04-16 09:47:21.189,1.4741422,0.7638909,0.29177573,1.4299301,1.2195723,0.44326514,-0.17449592,1.0340792,1.2843639,0.2931744,0.30913302,0.81081444,0.65988815,-0.10390406,-0.095467515,0.65577996,0.34860197,-0.18607843,-0.34713593,0.07627173,827.619,803.44324,809.89014,834.87177,778.86444,-0.3944091796875,-0.0228271484375,0.92596435546875,4.433746337890625,-4.568328857421875,0.46356201171875,1,1.0,1.0,1.0,1.0,65.00
2021-04-16 09:47:21.737,1.4741422,0.95992565,-0.013470725,1.4299301,1.2195723,0.56046134,-0.15612166,1.0340792,1.2843639,0.22704081,0.25579843,0.81081444,0.65988815,-0.033068072,-0.04438418,0.65577996,0.34860197,-0.15083337,-0.4905694,0.07627173,797.8022,780.4762,784.5055,797.3993,761.13556,-0.3885498046875,-0.02471923828125,0.92303466796875,4.50103759765625,-4.32159423828125,0.70281982421875,1,1.0,1.0,1.0,1.0,65.00
2021-04-16 09:47:22.281,1.4741422,1.0637592,0.8313617,1.4299301,1.2195723,0.46011487,0.32828015,1.0340792,1.2843639,0.26255408,-0.13281688,0.81081444,0.65988815,-0.02906436,0.14903158,0.65577996,0.34860197,-0.20945245,-0.42787763,0.07627173,811.50183,809.89014,810.696,807.8755,884.43225,-0.39361572265625,-0.023193359375,0.92242431640625,5.061798095703125,-5.2337646484375,1.256103515625,1,1.0,1.0,1.0,1.0,65.00
2021-04-16 09:47:22.815,1.4741422,0.8208339,0.8574666,1.4299301,1.2195723,0.0518076,0.22537313,1.0340792,1.2843639,0.11111552,0.1709327,0.81081444,0.65988815,0.0536848,0.099162385,0.65577996,0.34860197,-0.386391,-0.5116516,0.07627173,774.0293,802.6374,798.20514,782.49084,784.90845,-0.38470458984375,-0.022216796875,0.92840576171875,4.0673828125,-5.60760498046875,-0.112152099609375,1,1.0,1.0,1.0,1.0,55.00
2021-04-16 09:47:23.325,1.4741422,0.7059528,0.7369612,1.4299301,1.2195723,-0.06481603,0.16189438,1.0340792,1.2843639,0.111282766,0.2008048,0.81081444,0.65988815,0.042812917,0.06604547,0.65577996,0.34860197,-0.34333497,-0.45487952,0.07627173,781.28204,801.8315,806.26373,771.2088,667.25275,-0.3857421875,-0.022216796875,0.9244384765625,4.807586669921875,-4.179534912109375,0.73272705078125,1,2.0,1.0,1.0,2.0,55.00
2021-04-16 09:47:23.842,1.4741422,0.6965177,0.6063787,1.4299301,1.2195723,0.07795865,0.17517625,1.0340792,1.2843639,0.15095526,0.20107505,0.81081444,0.65988815,-0.03864142,0.06948157,0.65577996,0.34860197,-0.3431383,-0.4112952,0.07627173,822.7839,795.38464,817.1429,841.31866,741.79486,-0.3990478515625,-0.0299072265625,0.92303466796875,4.658050537109375,-4.05242919921875,0.5084228515625,1,2.0,1.0,1.0,2.0,55.00
2021-04-16 09:47:24.370,1.4741422,0.62497383,0.59292024,1.4299301,1.2195723,0.25056827,0.4593268,1.0340792,1.2843639,0.36223602,0.5242537,0.81081444,0.65988815,-0.0034536535,0.06991078,0.65577996,0.34860197,-0.37774858,-0.2713637,0.07627173,811.50183,803.8461,809.89014,814.7253,813.1135,-0.40423583984375,-0.02459716796875,0.916015625,4.448699951171875,-4.9346923828125,1.487884521484375,1,2.0,1.0,1.0,2.0,55.00
2021-04-16 09:47:24.893,0.702275,0.6616467,0.7551497,1.0035043,0.60292596,0.3201375,0.5873564,0.9999071,1.1746277,0.40507403,0.56016266,1.3827536,0.48270476,0.023121594,0.06885509,0.69435906,0.029366821,-0.43617085,-0.27645573,-0.13173136,811.9048,812.71063,797.3993,800.6227,758.71796,-0.39593505859375,-0.02685546875,0.919921875,4.47113037109375,-5.6524658203125,0.478515625,1,1.0,1.0,1.0,1.0,55.00
2021-04-16 09:47:25.397,0.8875434,0.5461491,0.7584302,0.9701096,0.5821747,0.26000604,0.50933534,0.89799553,1.3689647,0.41130883,0.5623917,1.4680021,0.41169626,0.10291813,0.0020822512,0.6618102,0.033382062,-0.38565204,-0.28802466,0.09301702,838.49817,814.3223,806.6667,846.1539,971.4652,-0.36968994140625,-0.02288818359375,0.9307861328125,4.942169189453125,-6.362762451171875,0.46356201171875,1,1.0,1.0,1.0,1.0,55.00
2021-04-16 09:47:25.905,0.9305294,0.5308897,0.71852297,0.9475037,0.54442936,0.17499645,0.26700586,0.7703031,1.4095501,0.30407405,0.5129069,1.4728812,0.38742304,0.15172799,0.03498817,0.61849993,0.054165322,-0.35477605,-0.26032332,0.16767447,766.3736,791.75824,823.1868,780.87915,722.4542,-0.37738037109375,-0.0238037109375,0.928955078125,4.53094482421875,-4.732818603515625,1.443023681640625,1,1.0,1.0,1.0,1.0,55.00
2021-04-16 09:47:26.444,1.047665,0.60025567,0.70784473,0.944773,0.48867548,0.23548682,0.10640382,0.54691595,1.429235,0.4713109,0.21463345,1.3157276,0.38951033,0.16311711,0.06509903,0.582414,0.11397508,-0.2939015,-0.23255385,0.25958014,821.978,811.9048,807.0696,822.7839,761.13556,-0.380859375,-0.02813720703125,0.92462158203125,4.127197265625,-4.149627685546875,0.994415283203125,1,1.0,1.0,1.0,1.0,55.00
2021-04-16 09:47:26.951,1.0844667,0.79237735,0.837719,0.9820376,0.4828611,0.31708345,0.28694785,0.41750023,1.3847859,0.4702595,0.041201588,1.2760113,0.45400944,0.17016129,0.13249913,0.58528703,0.15857667,-0.33557948,-0.2053899,0.30384895,823.1868,807.0696,808.2784,834.4689,1102.0146,-0.3660888671875,-0.03057861328125,0.93316650390625,4.18701171875,-5.794525146484375,1.188812255859375,1,1.0,1.0,1.0,1.0,55.00
2021-04-16 09:47:27.466,1.1941307,0.92849904,0.92274064,1.027148,0.47390065,0.41781336,0.44525573,0.48918608,1.2000773,0.45119697,-0.054997616,1.0829862,0.49601477,0.16085011,0.16344301,0.6234422,0.19440347,-0.29467607,-0.33057672,0.31412077,790.14655,804.65204,797.3993,785.31134,918.68134,-0.3524169921875,-0.01092529296875,0.94134521484375,5.7720947265625,-6.661834716796875,2.46734619140625,1,1.0,1.0,1.0,1.0,55.00
2021-04-16 09:47:28.006,1.2619354,1.073578,0.98504174,1.0922903,0.4811322,0.559986,0.5952592,0.53696966,1.1831616,0.38871056,-0.12722866,0.7208719,0.51172984,0.14263837,0.19268452,0.6428254,0.21162121,-0.33357042,-0.47331426,0.3654164,808.68134,791.3553,801.8315,832.4542,812.3077,-0.34783935546875,-0.00811767578125,0.9378662109375,4.65057373046875,-0.94207763671875,1.06170654296875,1,1.0,1.0,1.0,1.0,55.00
2021-04-16 09:47:28.542,1.2619354,0.8759294,0.6698238,1.0922903,0.4811322,0.23399247,0.0097187525,0.53696966,1.1831616,0.22885899,0.31122473,0.7208719,0.51172984,0.45702597,0.0807505,0.6428254,0.21162121,-0.26959422,-0.271705,0.3654164,801.4286,815.5311,815.12823,799.81683,773.22345,-0.380126953125,-0.02362060546875,0.93231201171875,4.08233642578125,-1.2860107421875,0.85235595703125,1,1.0,1.0,1.0,1.0,55.00
2021-04-16 09:47:29.098,0.97612506,1.0054514,0.8874199,1.1020824,0.7161253,0.15040825,0.0020167916,0.64538985,1.2801186,0.2823332,0.32317987,1.1223075,0.45932797,0.32535315,0.038294896,0.71583253,0.011856397,-0.3310077,-0.26416507,0.30928203,817.1429,801.02563,802.6374,811.50183,747.4359,-0.37078857421875,-0.02325439453125,0.92950439453125,4.66552734375,-5.323486328125,0.725250244140625,1,1.0,1.0,1.0,1.0,55.00
2021-04-16 09:47:29.600,0.9775014,1.0060952,0.90928143,0.9616733,0.7297923,0.23270468,-0.028603949,0.65481335,1.2830682,0.2832865,0.32317987,1.1430931,0.37898996,0.2132988,0.011737262,0.61627287,0.059952654,-0.38298312,-0.26337945,0.2830793,799.41394,810.293,811.0989,811.9048,705.5311,-0.37579345703125,-0.0201416015625,0.93292236328125,3.342132568359375,-4.007568359375,0.276641845703125,1,1.0,1.0,1.0,1.0,55.00
2021-04-16 09:47:30.131,0.96926796,0.9268652,0.87144,0.84917533,0.71032506,0.14014895,-0.14373271,0.6062324,1.1661752,0.1859361,0.029443813,1.1003551,0.30563125,-0.04453374,-0.09753533,0.50340015,0.036647074,-0.34092426,-0.24072322,0.2332201,796.1905,811.0989,815.12823,798.20514,718.022,-0.36749267578125,0.02447509765625,0.93121337890625,7.3272705078125,-7.050628662109375,4.583282470703125,1,1.0,1.0,1.0,1.0,55.00
2021-04-16 09:47:30.668,1.0812259,0.66035354,0.75713295,0.94124985,0.7752756,0.2017171,-0.07805236,0.84194934,1.1958218,0.18293692,0.18129352,1.1938856,0.3865765,0.009097819,-0.0693145,0.4450288,0.023200426,-0.37103295,-0.2608165,0.19399731,815.12823,800.2198,801.8315,821.5751,885.2381,-0.3323974609375,-0.050048828125,0.952880859375,4.433746337890625,-7.499237060546875,1.069183349609375,1,1.0,1.0,1.0,1.0,55.00
2021-04-16 09:47:31.179,1.1401235,0.46036974,0.9734405,1.1483585,0.70014083,0.21438469,-0.031140734,0.99126756,1.2430501,0.15665379,0.21364065,1.3136721,0.5028701,0.1120148,0.042823482,0.3996394,-0.046002038,-0.37407672,-0.27316314,0.12815854,772.01465,785.31134,828.022,778.46155,672.49084,-0.34246826171875,0.056640625,0.9324951171875,7.64129638671875,3.0206298828125,9.069366455078125,1,1.0,1.0,1.0,1.0,55.00
2021-04-16 09:47:31.692,1.2435412,0.77906644,1.0555699,1.1958878,0.861262,0.60496503,0.13542512,1.0281422,1.2430501,0.6166601,0.24521573,1.3329458,0.7630622,0.13472013,0.06593397,0.5465884,0.184941,-0.45743534,-0.27747473,0.16026445,790.54944,791.75824,767.1795,776.04395,698.68134,-0.4013671875,0.02606201171875,0.91650390625,1.652374267578125,-4.059906005859375,-0.650482177734375,1,1.0,1.0,1.0,1.0,55.00
2021-04-16 09:47:32.195,1.2505643,0.90150654,1.0853947,1.176632,0.9268812,0.67642975,0.12198066,0.91889095,1.1646813,0.62354153,0.12802687,1.240988,0.80368173,0.08632251,0.040549606,0.6246937,0.25156072,-0.43251064,-0.3078713,0.2131138,760.7326,830.0366,788.93774,745.42126,762.3443,-0.39697265625,0.00341796875,0.92364501953125,3.431854248046875,-5.944061279296875,-0.13458251953125,1,1.0,1.0,1.0,1.0,55.00
2021-04-16 09:47:32.373,,,,,,,,,,,,,,,,,,,,,,,,,,,,,,,,,,,,,,/muse/elements/blink
2021-04-16 09:47:32.739,1.3172208,0.99727356,0.925734,1.0560473,1.0981202,0.7894674,0.2928469,0.86936474,0.88338375,0.62354153,0.047714226,1.0995494,0.92334306,0.04478466,-0.11622573,0.66635334,0.38638544,-0.49546322,-0.42849964,0.25549465,813.5165,808.68134,792.5641,800.2198,713.9927,-0.3822021484375,1.220703125E-4,0.92486572265625,4.643096923828125,-3.768310546875,1.024322509765625,1,1.0,1.0,1.0,1.0,55.00
2021-04-16 09:47:33.276,1.3486137,0.9173248,0.9806865,1.107922,1.2113179,0.6225708,0.37097943,0.9570319,0.82913,0.50902766,0.043834627,1.082702,0.80314314,0.11527452,-0.1326465,0.6895548,0.37676245,-0.47629467,-0.4586126,0.2948886,797.3993,802.6374,805.8608,794.57874,772.01465,-0.39129638671875,-0.0047607421875,0.9195556640625,4.702911376953125,-5.226287841796875,0.665435791015625,1,1.0,1.0,1.0,1.0,70.00
2021-04-16 09:47:33.792,1.3486137,0.8798455,0.6821785,1.107922,1.2113179,0.49781162,0.110403486,0.9570319,0.82913,0.3000766,0.0063706147,1.082702,0.80314314,0.14761022,-0.13695753,0.6895548,0.37676245,-0.494936,-0.22971825,0.2948886,822.381,804.2491,805.8608,820.3663,654.7619,-0.38421630859375,-0.00140380859375,0.9290771484375,4.59075927734375,-5.57769775390625,2.25799560546875,1,1.0,1.0,1.0,1.0,70.00
2021-04-16 09:47:34.303,1.3486137,1.1248596,0.9425709,1.107922,1.2113179,0.6222981,0.3515635,0.9570319,0.82913,0.40898466,0.480366,1.082702,0.80314314,-0.13400309,-0.0529021,0.6895548,0.37676245,-0.39574328,-0.32613727,0.2948886,814.7253,816.337,806.6667,816.7399,740.58606,-0.38128662109375,3.0517578125E-4,0.9249267578125,4.179534912109375,-6.602020263671875,2.758941650390625,1,1.0,1.0,1.0,1.0,70.00
2021-04-16 09:47:34.813,1.3486137,1.1248596,0.92056805,1.107922,1.2113179,0.6222981,0.23807238,0.9570319,0.82913,0.40898466,0.4997068,1.082702,0.80314314,-0.13400309,-0.06323463,0.6895548,0.37676245,-0.39574328,-0.43617916,0.2948886,818.7546,821.1722,816.7399,813.1135,845.7509,-0.372802734375,-0.0087890625,0.935791015625,4.2169189453125,-3.93280029296875,1.57012939453125,1,2.0,1.0,1.0,2.0,70.00
2021-04-16 09:47:35.331,1.3486137,1.1804572,0.9514394,1.107922,1.2113179,0.6392484,0.32969356,0.9570319,0.82913,0.44446063,0.5103943,1.082702,0.80314314,0.019168165,-0.057263136,0.6895548,0.37676245,-0.39835882,-0.5498474,0.2948886,814.7253,818.3516,829.2308,803.0403,801.4286,-0.38909912109375,-0.00518798828125,0.9244384765625,4.6954345703125,-4.0673828125,1.203765869140625,1,2.0,1.0,1.0,2.0,70.00
2021-04-16 09:47:35.835,1.3486137,0.9400113,0.94668293,1.107922,1.2113179,0.43463168,0.5581705,0.9570319,0.82913,0.09762152,0.19018102,1.082702,0.80314314,0.124772534,0.0019323549,0.6895548,0.37676245,-0.39652148,-0.5602427,0.2948886,802.23444,794.17584,796.1905,804.2491,793.7729,-0.38671875,-0.0146484375,0.91943359375,4.1571044921875,-3.78326416015625,0.800018310546875,1,2.0,1.0,1.0,2.0,70.00
2021-04-16 09:47:36.349,1.3486137,0.8704186,1.085806,1.107922,1.2113179,0.34342748,0.5956902,0.9570319,0.82913,0.09907278,0.23494817,1.082702,0.80314314,0.048882883,0.057428766,0.6895548,0.37676245,-0.39316157,-0.4590733,0.2948886,828.022,803.0403,816.337,831.2454,1163.663,-0.39752197265625,-0.01458740234375,0.92315673828125,4.2767333984375,-4.68048095703125,0.037384033203125,1,2.0,1.0,1.0,2.0,70.00
2021-04-16 09:47:36.890,0.7771616,0.7152363,1.0829768,1.0325366,0.42250216,0.30085906,0.50798815,0.5152868,1.08761,0.21074653,0.27011147,1.1426244,0.4971712,0.028386483,0.053528566,0.56316656,0.14454328,-0.3727046,-0.39705673,0.04356065,805.05493,816.7399,815.12823,798.60803,799.41394,-0.396240234375,-0.02081298828125,0.918701171875,4.239349365234375,-5.75714111328125,1.09161376953125,1,1.0,1.0,1.0,1.0,70.00
2021-04-16 09:47:37.395,0.7063102,0.6321291,0.9705326,0.9129971,0.2311685,0.070453346,0.16268261,0.44641513,1.099789,0.26611882,0.4310497,1.1426244,0.59073275,0.0056343656,0.0063687023,0.6492007,0.09831021,-0.39845857,-0.37506703,0.01637265,803.8461,809.0842,811.0989,794.9817,724.87177,-0.39306640625,-0.01507568359375,0.9229736328125,4.3963623046875,-4.964599609375,1.039276123046875,1,1.0,1.0,1.0,1.0,70.00
2021-04-16 09:47:37.908,0.76277995,0.61162984,0.68163705,0.8779606,0.28308165,-0.021584654,0.04374212,0.4771997,1.0545167,0.27582017,0.40514237,1.1106805,0.56560665,0.06352144,0.023359332,0.6539197,0.08576318,-0.3905915,-0.40130848,-0.015789244,803.44324,805.8608,813.5165,796.1905,797.8022,-0.39404296875,-0.0185546875,0.92279052734375,4.42626953125,-4.224395751953125,1.368255615234375,1,1.0,1.0,1.0,1.0,70.00
2021-04-16 09:47:38.436,0.75973886,0.5236535,0.5054368,0.76535124,0.4149781,-0.16057754,0.0037552884,0.5818485,0.7740472,0.26768237,0.3888101,0.9236444,0.54250175,0.05900548,0.054919306,0.6566563,0.15023266,-0.44267303,-0.48413986,0.08610745,788.5348,809.89014,807.0696,782.8938,671.28204,-0.38897705078125,-0.01953125,0.91668701171875,4.5758056640625,-4.598236083984375,0.859832763671875,1,1.0,1.0,1.0,1.0,70.00
2021-04-16 09:47:38.957,0.8590212,0.5148987,0.4720308,0.81559485,0.5209178,-0.40799794,-0.48452163,0.6891564,0.98144996,-0.06098823,-0.082819745,1.0785114,0.4468742,0.03200123,0.07588263,0.56824595,0.20053753,-0.49460754,-0.48716396,0.094836846,810.293,812.3077,819.15753,817.5458,849.3773,-0.3935546875,-0.02392578125,0.91888427734375,4.6356201171875,-4.3963623046875,0.6878662109375,1,1.0,1.0,1.0,1.0,70.00
2021-04-16 09:47:39.481,0.8694627,0.56133544,0.42337528,0.81205416,0.50731045,-0.45811358,-0.3238271,0.6763188,0.97938,-0.036731925,-0.020464286,1.0785114,0.43428177,0.051707905,0.071604215,0.5031694,0.2497838,-0.548679,-0.500749,0.119421646,811.50183,807.0696,810.696,803.44324,704.7253,-0.3846435546875,-0.02838134765625,0.92547607421875,4.68048095703125,-5.86181640625,0.097198486328125,1,1.0,1.0,1.0,1.0,70.00
2021-04-16 09:47:39.992,0.78769535,0.63102716,0.36106983,0.7165551,0.35529247,-0.46263447,-0.16364862,0.5222477,0.97098505,-0.02226547,-0.0650476,1.0311488,0.4163916,0.028252589,0.042020105,0.44112247,0.1993185,-0.5119525,-0.4700221,0.052433975,825.2015,807.47253,816.337,822.7839,711.1722,-0.3890380859375,-0.0267333984375,0.91998291015625,4.448699951171875,-4.77020263671875,0.471038818359375,1,1.0,1.0,1.0,1.0,70.00
2021-04-16 09:47:40.536,0.7331448,0.6511719,0.27870494,0.8657948,0.382089,-0.27767745,0.07219533,0.5075104,0.7875849,-0.01656827,-0.11216428,0.72307664,0.33339968,-0.03402752,-0.019627605,0.30681324,0.21067117,-0.4890669,-0.54590803,0.027999563,808.68134,807.0696,811.0989,814.7253,755.09155,-0.391845703125,-0.02978515625,0.927490234375,4.8150634765625,-5.256195068359375,1.024322509765625,1,1.0,1.0,1.0,1.0,70.00
2021-04-16 09:47:41.062,0.5745608,0.66933966,0.40471268,0.8609838,0.42557806,-0.16489816,0.083396144,0.5257996,0.6609221,0.08513386,-0.14984001,0.6543826,0.29951683,-0.11562083,-0.08813171,0.28053275,0.14182343,-0.37785652,-0.533346,0.033541456,811.0989,805.4579,805.8608,803.44324,691.4286,-0.388671875,-0.01824951171875,0.92572021484375,4.762725830078125,-4.53094482421875,1.368255615234375,1,1.0,1.0,1.0,1.0,70.00
2021-04-16 09:47:41.583,1.2650642,0.8013436,0.5501152,1.0863001,0.9589975,0.07362904,0.15709682,0.73864484,0.94236803,0.17086121,-0.18134017,0.59825534,0.4542545,-0.027243491,-0.06449398,0.20435584,0.18493524,-0.36762062,-0.49539974,-0.022370378,825.2015,806.26373,810.293,829.2308,960.58606,-0.39007568359375,-0.02886962890625,0.91949462890625,4.78515625,-5.316009521484375,0.605621337890625,1,1.0,1.0,1.0,1.0,70.00
2021-04-16 09:47:42.126,1.115587,0.91451657,0.54692817,0.83295155,0.87263036,0.22523049,0.18760559,0.74720126,0.9639063,0.23232394,-0.003666585,0.74396545,0.42652318,0.053066783,-0.018308295,0.36724013,-9.475188E-4,-0.35658434,-0.39838907,-0.1274802,813.5165,817.1429,816.7399,808.68134,740.989,-0.382568359375,-0.020751953125,0.92523193359375,4.732818603515625,-4.71038818359375,1.62994384765625,1,1.0,1.0,1.0,1.0,70.00
2021-04-16 09:47:42.647,0.89722764,0.93529737,0.49937764,0.6788946,0.69035435,0.33707425,0.17297274,0.5743944,0.96330494,0.3215702,0.13761826,0.7972347,0.35704967,0.039372634,0.005676071,0.41061085,-0.061921187,-0.38155994,-0.38202393,-0.037221324,799.41394,795.38464,814.3223,794.9817,804.65204,-0.38201904296875,-0.022705078125,0.92578125,4.658050537109375,-4.762725830078125,0.800018310546875,1,1.0,1.0,1.0,1.0,70.00
2021-04-16 09:47:43.179,0.47357324,0.930071,0.6057975,0.6418832,0.45691434,0.42667058,0.17763716,0.5640077,0.71395516,0.31031895,0.19879626,0.78707564,0.2633274,-0.043478023,-1.17195574E-4,0.40639612,-0.15701734,-0.4080772,-0.46479243,-0.023357842,807.0696,796.99634,819.15753,815.9341,844.94507,-0.380615234375,-0.020751953125,0.93072509765625,4.8748779296875,-3.87298583984375,0.94207763671875,1,1.0,1.0,1.0,1.0,55.00
2021-04-16 09:47:43.686,0.4385347,0.7017513,0.6359818,0.3489145,0.36347917,0.34505913,0.033233967,0.16448483,0.75549936,0.2922506,0.26327163,0.53828895,0.31927398,-0.10211839,-0.06630072,0.45936343,0.06688073,-0.49792197,-0.56585354,0.054293443,814.7253,818.7546,804.2491,809.0842,663.22345,-0.3829345703125,-0.0244140625,0.92864990234375,4.85992431640625,-5.12908935546875,0.785064697265625,1,1.0,1.0,1.0,1.0,55.00
2021-04-16 09:47:44.197,0.46309802,0.6178353,0.54653174,0.3942364,0.38422439,0.22639875,0.016626993,0.24570191,0.81036484,0.17937578,0.26664218,0.4513469,0.30924645,-0.118423894,-0.11351337,0.17480034,0.13494618,-0.5478358,-0.5876404,-0.07993644,812.71063,809.0842,803.0403,803.0403,700.696,-0.38043212890625,-0.0194091796875,0.9315185546875,4.867401123046875,-5.435638427734375,1.60003662109375,1,1.0,1.0,1.0,1.0,55.00
2021-04-16 09:47:44.707,0.4346436,0.26178113,0.30319196,0.3888771,0.4005631,-0.16047025,0.0030849185,0.30552143,0.8403802,-0.001768562,0.34143025,0.4513469,0.34560087,-0.14963394,-0.15380722,0.25477898,0.13135654,-0.54284126,-0.53600335,-0.10650558,814.3223,806.6667,807.0696,805.8608,862.674,-0.3802490234375,-0.0174560546875,0.93121337890625,4.702911376953125,-3.431854248046875,1.383209228515625,1,1.0,1.0,1.0,1.0,55.00
2021-04-16 09:47:45.242,0.43386224,0.2203551,0.15009181,0.35631105,0.32493705,-0.36476085,0.020756017,0.2689004,0.8326153,-0.011583701,0.31027684,0.4999009,0.3410757,-0.12789065,-0.12387774,0.33050972,0.0803636,-0.33863425,-0.45604604,-0.08360771,811.50183,806.6667,811.0989,806.26373,665.2381,-0.38153076171875,-0.01971435546875,0.925537109375,4.837493896484375,-4.88983154296875,1.203765869140625,1,1.0,1.0,1.0,1.0,55.00
2021-04-16 09:47:45.764,0.4431344,0.080148846,0.32341805,0.33366606,0.2622717,-0.45131952,-0.0085559795,0.1854605,0.660974,-0.032812055,0.31027684,0.24798597,0.39353773,-0.010217826,-0.092286915,0.38313138,0.025424564,-0.2862361,-0.474364,-0.028706128,807.47253,807.47253,807.8755,792.96704,729.304,-0.3892822265625,-0.01763916015625,0.922607421875,4.246826171875,-4.53094482421875,1.2261962890625,1,1.0,1.0,1.0,1.0,55.00
2021-04-16 09:47:46.278,0.5330327,0.38204247,0.49265212,0.38431567,0.0641072,-0.38236493,-0.16771896,0.029607933,0.6368925,-0.049301967,0.27724457,0.31586635,0.4395607,0.041124463,-0.11046451,0.35129175,0.010731912,-0.2920092,-0.3813279,0.024947582,802.6374,801.02563,796.5934,804.2491,949.707,-0.3818359375,-0.02532958984375,0.921875,4.972076416015625,-5.585174560546875,0.994415283203125,1,1.0,1.0,1.0,1.0,55.00
2021-04-16 09:47:46.804,0.50863546,0.4909942,0.60815805,0.38338673,-0.05252461,-0.18046287,-0.27690607,-0.16764666,0.51520383,-0.05870039,-0.053532388,0.33322886,0.44570976,0.061095107,-0.12684134,0.31455123,0.07377329,-0.42432454,-0.37791657,0.06350715,768.7912,804.2491,809.4872,760.7326,776.04395,-0.391845703125,-0.01593017578125,0.9237060546875,4.299163818359375,-3.446807861328125,1.33087158203125,1,1.0,1.0,1.0,1.0,55.00
2021-04-16 09:47:47.308,0.5788798,0.8615549,0.90710783,0.41794705,-0.19214362,0.39348397,-0.054326605,-0.30385622,0.46398622,0.3494218,0.007653028,0.21531224,0.45010966,0.053962428,-0.034597144,0.27057758,0.1633852,-0.42493233,-0.36166528,0.07356673,809.89014,803.0403,803.8461,813.1135,777.25275,-0.3983154296875,-0.02008056640625,0.917724609375,3.940277099609375,-4.11224365234375,1.136474609375,1,1.0,1.0,1.0,1.0,55.00
2021-04-16 09:47:47.819,0.3806855,0.8907888,0.8751965,0.1384372,-0.19256966,0.39765248,-0.072948605,-0.6756415,0.22046216,0.34783128,0.0640533,0.17379685,0.2646977,0.15595649,0.045082953,0.28112236,0.24192664,-0.35774007,-0.46565884,0.057670012,818.3516,800.2198,793.36993,826.0073,994.0293,-0.3896484375,-0.02301025390625,0.92218017578125,5.256195068359375,-5.046844482421875,0.874786376953125,1,1.0,1.0,1.0,1.0,55.00
2021-04-16 09:47:48.333,0.3806855,1.0095125,0.94853973,0.9909335,-0.19256966,0.4523522,0.24774124,0.9995539,0.22046216,0.53103745,0.43243244,0.60300577,0.2646977,0.108195215,0.13531797,0.5869227,0.24192664,-0.35279456,-0.40482545,0.07103564,811.9048,814.7253,809.0842,804.65204,698.2784,-0.39691162109375,-0.024658203125,0.92041015625,4.119720458984375,-4.568328857421875,0.299072265625,1,1.0,1.0,1.0,1.0,55.00
2021-04-16 09:47:48.872,1.0005643,1.0358721,0.7649196,1.0013795,0.75724167,0.13839498,0.29532433,0.93616474,1.0597079,0.44655362,0.41492808,0.971458,0.43240017,0.07920346,0.102955595,0.5372078,0.09117074,-0.50510776,-0.34457877,0.0560141,811.9048,806.26373,802.6374,819.5604,819.15753,-0.39697265625,-0.021484375,0.91546630859375,4.306640625,-4.1571044921875,0.844879150390625,1,1.0,1.0,1.0,1.0,55.00
2021-04-16 09:47:49.385,0.967689,1.0158788,0.91608655,0.9737938,0.7421294,0.21933478,0.30311182,0.9304922,1.0613991,0.44655362,0.38945118,1.0092409,0.42608756,-0.017385542,0.05512938,0.4814384,0.060804076,-0.5139484,-0.36274025,0.10066577,810.696,797.3993,803.44324,819.5604,969.0476,-0.40374755859375,-0.026611328125,0.9188232421875,4.725341796875,-4.8748779296875,1.069183349609375,1,1.0,1.0,1.0,1.0,55.00
2021-04-16 09:47:49.906,0.91396385,0.87553084,0.85451263,0.8712561,0.63954175,0.16667187,0.010781642,0.8200099,1.0658128,0.3557034,-0.02734713,1.0092409,0.3660235,-0.009157567,-0.05672433,0.4012671,-0.0023007065,-0.548103,-0.38960898,0.06965626,818.3516,824.3956,829.6337,817.1429,709.5604,-0.391845703125,-0.0242919921875,0.92047119140625,4.912261962890625,-4.6356201171875,0.91217041015625,1,1.0,1.0,1.0,1.0,55.00
2021-04-16 09:47:50.410,0.74924916,0.51322997,0.8460107,0.71044064,0.4747434,0.08654354,0.054151922,0.6729703,0.90130734,-0.0053586047,0.024125628,0.93592083,0.30067936,-0.055472244,-0.08366118,0.35241637,-0.10759877,-0.4637061,-0.38258168,0.101246744,807.47253,803.0403,807.47253,802.23444,749.0476,-0.3995361328125,-0.02349853515625,0.9190673828125,3.96270751953125,-5.420684814453125,1.861724853515625,1,1.0,1.0,1.0,1.0,55.00
2021-04-16 09:47:50.922,0.5630722,0.46200725,0.7631585,0.55176604,0.16511764,-0.056025397,0.1305056,0.40276724,0.40187865,-0.020797303,0.0922069,0.24419428,0.22647153,-0.025775017,-0.047509454,0.36896417,-0.18804815,-0.3485914,-0.32680553,0.05416819,771.2088,757.9121,741.79486,765.56775,708.7546,-0.3936767578125,-0.01971435546875,0.922607421875,4.94964599609375,-5.779571533203125,1.136474609375,1,1.0,1.0,1.0,1.0,55.00
2021-04-16 09:47:51.270,,,,,,,,,,,,,,,,,,,,,,,,,,,,,,,,,,,,,,/muse/elements/blink
2021-04-16 09:47:51.433,0.33274415,0.3499129,0.78521764,0.508097,-0.062404703,-0.25983313,0.26614052,0.14141859,0.27076146,-0.020834645,0.14508742,0.023055261,0.22823082,-0.0016583458,-4.7206326E-4,0.3942163,-0.21324696,-0.26626942,-0.31402814,0.08927349,775.2381,785.31134,784.5055,768.3883,737.3626,-0.37445068359375,-0.0244140625,0.92730712890625,4.673004150390625,-5.555267333984375,0.95703125,1,1.0,1.0,1.0,1.0,55.00
2021-04-16 09:47:51.959,0.2923274,0.27359086,0.8015947,0.5764623,-0.4904693,-0.45848447,0.1959211,0.15228862,0.13246085,-0.022658862,0.08516239,-0.02707167,0.24127932,0.0408552,0.0355399,0.4122768,-0.16625148,-0.14534242,-0.3540002,0.027499825,757.1062,795.78754,795.38464,756.7033,771.2088,-0.3690185546875,-0.02313232421875,0.92510986328125,4.83001708984375,-5.2337646484375,0.79254150390625,1,1.0,1.0,1.0,1.0,55.00
2021-04-16 09:47:52.508,0.2923274,0.32982004,0.69723696,0.5764623,-0.4904693,-0.43193194,0.11808994,0.15228862,0.13246085,-0.03491123,0.017317595,-0.02707167,0.24127932,0.022414122,0.055033825,0.4122768,-0.16625148,-0.12196337,-0.3696711,0.027499825,832.0513,830.0366,845.7509,846.1539,676.1172,-0.35894775390625,-0.02374267578125,0.93292236328125,4.5758056640625,-5.62255859375,0.6878662109375,1,1.0,1.0,1.0,1.0,55.00
2021-04-16 09:47:53.037,0.2923274,0.32982004,0.69723696,0.5764623,-0.4904693,-0.43193194,0.11808994,0.15228862,0.13246085,-0.03491123,0.017317595,-0.02707167,0.24127932,0.022414122,0.055033825,0.4122768,-0.16625148,-0.12196337,-0.3696711,0.027499825,821.5751,814.7253,821.1722,819.15753,913.8461,-0.3621826171875,-0.01824951171875,0.93585205078125,4.254302978515625,-5.480499267578125,1.353302001953125,1,1.0,1.0,1.0,1.0,55.00
2021-04-16 09:47:53.582,0.2923274,0.7890021,0.5472587,0.8026828,-0.4904693,0.25654605,-0.27462173,0.35371462,0.13246085,0.30685622,0.34474152,0.22050755,0.24127932,0.15423554,0.26193905,0.52074456,-0.16625148,-0.10019453,-0.26903364,0.116741754,803.0403,826.0073,803.0403,778.86444,765.16486,-0.34674072265625,-0.01953125,0.93798828125,4.56085205078125,-3.985137939453125,1.622467041015625,1,2.0,1.0,1.0,2.0,70.00
2021-04-16 09:47:54.122,0.7693544,0.8886888,0.73844194,0.8999333,0.62238985,0.5889906,-0.13280068,0.39245808,0.4248198,0.4349305,0.44071683,0.33975223,0.30059773,0.12183239,0.13738137,0.47218397,0.16992043,-0.21535371,-0.31366846,-0.028769668,833.2601,804.65204,820.3663,833.663,922.71063,-0.34930419921875,-0.02191162109375,0.93994140625,5.076751708984375,-4.373931884765625,1.293487548828125,1,1.0,1.0,1.0,1.0,70.00
2021-04-16 09:47:54.655,0.52113104,0.9758212,0.9247976,0.921847,0.47214198,0.632295,0.18982868,0.41439787,1.0149167,0.6540621,0.5252048,0.8246283,0.2650362,0.14952597,0.014934616,0.43003646,0.09510812,-0.33225316,-0.29184246,-0.041583437,814.3223,817.9487,807.8755,813.1135,728.0952,-0.35589599609375,-0.0191650390625,0.94012451171875,4.6954345703125,-5.644989013671875,1.57012939453125,1,1.0,1.0,1.0,1.0,70.00
2021-04-16 09:47:55.159,0.46268183,0.8901747,0.9530116,0.90043086,0.49753907,0.5709444,0.23191266,0.40555242,1.0758891,0.64970285,0.51444906,0.89952207,0.21345775,0.11354269,0.0061395396,0.3908502,0.021544913,-0.4794029,-0.33898896,-0.15664175,811.50183,811.50183,811.9048,808.2784,734.1392,-0.35107421875,-0.02099609375,0.9434814453125,4.6356201171875,-5.51788330078125,1.8841552734375,1,1.0,1.0,1.0,1.0,70.00
2021-04-16 09:47:55.717,0.73691046,0.75235295,0.80459446,0.93452346,0.7449625,0.34252074,0.2325459,0.6429456,1.1267112,0.6113742,0.49600133,1.0088977,0.28853065,0.14758544,0.044400755,0.41274732,-0.06170302,-0.5002347,-0.35196123,-0.13624515,819.9634,806.26373,813.1135,828.8278,1005.7143,-0.3544921875,-0.02264404296875,0.9366455078125,4.4561767578125,-4.20196533203125,0.58319091796875,1,1.0,1.0,1.0,1.0,70.00
2021-04-16 09:47:56.231,0.7556526,0.59843016,0.47614524,0.8476836,0.7195221,0.100019634,0.23163535,0.6205693,1.1830431,0.440272,0.3947301,1.027357,0.27780178,0.13489288,3.2497026E-4,0.35360974,-0.16092493,-0.48245147,-0.42439726,-0.08438921,773.6264,827.2161,785.31134,761.53845,688.60803,-0.34808349609375,-0.021728515625,0.940673828125,4.732818603515625,-3.925323486328125,1.024322509765625,1,1.0,1.0,1.0,1.0,70.00
2021-04-16 09:47:56.736,0.7561557,0.6879387,0.7164066,0.84789026,0.6394971,0.31482863,0.3008851,0.6597997,1.1765653,0.43642074,0.38803124,0.9968826,0.35090297,0.06823655,0.048165582,0.2977778,-0.04741775,-0.5085736,-0.4577456,0.015827253,811.9048,810.293,796.1905,809.0842,774.43225,-0.34527587890625,-0.02239990234375,0.9378662109375,4.486083984375,-5.316009521484375,1.12152099609375,1,1.0,1.0,1.0,1.0,70.00
2021-04-16 09:47:57.258,0.6144753,0.8594217,0.9085115,0.6204479,0.24033867,0.40510997,0.41928762,0.34894487,1.0689282,0.54159814,0.49395224,0.7858722,0.2532731,0.04228986,0.03292122,0.0625474,0.018912006,-0.5280815,-0.4436341,0.06591442,800.2198,796.5934,790.54944,794.9817,812.71063,-0.3525390625,-0.02490234375,0.93731689453125,4.837493896484375,-3.27484130859375,1.607513427734375,1,1.0,1.0,1.0,1.0,70.00
2021-04-16 09:47:57.792,0.6778278,0.7930887,0.8883251,0.44744956,0.28305525,0.38064718,0.31912944,0.29749855,0.68926144,0.51548696,0.49112192,0.63074374,0.30265775,0.0029937485,0.0015115718,0.11644351,0.07768507,-0.47725138,-0.40023646,-0.1442187,810.293,801.4286,801.8315,800.2198,648.71796,-0.357666015625,-0.02252197265625,0.93402099609375,4.68048095703125,-4.11224365234375,0.52337646484375,1,1.0,1.0,1.0,1.0,70.00
2021-04-16 09:47:58.324,0.76881224,0.7722574,0.77779603,0.7454161,0.2529493,0.12024926,0.26050568,0.3747823,0.8380856,0.51751703,0.48352277,0.9166069,0.17337291,0.00743278,-0.19145899,0.14905773,-0.054783225,-0.442442,-0.39426532,-0.17143773,811.0989,809.4872,800.6227,806.26373,768.3883,-0.3741455078125,-0.02532958984375,0.934814453125,4.44122314453125,-3.087921142578125,1.472930908203125,1,1.0,1.0,1.0,1.0,70.00
2021-04-16 09:47:58.863,0.62137395,0.49460772,0.57699907,0.68896335,0.15875752,-0.24010913,0.037714843,0.38691708,0.8879307,0.19178267,0.1612217,0.97341615,0.18240139,-0.1235128,-0.26906154,0.20958355,-0.10470686,-0.40042493,-0.40327477,-0.18078932,761.53845,791.3553,801.8315,768.7912,708.3516,-0.380615234375,-0.02557373046875,0.92950439453125,4.463653564453125,-4.508514404296875,1.07666015625,1,1.0,1.0,1.0,1.0,70.00
2021-04-16 09:47:59.399,0.63877463,0.7051695,0.6422209,0.746706,0.14409488,-0.21258038,0.13215058,0.37975034,0.8878987,0.08667743,0.12878737,0.97341615,0.15582804,-0.22184826,-0.31037298,0.26066506,-0.07437874,-0.3663152,-0.44135982,-0.14791623,809.4872,804.2491,806.6667,804.65204,792.1612,-0.36883544921875,-0.0240478515625,0.92852783203125,4.66552734375,-5.18890380859375,0.381317138671875,1,1.0,1.0,1.0,1.0,70.00
2021-04-16 09:47:59.905,-0.0811475,0.7166531,0.6673964,0.54772455,0.1593864,-0.10194197,0.1825573,0.41021448,0.62465954,-0.0014311958,0.23457617,0.6824597,0.28448367,-0.16798301,-0.1395777,0.31001633,-0.111128084,-0.30901343,-0.42571342,-0.2001192,803.44324,797.3993,798.20514,817.1429,1004.10254,-0.369873046875,-0.031005859375,0.92950439453125,4.725341796875,-4.882354736328125,-0.112152099609375,1,1.0,1.0,1.0,1.0,70.00
2021-04-16 09:48:00.410,0.49121198,0.7254895,0.71125793,0.16985933,0.22877644,0.060159598,0.27109423,0.47431472,0.31218988,-0.028147563,0.25451395,0.3950398,0.26887095,-0.0825185,-0.042883273,0.3566947,0.12814148,-0.35558513,-0.4028501,0.2311753,798.20514,790.14655,802.6374,796.1905,705.5311,-0.36541748046875,-0.0283203125,0.93609619140625,4.673004150390625,-5.38330078125,1.375732421875,1,1.0,1.0,1.0,1.0,70.00
2021-04-16 09:48:00.948,0.5126056,0.48919702,0.5648045,0.34818766,0.48483878,0.064927496,0.32731462,0.5955521,0.41145864,0.039574433,0.27502733,0.42641938,0.38229677,0.017338729,0.08511858,0.43424055,0.16227354,-0.40985146,-0.4924065,0.27108204,803.44324,795.38464,796.5934,805.4579,773.6264,-0.37213134765625,-0.022216796875,0.939453125,5.802001953125,-2.848663330078125,-1.27105712890625,1,1.0,1.0,1.0,1.0,70.00
2021-04-16 09:48:01.479,0.768424,0.5198902,0.5374309,0.8034192,0.4359699,0.09046602,0.32588622,0.54708874,0.42733788,0.044453617,0.27411473,0.45988685,0.3742349,0.028751096,0.041679,0.45874417,0.3129767,-0.39779907,-0.51793313,0.25306663,774.0293,786.52014,797.3993,779.2674,738.1685,-0.37847900390625,-0.02301025390625,0.92694091796875,3.9178466796875,-6.048736572265625,0.07476806640625,1,1.0,1.0,1.0,1.0,70.00
2021-04-16 09:48:01.999,0.87007374,0.72821385,0.62978977,0.9734103,0.51796705,-0.014229079,0.3973693,0.57238126,0.41324055,0.1271823,0.26692405,0.35129225,0.41065943,0.05726543,0.08813164,0.5006043,0.3963555,-0.28020462,-0.5325141,0.25567102,811.0989,809.89014,807.47253,813.91943,861.06226,-0.38421630859375,-0.02105712890625,0.92486572265625,4.83001708984375,-3.476715087890625,0.710296630859375,1,1.0,1.0,1.0,1.0,70.00
2021-04-16 09:48:02.507,1.0977571,0.84830976,0.72014755,1.2269177,0.36586553,-0.061749548,0.27075228,0.41363338,0.8485029,0.022312094,0.210317,0.34784824,0.37275112,0.010525965,0.03221819,0.5423775,0.43333042,-0.30399466,-0.425041,0.21749507,809.89014,807.47253,809.0842,805.8608,717.619,-0.37652587890625,-0.02850341796875,0.92181396484375,4.366455078125,-6.198272705078125,1.114044189453125,1,1.0,1.0,1.0,1.0,70.00
2021-04-16 09:48:03.023,1.0790285,0.8363988,0.6887142,1.2269177,0.32407898,-0.11685744,0.17196509,0.41363338,0.83395225,0.29638222,0.18753518,0.34784824,0.32942316,-0.026858855,0.034114312,0.5423775,-0.11950155,-0.3154838,-0.38892612,0.21749507,794.9817,794.57874,790.14655,793.36993,730.5128,-0.3748779296875,-0.02642822265625,0.92791748046875,4.628143310546875,-4.8748779296875,1.577606201171875,1,1.0,1.0,1.0,1.0,70.00
2021-04-16 09:48:03.527,1.0790285,0.75672144,0.73538715,1.2269177,0.32407898,-0.014572983,0.101011425,0.41363338,0.83395225,0.35522026,0.21420278,0.34784824,0.32942316,-0.028296776,-0.054116145,0.5423775,-0.11950155,-0.41185796,-0.39442053,0.21749507,826.8132,817.1429,816.7399,828.8278,927.9487,-0.37310791015625,-0.02508544921875,0.92999267578125,5.15899658203125,-5.084228515625,1.472930908203125,1,1.0,1.0,1.0,1.0,70.00
2021-04-16 09:48:04.043,0.978897,0.68477494,0.67408353,0.8513015,0.50587195,0.176597,0.079462826,0.72275835,0.5342375,0.5141651,0.16971803,0.6276492,0.44140118,0.008359104,-0.03097192,0.47663376,-0.0036045164,-0.38234594,-0.4495593,0.11467802,816.7399,825.2015,795.78754,799.011,1068.9744,-0.364013671875,-0.026611328125,0.93341064453125,4.987030029296875,-5.21881103515625,0.680389404296875,1,1.0,1.0,1.0,1.0,65.00
2021-04-16 09:48:04.547,0.934026,0.8811318,0.7251811,0.89808714,0.57474035,0.31763452,0.06334064,0.6374342,0.5342375,0.51242334,0.22907023,0.67922217,0.45594934,0.0023674946,0.029705532,0.36689764,0.11062546,-0.44639397,-0.46441457,0.2030903,805.05493,811.0989,807.8755,807.8755,792.1612,-0.357421875,-0.02239990234375,0.935302734375,4.628143310546875,-4.77020263671875,1.51031494140625,1,1.0,1.0,1.0,1.0,65.00
2021-04-16 09:48:05.052,0.7827049,0.94753253,0.79943633,0.96266484,0.49160168,0.4094108,0.08566062,0.56957006,0.5342375,0.5022691,0.29768437,0.6713585,0.39350134,-0.09527423,0.08492824,0.33286092,0.08723427,-0.51991856,-0.5100406,0.26424262,819.15753,828.8278,805.4579,807.0696,798.60803,-0.362548828125,-0.02593994140625,0.93560791015625,4.94964599609375,-3.895416259765625,1.547698974609375,1,1.0,1.0,1.0,1.0,65.00
2021-04-16 09:48:05.573,0.2743596,0.88415444,0.7906701,0.86539483,0.2733583,0.35952622,0.062937446,0.41423646,0.3005623,0.34084576,0.4070655,0.63708204,0.16736881,-0.10328903,0.06013507,0.31656915,0.07070505,-0.6500663,-0.5527846,0.21255915,789.7436,802.23444,799.41394,794.9817,735.34796,-0.3609619140625,-0.0230712890625,0.9346923828125,4.47113037109375,-4.628143310546875,0.478515625,1,1.0,1.0,1.0,1.0,65.00
2021-04-16 09:48:06.117,0.42594382,0.9199472,0.8978193,0.7280435,0.19556451,0.40996265,0.3521526,0.32251933,0.40202722,0.33080047,0.46688232,0.6704144,0.28033948,-0.036509223,-0.04118888,0.3819134,0.03308361,-0.59086514,-0.5582526,0.077141434,807.47253,799.41394,796.1905,795.38464,662.8205,-0.3675537109375,-0.0240478515625,0.93121337890625,4.6954345703125,-4.4561767578125,0.755157470703125,1,1.0,1.0,1.0,1.0,65.00
2021-04-16 09:48:06.641,0.57240766,0.82241654,0.80764484,0.5732475,0.16598159,0.37045872,0.36322287,0.23351394,0.7834585,0.39454636,0.38952416,0.76511246,0.30478907,0.036129378,-0.05335193,0.392374,0.053121477,-0.41824475,-0.44864628,-0.09403427,780.4762,801.8315,793.7729,776.4469,751.06226,-0.37109375,-0.02227783203125,0.9310302734375,4.882354736328125,-4.246826171875,-0.0897216796875,1,1.0,1.0,1.0,1.0,65.00
2021-04-16 09:48:07.162,0.7796045,0.78321594,0.8603584,0.75202435,0.26715666,0.35436133,0.36932868,0.21859974,0.7983816,0.3728469,0.4339169,0.75317776,0.31827894,-0.01617089,0.007589947,0.36474636,0.062285632,-0.3311668,-0.40184924,-0.042784043,790.14655,814.7253,792.96704,781.685,710.3663,-0.39459228515625,-0.0260009765625,0.921142578125,4.53094482421875,-3.820648193359375,0.46356201171875,1,1.0,1.0,1.0,1.0,65.00
2021-04-16 09:48:07.674,0.79971033,0.66651297,0.6095887,0.7586748,0.35974923,0.13710515,0.116162114,0.35484856,0.89242756,0.3053424,0.27378738,1.0844467,0.23155999,-0.009957405,0.017559173,0.38614258,0.03372909,-0.42394146,-0.439289,-0.02101238,802.23444,784.5055,795.38464,812.71063,886.8498,-0.386474609375,-0.02294921875,0.9234619140625,4.59075927734375,-4.613189697265625,0.5084228515625,1,1.0,1.0,1.0,1.0,65.00
2021-04-16 09:48:08.183,0.72547096,0.6964968,0.48147535,0.6745903,0.4915084,0.08747551,0.058945667,0.53087795,0.9369568,-0.118714176,0.3056008,1.0950341,0.23110758,0.058377296,-0.022282012,0.38511807,-3.5022796E-4,-0.527568,-0.48617062,0.019945733,802.6374,801.8315,801.8315,800.2198,864.68866,-0.38922119140625,-0.03021240234375,0.92333984375,4.403839111328125,-6.003875732421875,1.45050048828125,1,1.0,1.0,1.0,1.0,65.00
2021-04-16 09:48:08.693,0.6194992,0.66623276,0.18841799,0.6229286,0.47798508,-2.3524932E-4,-5.335789E-4,0.51032543,0.93734336,0.11169372,0.32542196,1.0667992,0.3412217,0.0138456905,-0.035643313,0.38283765,0.022451127,-0.48883373,-0.5069041,0.09294247,812.3077,809.4872,818.3516,818.3516,738.1685,-0.38653564453125,-0.0234375,0.92498779296875,4.643096923828125,-4.792633056640625,1.233673095703125,1,1.0,1.0,1.0,1.0,65.00
2021-04-16 09:48:09.234,0.616922,0.6170105,0.806769,0.6776178,0.5040261,0.12994286,0.15628576,0.42834514,0.9808042,0.358419,0.38670555,1.060451,0.39962375,0.036369693,0.0016896797,0.44024917,0.032224316,-0.47189227,-0.46179083,0.11879441,793.7729,792.96704,790.14655,785.7143,764.35895,-0.38555908203125,-0.0245361328125,0.92193603515625,4.643096923828125,-4.26177978515625,0.88226318359375,1,1.0,1.0,1.0,1.0,65.00
2021-04-16 09:48:09.770,0.7188451,0.6108611,0.98390216,0.7833142,0.44679645,0.07131476,0.0983839,0.14527358,0.69772094,0.3588587,0.29734105,0.70943576,0.4328984,-0.05787482,-0.03687506,0.48323458,0.054574683,-0.47271666,-0.45631427,0.13251337,792.5641,803.44324,796.99634,794.57874,706.7399,-0.388427734375,-0.02825927734375,0.92144775390625,4.403839111328125,-6.063690185546875,1.24114990234375,1,1.0,1.0,1.0,1.0,65.00
2021-04-16 09:48:10.314,0.6751937,0.8535761,0.96950597,0.80256355,0.47174945,0.25860038,0.16515061,0.2622649,0.6959326,0.37535036,0.40871596,0.81080085,0.34481272,-0.034624863,0.015697133,0.53217185,-0.038600385,-0.5782295,-0.3971903,0.07273675,774.83514,780.87915,792.96704,781.28204,758.315,-0.385498046875,-0.023681640625,0.924560546875,4.687957763671875,-4.373931884765625,1.57012939453125,1,1.0,1.0,1.0,1.0,65.00
2021-04-16 09:48:10.837,1.0681757,0.9954557,0.5752196,1.202471,0.5809572,0.15272078,0.057626225,0.4035275,0.8089981,0.24894147,0.38278675,0.84571725,0.2429755,-0.14714865,0.018513095,0.18084174,0.11766545,-0.42133003,-0.331134,0.20822094,793.36993,796.5934,798.60803,793.7729,790.54944,-0.3853759765625,-0.02655029296875,0.92498779296875,4.613189697265625,-4.246826171875,0.814971923828125,1,1.0,1.0,1.0,1.0,65.00
2021-04-16 09:48:11.381,1.0681757,0.9927137,0.611722,1.0931321,0.5809572,0.19707735,0.12176522,0.42421955,0.8089981,0.4340151,0.38278675,0.84923166,0.2429755,-0.12900044,-0.017676394,0.21224156,0.11766545,-0.3056623,-0.31610245,0.14200205,813.5165,803.8461,803.44324,809.89014,722.0513,-0.39044189453125,-0.02398681640625,0.9222412109375,4.643096923828125,-3.349609375,1.323394775390625,1,1.0,1.0,1.0,1.0,65.00
2021-04-16 09:48:11.910,0.7734519,0.87517124,0.71136147,0.92347324,0.6003053,0.07377517,0.12387766,0.61710525,0.91422963,0.42960948,0.099687345,0.77309334,0.16029242,-0.053523745,-0.08216637,0.27098534,-0.05768712,-0.29067194,-0.30557823,0.055180926,818.3516,820.3663,812.71063,817.9487,791.75824,-0.3924560546875,-0.02911376953125,0.9251708984375,4.658050537109375,-4.29168701171875,0.777587890625,1,1.0,1.0,1.0,1.0,65.00
2021-04-16 09:48:12.423,0.5863833,0.5488369,0.6305568,0.69141716,0.4928812,0.078798935,0.07138794,0.58723044,0.9377201,0.4139044,0.0071522775,0.62907577,0.21475904,0.023451539,-0.0048618983,0.25976843,-0.0460196,-0.35307407,-0.37934905,0.020618299,794.57874,809.4872,801.4286,795.38464,708.7546,-0.3895263671875,-0.02752685546875,0.92120361328125,4.613189697265625,-4.59075927734375,0.64300537109375,1,1.0,1.0,1.0,1.0,65.00
2021-04-16 09:48:12.932,0.73635954,0.5561355,0.44270095,0.71070606,0.51328045,0.111255296,0.020915223,0.56432784,0.9208184,0.121807374,-0.08025971,0.6109063,0.29253787,0.051115327,0.042394966,0.30503857,-0.04790163,-0.38554415,-0.330831,0.058376182,810.696,815.9341,817.1429,811.9048,799.41394,-0.39007568359375,-0.03399658203125,0.9212646484375,4.26177978515625,-5.86181640625,0.70281982421875,1,1.0,1.0,1.0,1.0,65.00
2021-04-16 09:48:13.442,0.86331856,0.6221238,0.6380722,0.8199195,0.5428153,0.086653285,-0.029340776,0.5193435,0.75924295,0.13525908,-0.037935708,0.5765037,0.3511202,-0.020649914,0.019267773,0.3214746,-0.027523093,-0.35067856,-0.37117365,0.048318483,816.337,823.1868,828.022,819.15753,717.2161,-0.39105224609375,-0.03460693359375,0.92181396484375,5.06927490234375,-4.852447509765625,1.45050048828125,1,1.0,1.0,1.0,1.0,65.00
2021-04-16 09:48:13.956,0.9807514,0.6199454,0.70206124,0.8381599,0.6806222,0.045214448,0.08516755,0.57128054,0.59512126,0.13525908,0.1390219,0.3560987,0.39788896,-0.07602684,-0.10733321,0.38636264,-0.07651707,-0.39014944,-0.42812318,0.05241427,802.23444,811.50183,802.23444,797.8022,763.95605,-0.3831787109375,-0.0277099609375,0.924072265625,4.725341796875,-4.53094482421875,1.517791748046875,1,1.0,1.0,1.0,1.0,65.00
2021-04-16 09:48:14.468,1.1126126,0.67355484,0.8346534,1.0595576,0.71491396,0.05783916,0.10678182,0.69717383,0.26901495,0.15884581,0.2633448,0.5509828,0.4001625,-0.08429709,-0.10931731,0.3863306,-0.1216619,-0.42283434,-0.45319337,0.060533814,809.4872,815.12823,825.2015,801.8315,828.8278,-0.38525390625,-0.027099609375,0.9249267578125,4.5758056640625,-5.4730224609375,1.801910400390625,1,1.0,1.0,1.0,1.0,65.00
2021-04-16 09:48:14.995,1.1126126,0.5111489,0.8913147,0.8406206,0.71491396,0.16064823,0.18910927,0.5082922,0.26901495,0.049645353,0.28218973,0.6245367,0.4001625,0.058027416,-0.054027114,0.3469358,-0.1216619,-0.43145618,-0.43705434,-0.025296614,804.2491,807.8755,809.89014,804.65204,729.707,-0.3775634765625,-0.02117919921875,0.924072265625,4.867401123046875,-4.53094482421875,0.889739990234375,1,1.0,1.0,1.0,1.0,65.00
2021-04-16 09:48:15.500,0.2938917,0.5203499,0.90183544,0.68553466,0.16682088,0.16017671,0.14603943,0.356367,0.4719266,0.0852121,0.3391112,0.6851631,0.21068189,0.098539345,-0.079302505,0.30509117,0.059497524,-0.41804674,-0.42574468,-0.07735938,810.696,810.696,801.02563,806.6667,780.87915,-0.3839111328125,-0.0205078125,0.92474365234375,4.605712890625,-4.673004150390625,0.889739990234375,1,1.0,1.0,1.0,1.0,65.00
2021-04-16 09:48:16.036,0.28881046,0.401968,0.7860998,0.45218995,0.27011704,-0.046684943,0.11611747,0.28849953,0.5592659,-7.991883E-4,0.3472892,0.7353133,0.30711177,0.084522285,-0.1346551,0.34785306,0.15014586,-0.5010905,-0.53288263,-0.09420095,801.8315,794.17584,795.38464,800.2198,747.8388,-0.37750244140625,-0.0235595703125,0.9237060546875,4.85992431640625,-4.62066650390625,0.680389404296875,1,1.0,1.0,1.0,1.0,65.00
2021-04-16 09:48:16.554,0.397746,0.5689876,0.5327721,0.34978396,0.40154025,-0.08034916,0.095850654,0.39802873,0.507255,-0.028815402,0.2489764,0.666322,0.30681258,-0.04924004,-0.21801396,0.39697888,0.10569933,-0.5687932,-0.648819,-0.062332053,809.4872,802.6374,808.2784,800.6227,796.99634,-0.38519287109375,-0.0235595703125,0.92120361328125,4.643096923828125,-4.059906005859375,0.859832763671875,1,1.0,1.0,1.0,1.0,65.00
2021-04-16 09:48:17.064,0.39481974,0.56021243,0.287423,0.3066803,0.42212608,0.0022994636,0.09182916,0.4263806,0.46001074,0.11047536,0.23385218,0.47651535,0.29886734,-0.057947244,-0.19029613,0.43415204,0.041182,-0.53724474,-0.57228523,-0.07071425,804.65204,798.20514,805.4579,806.6667,867.9121,-0.38623046875,-0.0245361328125,0.91888427734375,4.53094482421875,-4.104766845703125,0.934600830078125,1,1.0,1.0,1.0,1.0,65.00
2021-04-16 09:48:17.587,0.6902091,0.6578644,0.33409923,0.48773095,0.35627496,0.034510266,0.017538186,0.39185217,0.66429347,0.13521175,0.24454461,0.5204481,0.27093136,-0.057574496,-0.14626655,0.38064232,-0.14311875,-0.4797967,-0.4832799,-0.07376357,738.97437,782.0879,809.0842,741.79486,748.6447,-0.3917236328125,-0.0150146484375,0.918701171875,4.852447509765625,-3.3795166015625,0.897216796875,1,1.0,1.0,1.0,1.0,65.00
2021-04-16 09:48:18.121,0.75925505,0.8833362,0.61033225,0.5452514,0.14909565,0.20706443,0.12956493,0.20549153,0.66429347,0.13688219,0.33584118,0.50285697,0.26723802,0.005020783,-0.015797112,0.31622347,-0.22089152,-0.42956147,-0.422553,-0.067831196,757.9121,782.8938,788.5348,743.4066,713.9927,-0.4276123046875,-0.02020263671875,0.9017333984375,7.125396728515625,4.6954345703125,-1.0467529296875,1,1.0,1.0,1.0,1.0,65.00
2021-04-16 09:48:18.631,1.0232905,1.0964061,0.77407813,0.8139233,0.06662768,0.31971195,0.21363553,0.32639274,0.591693,0.34287918,0.26799002,0.47076344,0.35229376,-0.017230248,0.03100578,0.27780488,-0.2302971,-0.41952288,-0.40239334,0.007737608,798.20514,780.87915,784.10254,786.9231,812.71063,-0.47088623046875,0.0096435546875,0.8916015625,2.75146484375,-4.3963623046875,2.76641845703125,1,1.0,1.0,1.0,1.0,65.00
2021-04-16 09:48:19.151,1.0232905,1.1896158,0.9516283,0.8139233,0.06662768,0.4303635,0.41058534,0.32639274,0.591693,0.34287918,0.14135292,0.47076344,0.35229376,0.026932783,0.04859353,0.27780488,-0.2302971,-0.43710178,-0.3637589,0.007737608,775.2381,790.9524,791.75824,770.40295,713.9927,-0.44140625,-0.01715087890625,0.8992919921875,4.366455078125,-6.7291259765625,0.35888671875,1,1.0,1.0,1.0,1.0,65.00
2021-04-16 09:48:19.684,1.0232905,1.1573875,1.0522135,0.8139233,0.06662768,0.528988,0.49854252,0.32639274,0.591693,0.3743683,0.13207719,0.47076344,0.35229376,0.012558652,-0.00887197,0.27780488,-0.2302971,-0.45182443,-0.28832155,0.007737608,807.47253,798.60803,791.3553,807.8755,792.5641,-0.44158935546875,-0.0189208984375,0.89697265625,3.22998046875,-4.6954345703125,0.61309814453125,1,1.0,1.0,1.0,1.0,65.00
2021-04-16 09:48:20.191,1.0232905,1.0606527,1.2902167,0.8139233,0.06662768,0.6043654,0.6473512,0.32639274,0.591693,0.55453396,0.08540331,0.47076344,0.35229376,0.0034541262,-0.020924224,0.27780488,-0.2302971,-0.38290197,-0.39101735,0.007737608,816.337,821.978,799.011,804.65204,716.4103,-0.4273681640625,-0.0211181640625,0.9041748046875,4.94964599609375,-5.54779052734375,1.099090576171875,1,1.0,1.0,1.0,1.0,65.00
2021-04-16 09:48:20.700,0.8941437,1.0876411,1.1510749,0.8139233,0.7154593,0.6043723,0.7425855,0.32639274,0.79275405,0.55453396,0.41482237,0.47076344,0.52621025,-0.11096111,-0.12387072,0.27780488,0.17625,-0.34826005,-0.38356602,0.007737608,814.7253,811.9048,811.9048,806.26373,693.0403,-0.41937255859375,-0.017822265625,0.908447265625,3.970184326171875,-4.448699951171875,0.321502685546875,1,1.0,1.0,1.0,1.0,65.00
2021-04-16 09:48:21.205,0.88372236,1.0475926,1.0655532,0.8139233,0.6086438,0.54064846,0.69369084,0.32639274,0.79275405,0.55546,0.4483718,0.47076344,0.46994868,-0.10429283,-0.1117741,0.27780488,0.16418418,-0.33436766,-0.3382254,0.007737608,841.31866,819.9634,823.5897,850.989,938.8278,-0.4259033203125,-0.009521484375,0.90924072265625,4.38140869140625,-1.622467041015625,2.968292236328125,1,1.0,1.0,1.0,1.0,65.00
2021-04-16 09:48:21.736,0.9205664,1.1357524,0.9462246,0.8139233,0.395782,0.48549104,0.650424,0.32639274,0.32709095,0.33322474,0.46952865,0.47076344,0.40594897,-0.044147257,-0.09765545,0.27780488,0.13129365,-0.382092,-0.32140657,0.007737608,825.6044,821.5751,821.978,822.381,665.64105,-0.42315673828125,-0.023193359375,0.9049072265625,5.5926513671875,-4.0972900390625,-1.9140625,1,1.0,1.0,1.0,1.0,65.00
2021-04-16 09:48:22.256,0.9205664,1.1248034,1.0596114,0.8139233,0.395782,0.3698384,0.49713632,0.32639274,0.32709095,0.29883617,0.39919773,0.47076344,0.40594897,0.08653285,0.0085692145,0.27780488,0.13129365,-0.45341304,-0.3099625,0.007737608,812.71063,823.1868,811.0989,809.0842,778.86444,-0.42327880859375,-0.0196533203125,0.90826416015625,4.23187255859375,-4.239349365234375,0.61309814453125,1,1.0,1.0,1.0,1.0,65.00
2021-04-16 09:48:22.764,0.9205664,1.1989683,1.159222,0.8139233,0.395782,0.21318814,0.5352257,0.32639274,0.32709095,0.37596166,0.19706367,0.47076344,0.40594897,0.0144182,0.048224386,0.27780488,0.13129365,-0.5041603,-0.35951793,0.007737608,815.12823,811.0989,810.696,817.1429,853.8095,-0.42822265625,-0.0194091796875,0.9071044921875,3.357086181640625,-2.175750732421875,0.456085205078125,1,1.0,1.0,1.0,1.0,65.00
2021-04-16 09:48:23.268,1.0343145,0.78093064,0.867139,0.8970204,0.4445949,-0.050598245,0.44966775,0.18424965,0.9045959,0.20596552,0.55861306,0.49825191,0.37026533,-0.06096854,0.04332065,0.36002523,0.07740973,-0.44263366,-0.41479754,-0.013989429,791.75824,803.8461,798.60803,786.1172,764.7619,-0.4501953125,-0.0279541015625,0.8939208984375,4.972076416015625,-5.323486328125,0.64300537109375,1,1.0,1.0,1.0,1.0,65.00
2021-04-16 09:48:23.793,1.0653416,0.76648945,0.84429044,0.98779565,0.4579342,-0.20766044,0.26658714,0.34480393,0.99597853,0.24046737,0.5754909,0.74824387,0.47131315,-0.06277738,0.020240346,0.3827317,0.088771805,-0.42652863,-0.4172362,-0.09211059,811.0989,799.011,788.1319,794.9817,864.2857,-0.4317626953125,-0.02545166015625,0.9036865234375,4.5758056640625,-5.988922119140625,0.755157470703125,1,1.0,1.0,1.0,1.0,65.00
2021-04-16 09:48:24.303,1.0143505,0.711782,0.8420592,0.9649573,0.48137584,-0.27227855,0.120873325,0.33072844,0.93395823,0.20429197,0.50691557,0.7051189,0.45962054,-0.049154438,0.050812952,0.34715125,0.0266882,-0.41788173,-0.40318602,-0.18486248,810.293,813.1135,809.4872,810.696,788.93774,-0.43572998046875,-0.0267333984375,0.90325927734375,4.687957763671875,-5.0244140625,0.70281982421875,1,1.0,1.0,1.0,1.0,60.00
2021-04-16 09:48:24.808,0.98874617,0.80575913,0.88716424,0.9801156,0.49106088,-0.23413745,-0.02301288,0.39981005,0.7675413,0.30281818,0.22439814,0.70867294,0.4408186,-0.024114508,0.105914466,0.4133906,-0.03543796,-0.44889733,-0.3786609,-0.29592478,815.9341,815.5311,817.9487,814.3223,793.36993,-0.43402099609375,-0.021484375,0.9022216796875,5.203857421875,-5.405731201171875,1.323394775390625,1,1.0,1.0,1.0,1.0,60.00
2021-04-16 09:48:25.326,0.86119384,0.6864261,0.8122162,0.799235,0.54468274,-0.19494033,0.11592277,0.49974874,0.6691837,0.25572312,0.3091195,0.64408946,0.3880564,-0.033891317,0.16038802,0.41811317,0.009163817,-0.47579765,-0.36276448,-0.1514932,813.91943,788.1319,815.5311,816.7399,755.09155,-0.42724609375,-0.0274658203125,0.9093017578125,4.134674072265625,-3.81317138671875,1.457977294921875,1,1.0,1.0,1.0,1.0,60.00
2021-04-16 09:48:25.831,1.0107442,0.790105,0.90785235,0.83202356,0.72626585,0.057728432,0.26013198,0.70686096,0.5887773,0.42401215,0.5632474,0.6767005,0.36742893,-0.06524151,0.10785651,0.40334332,0.06284341,-0.50552094,-0.37375253,-0.0715148,810.696,807.8755,812.3077,804.2491,713.9927,-0.42181396484375,-0.0299072265625,0.907470703125,4.538421630859375,-4.807586669921875,1.18133544921875,1,1.0,1.0,1.0,1.0,60.00
2021-04-16 09:48:26.354,1.0266291,0.7748119,0.9791057,0.908587,0.74495834,0.13371186,0.26148644,0.70593953,0.5949449,0.41470367,0.5999017,0.8222784,0.34251073,-0.11957149,0.11343401,0.32698777,0.116090775,-0.5159397,-0.39747804,-0.03392661,817.1429,805.8608,806.26373,813.91943,734.5421,-0.42950439453125,-0.02642822265625,0.905029296875,3.790740966796875,-5.495452880859375,1.443023681640625,1,1.0,1.0,1.0,1.0,60.00
2021-04-16 09:48:26.874,1.042913,0.8707868,0.9608269,0.94701064,0.7250242,0.22966884,0.26868737,0.65310323,0.65382,0.44307125,0.5696929,0.8312972,0.32201242,-0.16403411,0.060839776,0.30684417,0.058902625,-0.54690576,-0.4638939,-0.04832901,788.5348,806.6667,804.2491,791.3553,824.7985,-0.4256591796875,-0.02056884765625,0.90704345703125,4.5458984375,-4.02252197265625,1.1663818359375,1,1.0,1.0,1.0,1.0,60.00
2021-04-16 09:48:27.379,0.7697376,0.8361713,0.7913624,0.90733,0.47608265,0.24145128,0.44566426,0.36930797,0.61319846,0.43545642,0.54174346,0.8260202,0.29137287,-0.14063464,0.13638048,0.32676247,0.058438294,-0.49070174,-0.50627923,-0.05544252,809.89014,809.89014,805.4579,798.60803,679.34064,-0.4267578125,-0.0284423828125,0.9049072265625,4.628143310546875,-4.792633056640625,1.21124267578125,1,1.0,1.0,1.0,1.0,60.00
2021-04-16 09:48:27.927,0.5004748,0.7725288,0.24727815,0.65492654,0.3091673,0.22526716,0.42450318,0.36823457,0.70738536,0.26106432,0.20401436,0.6806369,0.4303446,-0.07938107,0.055551875,0.55235773,0.052140146,-0.44097263,-0.41204536,0.22712329,832.4542,811.50183,806.6667,825.2015,819.9634,-0.4241943359375,-0.0235595703125,0.8994140625,4.78515625,-4.17205810546875,0.755157470703125,1,1.0,1.0,1.0,1.0,60.00
2021-04-16 09:48:28.447,0.6704529,0.62937194,0.12459602,0.6406917,0.33762273,0.11437632,0.26799095,0.307159,0.7776528,0.25190204,0.18843797,0.6516851,0.507333,-0.011200863,0.043041587,0.6261288,0.007953656,-0.30072078,-0.31714693,0.33153382,808.68134,812.71063,808.68134,813.1135,721.6484,-0.4212646484375,-0.02520751953125,0.90838623046875,4.508514404296875,-4.50103759765625,0.8074951171875,1,1.0,1.0,1.0,1.0,60.00
2021-04-16 09:48:28.966,0.5660614,0.3536669,0.4198495,0.55767035,0.2944624,-0.054373756,-0.17307405,0.2527921,0.78053784,0.10385582,0.17129607,0.66911143,0.4869816,-0.027292978,-0.025906097,0.6195848,-0.0032732347,-0.2584056,-0.3708497,0.27172753,821.5751,813.5165,807.47253,815.9341,739.3773,-0.42633056640625,-0.02178955078125,0.91094970703125,4.837493896484375,-4.837493896484375,1.652374267578125,1,1.0,1.0,1.0,1.0,60.00
2021-04-16 09:48:29.510,0.56902814,0.5624382,0.59979683,0.6158017,0.29475555,0.10118716,-0.17138518,0.36457217,0.73331255,0.3849978,0.21627356,0.49739653,0.46850392,-0.014999855,-0.006161874,0.5113326,-0.032590546,-0.24207897,-0.45062754,0.15522341,804.65204,810.696,810.696,798.60803,744.61536,-0.42877197265625,-0.0220947265625,0.90545654296875,4.5159912109375,-4.299163818359375,1.128997802734375,1,1.0,1.0,1.0,1.0,60.00
2021-04-16 09:48:30.012,0.72681,0.8159778,0.7015953,0.70849305,0.5849604,0.3902968,-0.055038657,0.6726814,0.76208216,0.48784867,0.339527,0.48722836,0.43963575,0.023174468,0.04103615,0.45298,-0.004623086,-0.35329956,-0.48937187,0.037063368,803.0403,809.4872,801.8315,796.1905,694.2491,-0.42340087890625,-0.025390625,0.909912109375,4.673004150390625,-4.26177978515625,0.829925537109375,1,1.0,1.0,1.0,1.0,60.00
2021-04-16 09:48:30.530,0.7764549,0.85867685,0.6266219,0.7016195,0.66178805,0.4560865,0.019882077,0.7115405,0.6881874,0.531058,0.34398112,0.5603323,0.42114204,0.11965266,0.054799467,0.3807291,-0.11038652,-0.45245555,-0.38330683,0.025960635,806.26373,802.23444,795.38464,812.3077,709.15753,-0.4227294921875,-0.027587890625,0.90850830078125,4.418792724609375,-3.3197021484375,1.39068603515625,1,1.0,1.0,1.0,1.0,60.00
2021-04-16 09:48:31.049,0.76308256,0.7848383,0.47847208,0.6326937,0.5166271,0.36277923,-0.06361718,0.66411054,0.68919706,0.52055687,0.2938382,0.55931973,0.35448334,0.088918835,0.055490173,0.3699377,-0.15593801,-0.5356347,-0.34583881,0.12924895,800.6227,816.337,809.89014,795.78754,771.6117,-0.423828125,-0.02880859375,0.9078369140625,4.643096923828125,-5.00946044921875,1.099090576171875,1,1.0,1.0,1.0,1.0,60.00
2021-04-16 09:48:31.592,0.6255347,0.46920812,0.34706885,0.4473397,0.2598421,0.016412139,-0.15099485,0.4174723,0.4619097,0.28525588,0.16301344,0.5438612,0.31077525,0.056170244,-0.034206852,0.311736,-0.25159445,-0.53600985,-0.3416097,0.1668215,803.8461,809.0842,801.02563,801.4286,776.4469,-0.42535400390625,-0.02691650390625,0.90447998046875,4.463653564453125,-4.403839111328125,0.5084228515625,1,1.0,1.0,1.0,1.0,60.00
2021-04-16 09:48:32.125,0.75534534,0.31041387,0.2217253,0.48898166,-0.27439678,-0.1397451,-0.3320414,0.38437086,0.15421389,0.2626839,0.046563108,0.47274095,0.16875054,-0.09221806,-0.104160026,0.24912709,-0.2520835,-0.5712146,-0.45923567,0.21869054,814.3223,799.011,798.60803,823.5897,1011.3553,-0.42047119140625,-0.02386474609375,0.9093017578125,4.56085205078125,-4.912261962890625,0.680389404296875,1,1.0,1.0,1.0,1.0,60.00
2021-04-16 09:48:32.668,0.1929766,0.11452156,0.26432124,0.15021905,0.32687634,-0.14897051,-0.17676638,0.28236988,0.73901594,0.059362877,0.050677292,0.46531266,0.16289744,-0.113968536,-0.1137116,0.36333048,-0.13962945,-0.50567377,-0.42712617,0.013690108,788.5348,801.8315,809.4872,800.6227,765.9707,-0.42364501953125,-0.02789306640625,0.9093017578125,4.687957763671875,-4.777679443359375,1.472930908203125,1,1.0,1.0,1.0,1.0,60.00
2021-04-16 09:48:33.173,0.8001545,0.6225822,0.92693514,0.6525729,0.52160674,0.26231503,0.23370512,0.60150146,1.0071795,0.5496099,0.4980448,0.91873944,0.2529423,-0.0480494,-0.07198628,0.37289253,-0.05670861,-0.4290029,-0.3838847,0.07910549,813.1135,810.293,809.89014,803.0403,713.9927,-0.41131591796875,-0.02801513671875,0.914306640625,4.837493896484375,-5.286102294921875,0.127105712890625,1,1.0,1.0,1.0,1.0,60.00
