TimeStamp,Delta_TP9,Delta_AF7,Delta_AF8,Delta_TP10,Theta_TP9,Theta_AF7,Theta_AF8,Theta_TP10,Alpha_TP9,Alpha_AF7,Alpha_AF8,Alpha_TP10,Beta_TP9,Beta_AF7,Beta_AF8,Beta_TP10,Gamma_TP9,Gamma_AF7,Gamma_AF8,Gamma_TP10,RAW_TP9,RAW_AF7,RAW_AF8,RAW_TP10,AUX_RIGHT,Accelerometer_X,Accelerometer_Y,Accelerometer_Z,Gyro_X,Gyro_Y,Gyro_Z,HeadBandOn,HSI_TP9,HSI_AF7,HSI_AF8,HSI_TP10,Battery,Elements
2021-04-02 11:52:27.407,1.1654431,0.0,0.0,0.38702568,0.57981986,0.0,0.0,0.069931924,0.65104145,0.0,0.0,0.35437208,0.54555947,0.0,0.0,0.6534697,0.13771309,0.0,0.0,0.19931613,802.6374,759.12085,749.45056,814.7253,834.4689,0.20806884765625,0.0582275390625,0.97503662109375,4.59075927734375,-5.15899658203125,1.024322509765625,1,1.0,1.0,1.0,1.0,80.00
2021-04-02 11:52:27.425,,,,,,,,,,,,,,,,,,,,,,,,,,,,,,,,,,,,,,/muse/elements/jaw_clench
2021-04-02 11:52:27.714,,,,,,,,,,,,,,,,,,,,,,,,,,,,,,,,,,,,,,/muse/elements/jaw_clench
2021-04-02 11:52:27.924,1.1654431,0.0,0.0,0.38702568,0.57981986,0.0,0.0,0.069931924,0.65104145,0.0,0.0,0.35437208,0.54555947,0.0,0.0,0.6534697,0.13771309,0.0,0.0,0.19931613,804.65204,836.4835,866.7033,795.38464,750.65936,0.22039794921875,0.05072021484375,0.97943115234375,4.987030029296875,-5.764617919921875,-0.04486083984375,1,1.0,1.0,1.0,1.0,80.00
2021-04-02 11:52:28.026,,,,,,,,,,,,,,,,,,,,,,,,,,,,,,,,,,,,,,/muse/elements/jaw_clench
2021-04-02 11:52:28.339,,,,,,,,,,,,,,,,,,,,,,,,,,,,,,,,,,,,,,/muse/elements/jaw_clench
2021-04-02 11:52:28.426,1.1654431,0.0,0.0,0.38702568,0.57981986,0.0,0.0,0.069931924,0.65104145,0.0,0.0,0.35437208,0.54555947,0.0,0.0,0.6534697,0.13771309,0.0,0.0,0.19931613,790.9524,846.9597,833.663,794.57874,792.96704,0.2034912109375,0.07122802734375,0.9794921875,5.42816162109375,-4.007568359375,-0.83740234375,1,1.0,1.0,1.0,1.0,80.00
2021-04-02 11:52:28.530,,,,,,,,,,,,,,,,,,,,,,,,,,,,,,,,,,,,,,/muse/elements/jaw_clench
2021-04-02 11:52:28.775,,,,,,,,,,,,,,,,,,,,,,,,,,,,,,,,,,,,,,/muse/elements/blink
2021-04-02 11:52:28.943,1.1654431,0.0,0.0,0.38702568,0.57981986,0.0,0.0,0.069931924,0.65104145,0.0,0.0,0.35437208,0.54555947,0.0,0.0,0.6534697,0.13771309,0.0,0.0,0.19931613,807.8755,921.50183,840.5128,799.011,782.49084,0.161376953125,0.05914306640625,0.95123291015625,7.843170166015625,-19.96307373046875,-6.3104248046875,1,1.0,1.0,1.0,1.0,80.00
2021-04-02 11:52:29.142,,,,,,,,,,,,,,,,,,,,,,,,,,,,,,,,,,,,,,/muse/elements/jaw_clench
2021-04-02 11:52:29.352,,,,,,,,,,,,,,,,,,,,,,,,,,,,,,,,,,,,,,/muse/elements/jaw_clench
2021-04-02 11:52:29.470,1.1654431,0.0,0.0,0.38702568,0.57981986,0.0,0.0,0.069931924,0.65104145,0.0,0.0,0.35437208,0.54555947,0.0,0.0,0.6534697,0.13771309,0.0,0.0,0.19931613,815.12823,1024.249,1026.6666,801.4286,733.3333,0.44573974609375,0.154296875,0.90313720703125,5.084228515625,-9.79461669921875,-2.026214599609375,1,1.0,1.0,1.0,1.0,80.00
2021-04-02 11:52:29.637,,,,,,,,,,,,,,,,,,,,,,,,,,,,,,,,,,,,,,/muse/elements/jaw_clench
2021-04-02 11:52:29.980,1.1654431,0.0,0.0,0.38702568,0.57981986,0.0,0.0,0.069931924,0.65104145,0.0,0.0,0.35437208,0.54555947,0.0,0.0,0.6534697,0.13771309,0.0,0.0,0.19931613,793.7729,788.5348,736.9597,793.7729,946.08057,0.451416015625,0.1226806640625,0.8890380859375,6.033782958984375,-1.712188720703125,7.693634033203125,1,2.0,1.0,1.0,2.0,80.00
2021-04-02 11:52:30.080,,,,,,,,,,,,,,,,,,,,,,,,,,,,,,,,,,,,,,/muse/elements/blink
2021-04-02 11:52:30.178,,,,,,,,,,,,,,,,,,,,,,,,,,,,,,,,,,,,,,/muse/elements/jaw_clench
2021-04-02 11:52:30.504,1.1654431,0.0,0.0,0.38702568,0.57981986,0.0,0.0,0.069931924,0.65104145,0.0,0.0,0.35437208,0.54555947,0.0,0.0,0.6534697,0.13771309,0.0,0.0,0.19931613,808.2784,714.7985,890.87915,809.0842,834.0659,0.4072265625,0.1395263671875,0.89227294921875,10.280609130859375,-11.3946533203125,6.317901611328125,1,2.0,1.0,1.0,2.0,80.00
2021-04-02 11:52:30.671,,,,,,,,,,,,,,,,,,,,,,,,,,,,,,,,,,,,,,/muse/elements/jaw_clench
2021-04-02 11:52:30.951,,,,,,,,,,,,,,,,,,,,,,,,,,,,,,,,,,,,,,/muse/elements/jaw_clench
2021-04-02 11:52:31.015,1.1654431,0.0,0.0,0.38702568,0.57981986,0.0,0.0,0.069931924,0.65104145,0.0,0.0,0.35437208,0.54555947,0.0,0.0,0.6534697,0.13771309,0.0,0.0,0.19931613,794.57874,846.9597,968.24176,805.05493,787.72894,0.46441650390625,0.1336669921875,0.86602783203125,1.57012939453125,-3.00567626953125,-6.20574951171875,1,2.0,1.0,1.0,2.0,80.00
2021-04-02 11:52:31.525,1.1654431,0.0,0.0,0.7242219,0.57981986,0.0,0.0,0.653539,0.65104145,0.0,0.0,0.49836355,0.54555947,0.0,0.0,0.3920627,0.13771309,0.0,0.0,-0.029253872,815.12823,784.5055,829.6337,807.8755,883.6264,0.4359130859375,0.15826416015625,0.878662109375,4.1571044921875,-6.751556396484375,0.814971923828125,1,2.0,1.0,1.0,2.0,80.00
2021-04-02 11:52:32.051,0.7892875,0.0,0.0,0.62570095,0.3866791,0.0,0.0,0.6163555,0.28752798,0.0,0.0,0.78615147,0.43782648,0.0,0.0,0.33496675,0.094220065,0.0,0.0,0.0036937657,825.6044,814.3223,957.3626,809.4872,815.9341,0.4534912109375,0.20172119140625,0.88433837890625,4.134674072265625,-4.837493896484375,-13.38348388671875,1,1.0,1.0,1.0,1.0,80.00
2021-04-02 11:52:32.552,0.823742,0.0,0.0,0.57169634,0.6243139,0.0,0.0,0.59957635,1.0861877,0.0,0.0,0.9704061,0.4822878,0.0,0.0,0.313796,0.18905096,0.0,0.0,0.074865974,801.02563,715.6044,749.85345,814.3223,878.7912,0.42864990234375,0.1885986328125,0.89178466796875,4.59075927734375,-3.99261474609375,2.579498291015625,1,1.0,1.0,1.0,1.0,80.00
2021-04-02 11:52:32.805,,,,,,,,,,,,,,,,,,,,,,,,,,,,,,,,,,,,,,/muse/elements/jaw_clench
2021-04-02 11:52:33.058,0.9258307,0.0,0.0,0.53578335,0.70848125,0.0,0.0,0.55361146,1.0861877,0.0,0.0,0.96554244,0.5981293,0.0,0.0,0.40422827,0.14694872,0.0,0.0,0.052561693,775.2381,789.34064,822.381,803.0403,934.7985,0.41229248046875,0.105224609375,0.87823486328125,-3.54400634765625,3.207550048828125,42.356109619140625,1,1.0,1.0,1.0,1.0,80.00
2021-04-02 11:52:33.122,,,,,,,,,,,,,,,,,,,,,,,,,,,,,,,,,,,,,,/muse/elements/jaw_clench
2021-04-02 11:52:33.389,,,,,,,,,,,,,,,,,,,,,,,,,,,,,,,,,,,,,,/muse/elements/jaw_clench
2021-04-02 11:52:33.569,0.96392274,0.0,0.0,0.839416,0.83692706,0.0,0.0,0.6427366,1.0861877,0.0,0.0,0.9631825,0.6544441,0.0,0.0,0.5901886,0.1873109,0.0,0.0,0.10997287,813.5165,848.5714,929.5604,786.9231,751.4652,0.379150390625,-0.00384521484375,0.940185546875,10.87127685546875,2.91595458984375,5.734710693359375,1,1.0,1.0,1.0,1.0,80.00
2021-04-02 11:52:33.736,,,,,,,,,,,,,,,,,,,,,,,,,,,,,,,,,,,,,,/muse/elements/jaw_clench
2021-04-02 11:52:33.830,,,,,,,,,,,,,,,,,,,,,,,,,,,,,,,,,,,,,,/muse/elements/blink
2021-04-02 11:52:33.915,,,,,,,,,,,,,,,,,,,,,,,,,,,,,,,,,,,,,,/muse/elements/jaw_clench
2021-04-02 11:52:34.081,1.0147105,0.0,0.0,0.9623255,0.7925667,0.0,0.0,0.67945385,0.74675924,0.0,0.0,0.57293653,0.71410346,0.0,0.0,0.7001043,0.03337961,0.0,0.0,0.06600867,697.47253,1005.7143,1625.0183,710.3663,826.4103,0.0838623046875,0.0313720703125,0.99114990234375,8.142242431640625,45.77301025390625,19.432220458984375,1,1.0,1.0,1.0,1.0,80.00
2021-04-02 11:52:34.118,,,,,,,,,,,,,,,,,,,,,,,,,,,,,,,,,,,,,,/muse/elements/blink
2021-04-02 11:52:34.425,,,,,,,,,,,,,,,,,,,,,,,,,,,,,,,,,,,,,,/muse/elements/jaw_clench
2021-04-02 11:52:34.594,1.0147105,0.0,0.0,1.1905755,0.7925667,0.0,0.0,0.82967776,0.74675924,0.0,0.0,0.35231656,0.71410346,0.0,0.0,0.81358856,0.03337961,0.0,0.0,0.20695809,848.97437,806.6667,630.58606,844.1392,823.1868,-0.06414794921875,0.0577392578125,0.98870849609375,4.747772216796875,-18.804168701171875,5.14404296875,1,1.0,1.0,2.0,1.0,80.00
2021-04-02 11:52:34.716,,,,,,,,,,,,,,,,,,,,,,,,,,,,,,,,,,,,,,/muse/elements/blink
2021-04-02 11:52:35.104,1.0147105,0.0,0.0,1.1905755,0.7925667,0.0,0.0,0.82967776,0.74675924,0.0,0.0,0.35231656,0.71410346,0.0,0.0,0.81358856,0.03337961,0.0,0.0,0.20695809,813.1135,686.1905,793.36993,814.7253,922.71063,-0.0767822265625,0.03619384765625,0.97308349609375,9.757232666015625,-0.179443359375,-9.8095703125,1,1.0,1.0,1.0,1.0,80.00
2021-04-02 11:52:35.223,,,,,,,,,,,,,,,,,,,,,,,,,,,,,,,,,,,,,,/muse/elements/jaw_clench
2021-04-02 11:52:35.613,1.0147105,0.0,0.0,1.1905755,0.7925667,0.0,0.0,0.82967776,0.74675924,0.0,0.0,0.35231656,0.71410346,0.0,0.0,0.81358856,0.03337961,0.0,0.0,0.20695809,794.17584,734.94507,681.3553,795.78754,968.6447,-3.662109375E-4,0.06640625,1.00439453125,6.542205810546875,-12.45635986328125,-11.237640380859375,1,1.0,1.0,1.0,1.0,80.00
2021-04-02 11:52:35.749,,,,,,,,,,,,,,,,,,,,,,,,,,,,,,,,,,,,,,/muse/elements/jaw_clench
2021-04-02 11:52:36.078,,,,,,,,,,,,,,,,,,,,,,,,,,,,,,,,,,,,,,/muse/elements/jaw_clench
2021-04-02 11:52:36.123,1.0147105,0.0,0.0,1.1905755,0.7925667,0.0,0.0,0.82967776,0.74675924,0.0,0.0,0.35231656,0.71410346,0.0,0.0,0.81358856,0.03337961,0.0,0.0,0.20695809,811.50183,796.1905,769.59705,808.2784,869.12085,0.0042724609375,0.07080078125,0.98724365234375,5.24871826171875,-7.2076416015625,-1.173858642578125,1,1.0,1.0,4.0,1.0,80.00
2021-04-02 11:52:36.632,1.0147105,0.0,0.0,0.5581213,0.7925667,0.0,0.0,0.39000705,0.74675924,0.0,0.0,0.53309935,0.71410346,0.0,0.0,0.44926772,0.03337961,0.0,0.0,0.039597023,792.5641,805.8608,821.5751,788.93774,747.4359,0.09197998046875,0.12139892578125,1.002197265625,5.15899658203125,-10.445098876953125,0.650482177734375,1,2.0,1.0,1.0,2.0,80.00
2021-04-02 11:52:36.867,,,,,,,,,,,,,,,,,,,,,,,,,,,,,,,,,,,,,,/muse/elements/jaw_clench
2021-04-02 11:52:37.143,0.7221896,0.0,0.0,0.5548295,0.41788575,0.0,0.0,0.38599694,0.41506663,0.0,0.0,0.66667444,0.6203176,0.0,0.0,0.5409713,0.16168676,0.0,0.0,0.16659097,804.65204,795.38464,793.36993,801.02563,807.0696,0.10748291015625,0.10540771484375,0.9927978515625,7.200164794921875,-3.671112060546875,0.61309814453125,1,1.0,1.0,1.0,1.0,80.00
2021-04-02 11:52:37.655,0.8218321,0.0,0.0,0.525554,0.45561263,0.0,0.0,0.37171024,0.44663858,0.0,0.0,0.68884,0.67158306,0.0,0.0,0.48297334,0.30112842,0.0,0.0,0.12610963,807.47253,794.17584,786.1172,799.81683,823.5897,0.096923828125,0.137451171875,0.9921875,2.51220703125,-6.183319091796875,4.4561767578125,1,1.0,1.0,1.0,1.0,80.00
2021-04-02 11:52:38.163,0.8165672,0.0,0.0,0.61056024,0.4763517,0.0,0.0,0.3301563,0.45018062,0.0,0.0,0.69248044,0.65417707,0.0,0.0,0.54837435,0.28623638,0.0,0.0,0.17361346,807.0696,780.4762,775.64105,807.47253,892.8938,0.1220703125,0.139892578125,0.990966796875,8.187103271484375,-5.99639892578125,-0.64300537109375,1,1.0,1.0,1.0,1.0,80.00
2021-04-02 11:52:38.675,0.9165446,0.0,0.0,0.73737925,0.4893169,0.0,0.0,0.2820608,0.5233872,0.0,0.0,0.5885491,0.5721038,0.0,0.0,0.56208205,0.26346946,0.0,0.0,0.07400055,844.5421,784.90845,716.8132,830.84247,882.8205,0.15728759765625,0.1605224609375,0.9720458984375,4.725341796875,-7.364654541015625,-9.85443115234375,1,1.0,1.0,1.0,1.0,80.00
2021-04-02 11:52:39.184,0.93597686,0.0,0.0,0.8278245,0.49335557,0.0,0.0,0.24696217,0.47641456,0.0,0.0,0.3775529,0.4390577,0.0,0.0,0.63778824,0.14664768,0.0,0.0,0.089105844,816.337,820.7692,827.2161,809.4872,939.6337,0.15594482421875,0.1514892578125,0.97088623046875,4.074859619140625,-2.5421142578125,11.551666259765625,1,1.0,1.0,1.0,1.0,80.00
2021-04-02 11:52:39.691,0.98240685,0.0,0.0,0.8873825,0.4640023,0.0,0.0,0.24092706,0.47641456,0.0,0.0,0.3513589,0.37576032,0.0,0.0,0.6379281,0.11744315,0.0,0.0,-0.071542166,809.4872,780.4762,786.9231,810.696,888.0586,0.17352294921875,0.1298828125,0.9776611328125,3.476715087890625,-3.013153076171875,0.515899658203125,1,1.0,1.0,1.0,1.0,80.00
2021-04-02 11:52:39.827,,,,,,,,,,,,,,,,,,,,,,,,,,,,,,,,,,,,,,/muse/elements/jaw_clench
2021-04-02 11:52:40.203,0.95967764,0.6858411,0.0,0.87998956,0.4277538,0.419757,0.0,0.1729205,0.46566385,0.5062475,0.0,0.30651438,0.34908253,1.0029538,0.0,0.63196987,0.12532224,0.5921451,0.0,-0.14152937,808.68134,796.99634,813.1135,815.5311,873.5531,0.097900390625,0.120849609375,0.9871826171875,3.9776611328125,2.9010009765625,7.61138916015625,1,1.0,1.0,1.0,1.0,80.00
2021-04-02 11:52:40.710,1.143514,0.6858411,0.0,0.87998956,0.3117022,0.419757,0.0,0.1729205,0.7653287,0.5062475,0.0,0.30651438,0.5817775,1.0029538,0.0,0.63196987,0.1616598,0.5921451,0.0,-0.14152937,576.99634,813.1135,868.315,567.326,717.619,0.0111083984375,0.15008544921875,1.01177978515625,10.30303955078125,10.654449462890625,-0.0897216796875,1,1.0,1.0,1.0,1.0,80.00
2021-04-02 11:52:40.965,,,,,,,,,,,,,,,,,,,,,,,,,,,,,,,,,,,,,,/muse/elements/blink
2021-04-02 11:52:41.226,1.143514,0.80113584,0.0,0.87998956,0.3117022,0.40096846,0.0,0.1729205,0.7653287,0.47560626,0.0,0.30651438,0.5817775,1.0144554,0.0,0.63196987,0.1616598,0.5714807,0.0,-0.14152937,1012.5641,761.13556,1261.1721,986.77655,896.52014,-0.1719970703125,0.10638427734375,0.97210693359375,3.1402587890625,8.11981201171875,2.788848876953125,1,1.0,1.0,1.0,1.0,80.00
2021-04-02 11:52:41.229,,,,,,,,,,,,,,,,,,,,,,,,,,,,,,,,,,,,,,/muse/elements/blink
2021-04-02 11:52:41.741,1.1590482,0.80113584,0.0,0.87998956,0.10415733,0.40096846,0.0,0.1729205,0.54890764,0.47560626,0.0,0.30651438,0.5844433,1.0144554,0.0,0.63196987,0.037309144,0.5714807,0.0,-0.14152937,792.5641,682.1612,651.9414,799.81683,760.32965,-0.26385498046875,0.07275390625,0.9708251953125,7.13287353515625,-8.62823486328125,6.631927490234375,1,1.0,1.0,1.0,1.0,80.00
2021-04-02 11:52:42.262,1.1590482,0.80113584,0.0,0.87998956,0.10415733,0.40096846,0.0,0.1729205,0.54890764,0.47560626,0.0,0.30651438,0.5844433,1.0144554,0.0,0.63196987,0.037309144,0.5714807,0.0,-0.14152937,805.4579,657.5824,799.011,792.96704,787.72894,-0.1575927734375,0.14251708984375,0.96807861328125,5.884246826171875,-3.730926513671875,8.074951171875,1,1.0,1.0,1.0,1.0,80.00
2021-04-02 11:52:42.772,1.1590482,0.80113584,0.0,0.87998956,0.10415733,0.40096846,0.0,0.1729205,0.54890764,0.47560626,0.0,0.30651438,0.5844433,1.0144554,0.0,0.63196987,0.037309144,0.5714807,0.0,-0.14152937,821.978,795.38464,769.59705,765.9707,767.5824,-0.14788818359375,0.08575439453125,0.962890625,9.054412841796875,-3.30474853515625,-2.684173583984375,1,1.0,1.0,4.0,1.0,80.00
2021-04-02 11:52:43.276,0.9832326,0.80113584,0.0,0.6146328,0.8215423,0.40096846,0.0,0.67061937,1.1941347,0.47560626,0.0,1.2156016,1.0749527,1.0144554,0.0,0.95809186,0.43496856,0.5714807,0.0,0.38987032,795.78754,884.0293,972.674,784.90845,792.96704,-0.1656494140625,0.15057373046875,0.9921875,-5.90667724609375,-4.56085205078125,0.37384033203125,1,1.0,1.0,1.0,1.0,80.00
2021-04-02 11:52:43.491,,,,,,,,,,,,,,,,,,,,,,,,,,,,,,,,,,,,,,/muse/elements/blink
2021-04-02 11:52:43.786,0.9832326,0.80113584,0.0,0.6146328,0.8215423,0.40096846,0.0,0.67061937,1.1941347,0.47560626,0.0,1.2156016,1.0749527,1.0144554,0.0,0.95809186,0.43496856,0.5714807,0.0,0.38987032,810.293,826.8132,0.0,808.2784,789.7436,-0.135986328125,0.0484619140625,0.98736572265625,5.323486328125,-5.9515380859375,3.54400634765625,1,1.0,1.0,4.0,1.0,80.00
2021-04-02 11:52:44.189,,,,,,,,,,,,,,,,,,,,,,,,,,,,,,,,,,,,,,/muse/elements/blink
2021-04-02 11:52:44.306,0.9832326,0.80113584,0.0,0.7284183,0.8215423,0.40096846,0.0,0.7695874,1.1941347,0.47560626,0.0,1.2156016,1.0749527,1.0144554,0.0,1.0411427,0.43496856,0.5714807,0.0,0.46430206,815.5311,1151.5751,1625.0183,818.7546,840.10986,-0.14837646484375,0.04693603515625,0.94305419921875,24.6734619140625,-4.658050537109375,3.2000732421875,1,1.0,1.0,4.0,1.0,80.00
2021-04-02 11:52:44.807,1.0241162,0.80113584,0.0,0.7473936,0.8205851,0.40096846,0.0,0.81984067,1.1941347,0.47560626,0.0,1.2154578,1.0952084,1.0144554,0.0,1.0508087,0.49060383,0.5714807,0.0,0.5017199,791.3553,801.8315,786.9231,800.6227,855.0183,-0.18121337890625,0.1617431640625,0.9825439453125,-10.639495849609375,-10.370330810546875,3.641204833984375,1,1.0,1.0,4.0,1.0,80.00
2021-04-02 11:52:44.992,,,,,,,,,,,,,,,,,,,,,,,,,,,,,,,,,,,,,,/muse/elements/jaw_clench
2021-04-02 11:52:45.317,1.0241162,0.80113584,0.0,0.7473936,0.8205851,0.40096846,0.0,0.81984067,1.1941347,0.47560626,0.0,1.2154578,1.0952084,1.0144554,0.0,1.0508087,0.49060383,0.5714807,0.0,0.5017199,789.7436,690.2198,794.17584,807.47253,756.7033,-0.15673828125,0.030517578125,0.9888916015625,-18.235931396484375,-0.49346923828125,-15.559234619140625,1,1.0,1.0,2.0,1.0,80.00
2021-04-02 11:52:45.582,,,,,,,,,,,,,,,,,,,,,,,,,,,,,,,,,,,,,,/muse/elements/blink
2021-04-02 11:52:45.837,1.0241162,0.80113584,0.0,0.7473936,0.8205851,0.40096846,0.0,0.81984067,1.1941347,0.47560626,0.0,1.2154578,1.0952084,1.0144554,0.0,1.0508087,0.49060383,0.5714807,0.0,0.5017199,850.58606,637.4359,946.08057,843.3333,826.0073,-0.181884765625,-0.27239990234375,0.9288330078125,5.061798095703125,-6.38519287109375,10.81146240234375,1,1.0,1.0,4.0,1.0,80.00
2021-04-02 11:52:45.934,,,,,,,,,,,,,,,,,,,,,,,,,,,,,,,,,,,,,,/muse/elements/blink
2021-04-02 11:52:45.934,,,,,,,,,,,,,,,,,,,,,,,,,,,,,,,,,,,,,,/muse/elements/jaw_clench
2021-04-02 11:52:46.111,,,,,,,,,,,,,,,,,,,,,,,,,,,,,,,,,,,,,,/muse/elements/blink
2021-04-02 11:52:46.359,1.0241162,0.80113584,0.0,0.7473936,0.8205851,0.40096846,0.0,0.81984067,1.1941347,0.47560626,0.0,1.2154578,1.0952084,1.0144554,0.0,1.0508087,0.49060383,0.5714807,0.0,0.5017199,825.6044,645.4945,744.21246,793.7729,609.6337,-0.172119140625,-0.1158447265625,1.0040283203125,17.9144287109375,-6.3104248046875,16.725616455078125,1,2.0,4.0,4.0,2.0,80.00
2021-04-02 11:52:46.879,1.0241162,0.80113584,0.0,0.7473936,0.8205851,0.40096846,0.0,0.81984067,1.1941347,0.47560626,0.0,1.2154578,1.0952084,1.0144554,0.0,1.0508087,0.49060383,0.5714807,0.0,0.5017199,819.5604,804.65204,636.2271,800.6227,887.6557,-0.1309814453125,0.05828857421875,0.998046875,4.20196533203125,-5.570220947265625,5.443115234375,1,2.0,2.0,4.0,2.0,80.00
2021-04-02 11:52:47.045,,,,,,,,,,,,,,,,,,,,,,,,,,,,,,,,,,,,,,/muse/elements/jaw_clench
2021-04-02 11:52:47.233,,,,,,,,,,,,,,,,,,,,,,,,,,,,,,,,,,,,,,/muse/elements/jaw_clench
2021-04-02 11:52:47.386,1.0241162,0.80113584,0.0,0.7473936,0.8205851,0.40096846,0.0,0.81984067,1.1941347,0.47560626,0.0,1.2154578,1.0952084,1.0144554,0.0,1.0508087,0.49060383,0.5714807,0.0,0.5017199,827.2161,956.9597,823.5897,806.26373,847.3626,-0.099365234375,0.06982421875,1.037353515625,6.02630615234375,-7.177734375,1.1065673828125,1,2.0,1.0,2.0,2.0,80.00
2021-04-02 11:52:47.849,,,,,,,,,,,,,,,,,,,,,,,,,,,,,,,,,,,,,,/muse/elements/blink
2021-04-02 11:52:47.898,1.0241162,0.80113584,0.0,0.7473936,0.8205851,0.40096846,0.0,0.81984067,1.1941347,0.47560626,0.0,1.2154578,1.0952084,1.0144554,0.0,1.0508087,0.49060383,0.5714807,0.0,0.5017199,668.86444,1342.1611,1330.0732,575.78754,644.68866,-0.12689208984375,0.13385009765625,0.983642578125,26.565093994140625,2.43743896484375,-45.638427734375,1,2.0,2.0,2.0,2.0,80.00
2021-04-02 11:52:48.109,,,,,,,,,,,,,,,,,,,,,,,,,,,,,,,,,,,,,,/muse/elements/jaw_clench
2021-04-02 11:52:48.411,1.0241162,0.80113584,0.0,0.7473936,0.8205851,0.40096846,0.0,0.81984067,1.1941347,0.47560626,0.0,1.2154578,1.0952084,1.0144554,0.0,1.0508087,0.49060383,0.5714807,0.0,0.5017199,789.34064,712.381,729.304,811.9048,800.6227,-0.289794921875,-0.0557861328125,0.94110107421875,-6.497344970703125,3.45428466796875,7.04315185546875,1,2.0,2.0,4.0,2.0,80.00
2021-04-02 11:52:48.914,1.0241162,0.80113584,0.0,0.7473936,0.8205851,0.40096846,0.0,0.81984067,1.1941347,0.47560626,0.0,1.2154578,1.0952084,1.0144554,0.0,1.0508087,0.49060383,0.5714807,0.0,0.5017199,772.4176,794.57874,787.326,770.80585,731.7216,-0.285400390625,0.04248046875,0.98089599609375,4.0374755859375,-2.64678955078125,-1.495361328125,1,2.0,1.0,1.0,2.0,80.00
2021-04-02 11:52:49.428,1.0241162,0.80113584,0.0,0.7473936,0.8205851,0.40096846,0.0,0.81984067,1.1941347,0.47560626,0.0,1.2154578,1.0952084,1.0144554,0.0,1.0508087,0.49060383,0.5714807,0.0,0.5017199,801.02563,781.28204,784.5055,801.4286,807.0696,-0.26324462890625,-0.0128173828125,0.97467041015625,5.241241455078125,-10.18341064453125,7.140350341796875,1,2.0,1.0,1.0,2.0,80.00
2021-04-02 11:52:49.937,0.67985964,0.80113584,0.0,0.7473936,0.526245,0.40096846,0.0,0.81984067,0.4951729,0.47560626,0.0,1.2154578,0.52124286,1.0144554,0.0,1.0508087,0.3722097,0.5714807,0.0,0.5017199,803.44324,780.4762,744.61536,806.26373,853.8095,-0.24853515625,-0.02618408203125,0.96856689453125,4.2767333984375,-5.301055908203125,0.70281982421875,1,1.0,1.0,1.0,1.0,80.00
2021-04-02 11:52:50.447,0.66719306,0.31139567,0.0,0.6283217,0.4243945,-0.18499246,0.0,0.08543561,0.61404264,0.45066696,0.0,0.46580938,0.50698483,0.64868337,0.0,0.385816,0.39507416,0.17192003,0.0,-0.02341766,819.5604,788.1319,863.0769,847.76556,739.7802,-0.209228515625,-0.01409912109375,0.9749755859375,5.99639892578125,-8.127288818359375,7.2674560546875,1,1.0,1.0,1.0,1.0,80.00
2021-04-02 11:52:50.565,,,,,,,,,,,,,,,,,,,,,,,,,,,,,,,,,,,,,,/muse/elements/blink
2021-04-02 11:52:50.955,0.640599,0.81777745,0.0,0.6283217,0.41777226,0.30902117,0.0,0.08543561,0.58743006,0.71788394,0.0,0.46580938,0.48603448,0.67050594,0.0,0.385816,0.4005707,0.26493695,0.0,-0.02341766,791.75824,653.5531,767.1795,790.54944,705.9341,-0.20477294921875,0.00927734375,0.97906494140625,1.323394775390625,-6.228179931640625,23.619232177734375,1,1.0,1.0,1.0,1.0,80.00
2021-04-02 11:52:51.468,0.6514887,1.0067415,0.0,0.5178113,0.25871265,0.52247196,0.0,0.06451364,0.3815327,0.71788394,0.0,0.16837178,0.48923334,0.6948006,0.0,0.3904324,0.4210116,0.338693,0.0,-0.04300412,809.0842,768.3883,774.43225,802.23444,762.74725,-0.16156005859375,0.0244140625,0.97955322265625,4.538421630859375,-5.345916748046875,-0.979461669921875,1,1.0,1.0,1.0,1.0,80.00
2021-04-02 11:52:51.976,0.726576,1.0067415,0.0,0.53144217,0.24807417,0.52247196,0.0,0.062461182,0.37367904,0.71788394,0.0,0.07597562,0.52724034,0.6948006,0.0,0.3916998,0.38839695,0.338693,0.0,-0.03896201,789.7436,823.9927,833.2601,799.41394,796.99634,-0.1883544921875,0.00830078125,0.973388671875,5.203857421875,-6.542205810546875,-0.7476806640625,1,1.0,1.0,1.0,1.0,80.00
2021-04-02 11:52:52.489,0.726576,1.0067415,0.0,-0.122146286,0.24807417,0.52247196,0.0,0.2711806,0.37367904,0.71788394,0.0,0.33349437,0.52724034,0.6948006,0.0,0.5256339,0.38839695,0.338693,0.0,0.29426536,759.92676,1205.1648,1159.6337,759.92676,753.8828,-0.0042724609375,0.05792236328125,1.049072265625,0.49346923828125,-10.69183349609375,9.203948974609375,1,1.0,1.0,4.0,1.0,80.00
2021-04-02 11:52:52.998,0.726576,1.0067415,0.0,0.055927392,0.24807417,0.52247196,0.0,0.33329907,0.37367904,0.71788394,0.0,0.39726225,0.52724034,0.6948006,0.0,0.54588723,0.38839695,0.338693,0.0,0.33870786,833.2601,697.8755,704.7253,823.9927,986.3736,-0.095947265625,0.12738037109375,0.9825439453125,13.091888427734375,5.8319091796875,14.40032958984375,1,1.0,1.0,4.0,1.0,80.00
2021-04-02 11:52:53.509,0.726576,1.0067415,0.0,0.055927392,0.24807417,0.52247196,0.0,0.33329907,0.37367904,0.71788394,0.0,0.39726225,0.52724034,0.6948006,0.0,0.54588723,0.38839695,0.338693,0.0,0.33870786,780.4762,742.6007,947.28937,796.5934,687.8022,-0.18292236328125,-0.07305908203125,0.98724365234375,-4.127197265625,-5.689849853515625,-1.801910400390625,1,1.0,1.0,2.0,1.0,80.00
2021-04-02 11:52:54.019,0.94700545,1.0067415,0.0,0.6341825,0.5853426,0.52247196,0.0,0.2013689,0.6794487,0.71788394,0.0,0.6785823,0.5918465,0.6948006,0.0,0.6194068,0.58914053,0.338693,0.0,0.26060742,809.4872,777.25275,726.4835,804.2491,774.43225,-0.15008544921875,0.02325439453125,0.99298095703125,7.8955078125,-5.0543212890625,-8.8525390625,1,1.0,1.0,1.0,1.0,80.00
2021-04-02 11:52:54.363,,,,,,,,,,,,,,,,,,,,,,,,,,,,,,,,,,,,,,/muse/elements/blink
2021-04-02 11:52:54.526,0.8288758,1.0067415,0.0,0.6341825,0.5543479,0.52247196,0.0,0.2013689,0.57693297,0.71788394,0.0,0.6785823,0.54705346,0.6948006,0.0,0.6194068,0.3072121,0.338693,0.0,0.26060742,680.14655,825.6044,796.99634,676.1172,775.64105,-0.16046142578125,0.06964111328125,0.98406982421875,9.21142578125,-25.31646728515625,-14.961090087890625,1,1.0,1.0,1.0,1.0,80.00
2021-04-02 11:52:54.742,,,,,,,,,,,,,,,,,,,,,,,,,,,,,,,,,,,,,,/muse/elements/blink
2021-04-02 11:52:55.037,0.8288758,1.0067415,0.0,0.6341825,0.5543479,0.52247196,0.0,0.2013689,0.57693297,0.71788394,0.0,0.6785823,0.54705346,0.6948006,0.0,0.6194068,0.3072121,0.338693,0.0,0.26060742,821.5751,662.01465,801.02563,813.1135,719.6337,0.05548095703125,0.02484130859375,0.9910888671875,4.867401123046875,-3.506622314453125,3.21502685546875,1,1.0,1.0,1.0,1.0,80.00
2021-04-02 11:52:55.551,0.8288758,1.0067415,0.0,0.6852175,0.5543479,0.52247196,0.0,0.12464044,0.57693297,0.71788394,0.0,0.6157419,0.54705346,0.6948006,0.0,0.58930326,0.3072121,0.338693,0.0,0.2458913,654.35895,909.81683,1625.0183,660.40295,844.1392,0.01800537109375,0.01495361328125,1.007568359375,5.4730224609375,12.747955322265625,9.43572998046875,1,1.0,1.0,2.0,1.0,80.00
2021-04-02 11:52:55.661,,,,,,,,,,,,,,,,,,,,,,,,,,,,,,,,,,,,,,/muse/elements/blink
2021-04-02 11:52:56.054,0.8288758,1.0067415,0.0,0.6852175,0.5543479,0.52247196,0.0,0.12464044,0.57693297,0.71788394,0.0,0.6157419,0.54705346,0.6948006,0.0,0.58930326,0.3072121,0.338693,0.0,0.2458913,819.15753,787.72894,821.978,827.619,736.9597,-0.13262939453125,0.05438232421875,1.000732421875,-5.24871826171875,13.8470458984375,46.752471923828125,1,1.0,4.0,4.0,1.0,80.00
2021-04-02 11:52:56.192,,,,,,,,,,,,,,,,,,,,,,,,,,,,,,,,,,,,,,/muse/elements/blink
2021-04-02 11:52:56.569,0.8288758,1.0067415,0.0,0.6852175,0.5543479,0.52247196,0.0,0.12464044,0.57693297,0.71788394,0.0,0.6157419,0.54705346,0.6948006,0.0,0.58930326,0.3072121,0.338693,0.0,0.2458913,805.4579,802.6374,666.8498,801.8315,794.57874,-0.18304443359375,0.03076171875,0.97796630859375,2.8411865234375,-11.05072021484375,1.79443359375,1,1.0,4.0,4.0,1.0,80.00
2021-04-02 11:52:57.096,0.8288758,1.0067415,0.0,0.6852175,0.5543479,0.52247196,0.0,0.12464044,0.57693297,0.71788394,0.0,0.6157419,0.54705346,0.6948006,0.0,0.58930326,0.3072121,0.338693,0.0,0.2458913,819.15753,761.13556,756.7033,820.7692,726.8865,-0.15740966796875,0.034423828125,0.98675537109375,7.6263427734375,-6.23565673828125,3.147735595703125,1,2.0,2.0,4.0,2.0,80.00
2021-04-02 11:52:57.607,0.39748454,1.0067415,0.0,0.6852175,0.4477001,0.52247196,0.0,0.12464044,0.6748882,0.71788394,0.0,0.6157419,0.7345879,0.6948006,0.0,0.58930326,0.6682387,0.338693,0.0,0.2458913,794.57874,793.36993,830.84247,800.2198,752.674,-0.151611328125,0.02655029296875,0.9801025390625,4.523468017578125,-5.81695556640625,1.973876953125,1,2.0,1.0,1.0,2.0,80.00
2021-04-02 11:52:58.112,0.2874375,1.0067415,0.0,0.06397752,0.42671615,0.52247196,0.0,0.36022228,0.6799301,0.71788394,0.0,0.5573287,0.71614605,0.6948006,0.0,0.671722,0.6262537,0.338693,0.0,0.37047783,932.7839,1026.2638,940.84247,933.1868,767.1795,-0.14813232421875,0.0416259765625,0.99493408203125,3.81317138671875,-4.448699951171875,2.9608154296875,1,1.0,1.0,1.0,1.0,80.00
2021-04-02 11:52:58.178,,,,,,,,,,,,,,,,,,,,,,,,,,,,,,,,,,,,,,/muse/elements/blink
2021-04-02 11:52:58.620,0.2874375,1.0067415,0.0,0.06397752,0.42671615,0.52247196,0.0,0.36022228,0.6799301,0.71788394,0.0,0.5573287,0.71614605,0.6948006,0.0,0.671722,0.6262537,0.338693,0.0,0.37047783,810.696,786.1172,792.96704,810.696,712.7839,-0.1478271484375,0.04425048828125,0.99078369140625,4.3365478515625,-4.717864990234375,3.78326416015625,1,1.0,1.0,1.0,1.0,80.00
2021-04-02 11:52:59.128,0.084405005,1.0067415,0.0,0.02589861,0.41009033,0.52247196,0.0,0.34715357,0.5833338,0.71788394,0.0,0.4136257,0.6864833,0.6948006,0.0,0.64338577,0.56728655,0.338693,0.0,0.32931393,778.86444,805.05493,832.4542,799.81683,684.57874,-0.166748046875,0.01654052734375,0.98834228515625,5.60760498046875,-4.089813232421875,-2.444915771484375,1,1.0,1.0,1.0,1.0,80.00
2021-04-02 11:52:59.640,0.084405005,1.0067415,0.0,0.02589861,0.41009033,0.52247196,0.0,0.34715357,0.5833338,0.71788394,0.0,0.4136257,0.6864833,0.6948006,0.0,0.64338577,0.56728655,0.338693,0.0,0.32931393,796.5934,776.04395,745.82416,784.5055,822.381,-0.15087890625,0.0213623046875,0.9853515625,4.284210205078125,-6.153411865234375,0.814971923828125,1,1.0,1.0,1.0,1.0,80.00
2021-04-02 11:53:00.152,0.07352701,1.0067415,0.0,0.13827462,0.0782381,0.52247196,0.0,-0.028621905,0.6286751,0.71788394,0.0,0.53184325,0.76852775,0.6948006,0.0,0.8542959,0.6685509,0.338693,0.0,0.44486687,807.0696,788.93774,788.1319,804.2491,776.8498,-0.1624755859375,0.02392578125,0.98828125,5.27862548828125,-3.96270751953125,0.471038818359375,1,1.0,1.0,1.0,1.0,80.00
2021-04-02 11:53:00.660,0.20445736,1.0067415,0.0,0.23905765,0.22801328,0.52247196,0.0,0.10407195,0.6482554,0.71788394,0.0,0.5604583,0.7279581,0.6948006,0.0,0.8228482,0.59146965,0.338693,0.0,0.46400955,798.60803,805.05493,853.00366,792.5641,747.4359,-0.232666015625,0.00885009765625,0.97222900390625,8.912353515625,-3.4991455078125,-7.499237060546875,1,1.0,1.0,1.0,1.0,80.00
2021-04-02 11:53:00.910,,,,,,,,,,,,,,,,,,,,,,,,,,,,,,,,,,,,,,/muse/elements/blink
2021-04-02 11:53:01.164,0.25040853,1.0067415,0.0,0.3055785,0.2076648,0.52247196,0.0,0.06466136,0.59936327,0.71788394,0.0,0.44512996,0.69549036,0.6948006,0.0,0.79482454,0.56095,0.338693,0.0,0.51123,819.15753,875.9707,814.7253,818.7546,784.90845,-0.30853271484375,0.09149169921875,0.967529296875,5.256195068359375,16.097564697265625,-47.903900146484375,1,1.0,1.0,1.0,1.0,80.00
2021-04-02 11:53:01.679,0.3592562,1.0067415,0.0,0.43392107,0.34042722,0.52247196,0.0,0.22438401,0.39943135,0.71788394,0.0,0.35627946,0.66087776,0.6948006,0.0,0.74499166,0.43231347,0.338693,0.0,0.53525484,807.47253,793.36993,816.7399,809.4872,704.7253,-0.35162353515625,0.00128173828125,0.9344482421875,1.936492919921875,1.203765869140625,1.1962890625,1,1.0,1.0,1.0,1.0,80.00
2021-04-02 11:53:01.943,,,,,,,,,,,,,,,,,,,,,,,,,,,,,,,,,,,,,,/muse/elements/jaw_clench
2021-04-02 11:53:02.189,0.3308481,1.0067415,0.0,0.43392107,0.4557365,0.52247196,0.0,0.22438401,0.3769746,0.71788394,0.0,0.35627946,0.6508012,0.6948006,0.0,0.74499166,0.44260365,0.338693,0.0,0.53525484,792.96704,785.7143,779.67035,787.326,678.1319,-0.33709716796875,0.00567626953125,0.933837890625,5.076751708984375,-3.5589599609375,4.26177978515625,1,1.0,1.0,1.0,1.0,80.00
2021-04-02 11:53:02.699,0.3308481,1.0067415,0.0,0.43392107,0.4557365,0.52247196,0.0,0.22438401,0.3769746,0.71788394,0.0,0.35627946,0.6508012,0.6948006,0.0,0.74499166,0.44260365,0.338693,0.0,0.53525484,804.65204,787.326,776.4469,812.3077,692.23444,-0.3621826171875,0.0274658203125,0.93426513671875,3.30474853515625,-4.598236083984375,0.770111083984375,1,1.0,1.0,1.0,1.0,80.00
2021-04-02 11:53:03.208,0.8939099,0.6478249,0.0,0.43392107,0.55415606,0.0952982,0.0,0.22438401,0.69949377,0.06645684,0.0,0.35627946,0.49867976,0.5036139,0.0,0.74499166,0.39146912,0.37957105,0.0,0.53525484,783.2967,794.9817,823.5897,787.72894,674.5055,-0.3485107421875,0.010009765625,0.9366455078125,4.523468017578125,-5.5328369140625,1.891632080078125,1,1.0,1.0,1.0,1.0,80.00
2021-04-02 11:53:03.716,0.8939099,0.5698531,0.0,0.43392107,0.55415606,0.05066625,0.0,0.22438401,0.69949377,0.122772306,0.0,0.35627946,0.49867976,0.55147666,0.0,0.74499166,0.39146912,0.3089738,0.0,0.53525484,809.89014,796.1905,786.1172,818.3516,658.3883,-0.34881591796875,0.01129150390625,0.939697265625,4.68048095703125,-5.973968505859375,0.635528564453125,1,1.0,1.0,1.0,1.0,80.00
2021-04-02 11:53:04.226,0.8273815,0.5698531,0.0,0.43392107,0.35295367,0.05066625,0.0,0.22438401,0.6580225,0.122772306,0.0,0.35627946,0.4191967,0.55147666,0.0,0.74499166,0.32077715,0.3089738,0.0,0.53525484,789.7436,795.78754,818.3516,796.1905,735.34796,-0.34771728515625,0.00872802734375,0.9385986328125,4.702911376953125,-5.51788330078125,0.9869384765625,1,1.0,1.0,1.0,1.0,80.00
2021-04-02 11:53:04.728,0.5092489,0.46541554,0.0,1.0186282,0.37264508,-0.041889183,0.0,0.595788,0.6823631,-0.09869263,0.0,0.62930876,0.23650487,0.59405327,0.0,0.34644794,0.21562105,0.23711057,0.0,-0.014795537,807.47253,803.44324,771.6117,801.02563,746.63007,-0.33319091796875,0.01513671875,0.9466552734375,5.06927490234375,-5.405731201171875,1.36077880859375,1,1.0,1.0,1.0,1.0,80.00
2021-04-02 11:53:05.251,0.5932576,0.565583,0.0,0.8525004,0.4104159,0.06570935,0.0,0.5051602,0.72780627,-0.008594513,0.0,0.71621376,0.34981635,0.57646644,0.0,0.46682927,0.27654192,0.16861768,0.0,0.13481697,799.81683,815.12823,815.9341,802.6374,715.6044,-0.3323974609375,0.01934814453125,0.95208740234375,4.209442138671875,-6.243133544921875,1.203765869140625,1,1.0,1.0,1.0,1.0,80.00
2021-04-02 11:53:05.757,0.6261167,0.53419834,0.0,0.86729926,0.48341903,-0.009040064,0.0,0.52963936,0.7290936,0.36581352,0.0,0.71081334,0.4009579,0.61734164,0.0,0.55047035,0.28323898,0.23374213,0.0,0.23012923,799.81683,794.57874,825.2015,804.2491,699.89014,-0.32867431640625,4.2724609375E-4,0.94482421875,4.598236083984375,-4.486083984375,0.67291259765625,1,1.0,1.0,1.0,1.0,80.00
2021-04-02 11:53:06.266,0.66233295,0.6302969,0.0,0.8787527,0.48876667,0.31576183,0.0,0.39523995,0.5622535,0.58087116,0.0,0.571196,0.41053796,0.6105184,0.0,0.54567516,0.27180538,0.2200003,0.0,0.2157215,798.60803,796.99634,785.31134,808.68134,758.71796,-0.31805419921875,0.0147705078125,0.94256591796875,5.121612548828125,-3.925323486328125,0.500946044921875,1,1.0,1.0,1.0,1.0,80.00
2021-04-02 11:53:06.778,0.6624006,0.6593637,0.0,0.9377664,0.50281924,0.40171683,0.0,0.3467949,0.39897597,0.58087116,0.0,0.5622984,0.36575538,0.6265928,0.0,0.48917672,0.23784278,0.24357824,0.0,0.16700576,777.25275,817.1429,828.022,788.5348,730.5128,-0.39385986328125,0.0306396484375,0.91619873046875,5.63751220703125,5.480499267578125,1.8243408203125,1,1.0,1.0,1.0,1.0,80.00
2021-04-02 11:53:07.281,0.64648145,0.68924016,0.0,0.9309229,0.38726252,0.47033104,0.0,0.053826652,0.27677515,0.5985901,0.0,0.3806902,0.22824621,0.5009178,0.0,0.3496642,0.15726902,0.11755546,0.0,0.03360885,816.337,819.15753,869.92676,822.381,680.9524,-0.40252685546875,0.0689697265625,0.9332275390625,9.271240234375,-8.8226318359375,0.64300537109375,1,1.0,1.0,1.0,1.0,80.00
2021-04-02 11:53:07.789,0.67790383,0.78685784,0.0,0.89348537,0.40424326,0.24335371,0.0,0.15045433,0.26697087,0.36108184,0.0,0.34000215,0.19935916,0.40759456,0.0,0.26128867,0.18572056,0.10983387,0.0,0.015840083,792.5641,797.8022,810.293,782.0879,689.81683,-0.25341796875,0.10809326171875,0.9185791015625,22.796783447265625,-8.441314697265625,3.349609375,1,1.0,1.0,1.0,1.0,70.00
2021-04-02 11:53:08.144,,,,,,,,,,,,,,,,,,,,,,,,,,,,,,,,,,,,,,/muse/elements/blink
2021-04-02 11:53:08.315,0.67790383,0.78685784,0.0,0.89348537,0.40424326,0.24335371,0.0,0.15045433,0.26697087,0.36108184,0.0,0.34000215,0.19935916,0.40759456,0.0,0.26128867,0.18572056,0.10983387,0.0,0.015840083,794.17584,812.3077,792.1612,823.9927,765.9707,-0.32147216796875,0.10260009765625,0.9000244140625,-23.454742431640625,20.583648681640625,10.205841064453125,1,1.0,1.0,1.0,1.0,70.00
2021-04-02 11:53:08.839,0.67790383,0.95446384,0.0,0.89348537,0.40424326,0.27114168,0.0,0.15045433,0.26697087,0.18655887,0.0,0.34000215,0.19935916,0.44183615,0.0,0.26128867,0.18572056,0.19351828,0.0,0.015840083,834.87177,823.1868,796.5934,831.6484,753.0769,-0.3861083984375,-0.04742431640625,0.918212890625,-1.368255615234375,-4.523468017578125,-9.6002197265625,1,1.0,1.0,1.0,1.0,70.00
2021-04-02 11:53:09.348,0.67790383,0.95446384,0.0,0.89348537,0.40424326,0.27114168,0.0,0.15045433,0.26697087,0.18655887,0.0,0.34000215,0.19935916,0.44183615,0.0,0.26128867,0.18572056,0.19351828,0.0,0.015840083,804.2491,819.15753,813.1135,813.5165,705.5311,-0.41558837890625,0.006103515625,0.93878173828125,2.85614013671875,7.245025634765625,3.745880126953125,1,2.0,1.0,1.0,2.0,70.00
2021-04-02 11:53:09.860,0.67790383,0.95446384,0.0,0.8228689,0.40424326,0.27114168,0.0,0.36083457,0.26697087,0.18655887,0.0,0.8934087,0.19935916,0.44183615,0.0,0.4495417,0.18572056,0.19351828,0.0,0.10746348,815.9341,829.2308,849.7802,805.4579,622.52747,-0.431396484375,0.0220947265625,0.90899658203125,5.106658935546875,-6.572113037109375,0.755157470703125,1,1.0,1.0,1.0,1.0,70.00
2021-04-02 11:53:10.382,0.67790383,0.95446384,0.0,0.821895,0.40424326,0.27114168,0.0,0.39586216,0.26697087,0.18655887,0.0,0.8934087,0.19935916,0.44183615,0.0,0.48063505,0.18572056,0.19351828,0.0,0.11101536,812.3077,803.8461,799.011,814.7253,799.41394,-0.3963623046875,0.00555419921875,0.91400146484375,5.091705322265625,-3.39447021484375,1.069183349609375,1,1.0,1.0,1.0,1.0,70.00
2021-04-02 11:53:10.894,1.1282098,0.95446384,0.0,0.87471974,0.47461462,0.27114168,0.0,0.44747797,0.72810096,0.18655887,0.0,0.8934087,0.52475494,0.44183615,0.0,0.4459309,0.0712403,0.19351828,0.0,0.06588896,801.02563,815.12823,820.3663,801.02563,699.0842,-0.37542724609375,0.00616455078125,0.9259033203125,6.26556396484375,-6.83380126953125,-3.372039794921875,1,1.0,1.0,1.0,1.0,70.00
2021-04-02 11:53:11.421,1.0903169,0.61743385,0.0,0.7898361,0.40529355,0.3497153,0.0,0.43539664,0.884861,0.19453172,0.0,0.5867028,0.48373175,0.54124457,0.0,0.416418,0.116835736,-0.06599667,0.0,0.06608798,809.4872,821.1722,825.2015,809.4872,662.8205,-0.3939208984375,-0.0029296875,0.91845703125,3.222503662109375,-6.3104248046875,1.9439697265625,1,1.0,1.0,1.0,1.0,70.00
2021-04-02 11:53:11.945,1.021696,0.6722695,0.0,0.74782425,0.47295934,0.620286,0.0,0.40197608,0.9014533,0.23945098,0.0,0.5891511,0.48925003,0.54806966,0.0,0.36266184,0.08941313,-0.10660772,0.0,0.074993946,811.9048,804.2491,777.25275,821.5751,747.8388,-0.3265380859375,0.03668212890625,0.945556640625,5.54779052734375,-19.8284912109375,0.381317138671875,1,1.0,1.0,1.0,1.0,70.00
2021-04-02 11:53:12.448,1.0283681,0.75982654,0.0,0.7123278,0.55698866,0.5178784,0.0,0.4838895,0.883141,0.22617142,0.0,0.54105765,0.56376064,0.5265644,0.0,0.46431056,0.32414868,0.091049165,0.0,0.31595826,809.89014,828.022,834.4689,803.8461,713.9927,-0.29754638671875,0.03179931640625,0.95574951171875,5.420684814453125,2.205657958984375,0.91217041015625,1,1.0,1.0,1.0,1.0,70.00
2021-04-02 11:53:12.959,1.0891268,0.8261826,0.0,0.7942292,0.62235373,0.55457455,0.0,0.5772088,0.74036145,0.29870355,0.0,0.3856924,0.6079911,0.5199613,0.0,0.5046753,0.42650354,0.18143578,0.0,0.40610904,809.0842,814.7253,818.7546,806.6667,708.7546,-0.353759765625,0.0274658203125,0.923828125,5.226287841796875,-1.016845703125,0.665435791015625,1,1.0,1.0,1.0,1.0,70.00
2021-04-02 11:53:13.465,1.1416858,0.90227646,0.0,0.8849956,0.58036953,0.14881311,0.0,0.68108034,0.7822331,0.25633678,0.0,0.3084534,0.67524177,0.48264417,0.0,0.5919109,0.54976094,0.29717422,0.0,0.5585889,796.1905,805.4579,812.3077,800.6227,684.17584,-0.35552978515625,0.0142822265625,0.93389892578125,2.811279296875,-7.64129638671875,0.13458251953125,1,1.0,1.0,1.0,1.0,70.00
2021-04-02 11:53:13.971,1.0624202,0.5412209,0.0,0.8849956,0.6521852,-0.022381226,0.0,0.68108034,0.86625034,0.42055607,0.0,0.3084534,0.5733145,0.39566463,0.0,0.5919109,0.2505781,0.27172205,0.0,0.5585889,803.0403,818.3516,842.1245,796.99634,674.10254,-0.3363037109375,0.023193359375,0.94427490234375,4.71038818359375,-6.273040771484375,0.897216796875,1,1.0,1.0,1.0,1.0,70.00
2021-04-02 11:53:14.488,0.8065494,0.23425648,0.0,0.6137583,0.59546006,0.09788788,0.0,0.2907005,0.84906983,0.3394573,0.0,0.5216645,0.51882386,0.36496297,0.0,0.6719857,0.052724317,0.20264821,0.0,0.07530187,809.0842,804.65204,800.2198,813.1135,702.3077,-0.33197021484375,0.01568603515625,0.94329833984375,4.732818603515625,-3.30474853515625,1.39068603515625,1,1.0,1.0,1.0,1.0,70.00
2021-04-02 11:53:15.020,0.72029793,0.2519815,0.0,0.5491245,0.57860655,0.15053211,0.0,0.30539665,0.784225,0.36319363,0.0,0.58485156,0.43749717,0.42151403,0.0,0.6126354,0.061730977,0.12473893,0.0,0.06775073,805.4579,810.696,825.2015,794.57874,689.81683,-0.3560791015625,0.00750732421875,0.930908203125,5.136566162109375,-3.21502685546875,2.340240478515625,1,1.0,1.0,1.0,1.0,70.00
2021-04-02 11:53:15.547,0.30109414,0.35879642,0.0,0.45248112,0.36346394,0.08592682,0.0,0.1695608,0.45614585,0.32764405,0.0,0.6739087,0.35630408,0.49823505,0.0,0.5718081,0.013966846,-0.031263273,0.0,0.03814257,806.26373,811.9048,820.3663,796.5934,696.6667,-0.3465576171875,0.02001953125,0.940185546875,4.77020263671875,-5.644989013671875,1.517791748046875,1,1.0,1.0,1.0,1.0,70.00
2021-04-02 11:53:16.072,0.2892425,0.33059657,0.0,0.4150054,0.4978672,0.0063332287,0.0,0.32458347,0.81245905,0.40833977,0.0,1.0345123,0.44102845,0.53415716,0.0,0.5284221,0.08537438,-0.09062746,0.0,0.091191314,804.2491,793.7729,800.6227,812.3077,830.4396,-0.34112548828125,0.026611328125,0.93212890625,4.42626953125,-5.360870361328125,0.13458251953125,1,1.0,1.0,1.0,1.0,70.00
2021-04-02 11:53:16.586,0.11910516,0.32271153,0.0,0.5193423,0.5848531,-0.059186537,0.0,0.33323693,0.89073706,0.42187697,0.0,1.0361315,0.467592,0.55093557,0.0,0.49881932,0.15190679,-0.04594455,0.0,0.16291869,792.1612,815.12823,844.5421,808.2784,674.10254,-0.35272216796875,0.01483154296875,0.9393310546875,5.001983642578125,-4.366455078125,0.186920166015625,1,1.0,1.0,1.0,1.0,70.00
2021-04-02 11:53:17.111,0.6096814,0.31313747,0.0,0.59779024,0.6691434,-0.047241487,0.0,0.6195228,1.1047792,0.42280892,0.0,1.3077658,0.54375875,0.50905955,0.0,0.5383179,0.21040423,-0.032156434,0.0,0.20621781,790.54944,803.8461,800.2198,788.93774,792.1612,-0.37811279296875,0.02728271484375,0.9239501953125,4.314117431640625,-2.968292236328125,1.816864013671875,1,1.0,1.0,1.0,1.0,70.00
2021-04-02 11:53:17.637,1.1163868,0.5760611,0.0,0.79638064,0.8477424,0.07120964,0.0,0.7723678,1.222069,0.4812824,0.0,1.3093003,0.49813408,0.5339181,0.0,0.50995946,0.23471329,0.14348617,0.0,0.1895915,809.0842,818.7546,824.3956,804.65204,747.4359,-0.38165283203125,0.02484130859375,0.9298095703125,4.702911376953125,-4.493560791015625,0.186920166015625,1,1.0,1.0,1.0,1.0,70.00
2021-04-02 11:53:18.156,1.2021483,0.543309,0.0,0.7873655,0.83478236,0.12664063,0.0,0.81256884,1.2202648,0.4565022,0.0,1.3091,0.53688633,0.55581504,0.0,0.5357487,0.22127272,0.1996945,0.0,0.16225849,791.75824,803.44324,813.5165,824.7985,687.8022,-0.38165283203125,0.01422119140625,0.9248046875,4.02252197265625,-4.553375244140625,-0.067291259765625,1,1.0,1.0,1.0,1.0,80.00
2021-04-02 11:53:18.669,1.1157374,0.4548143,0.0,0.779109,0.95785445,0.31991103,0.0,0.79553664,1.2435318,0.53585845,0.0,1.1597428,0.60942674,0.6039593,0.0,0.57274514,0.33408847,0.18024997,0.0,0.16039076,827.2161,801.02563,773.6264,818.3516,830.0366,-0.3790283203125,0.023681640625,0.93017578125,4.59075927734375,-4.964599609375,1.876678466796875,1,1.0,1.0,1.0,1.0,80.00
2021-04-02 11:53:19.198,0.76914495,0.4829893,0.0,0.74661124,0.89488584,0.2775357,0.0,0.82948685,1.1866498,0.59754145,0.0,1.2506362,0.7064306,0.6368819,0.0,0.6955575,0.27494627,-0.0023228938,0.0,0.13156,794.17584,821.978,842.1245,807.8755,694.2491,-0.38800048828125,0.0115966796875,0.92547607421875,4.605712890625,-5.360870361328125,0.635528564453125,1,1.0,1.0,1.0,1.0,80.00
2021-04-02 11:53:19.726,0.50052327,0.7294499,0.0,0.68258995,0.98429805,0.28098252,0.0,0.86757296,1.2925892,0.5901377,0.0,1.2506362,0.7206627,0.6431395,0.0,0.6893575,0.23389809,-0.18455617,0.0,0.1322187,807.47253,806.26373,790.9524,792.1612,699.0842,-0.3748779296875,0.0076904296875,0.921875,4.732818603515625,-6.08612060546875,0.35888671875,1,1.0,1.0,1.0,1.0,80.00
2021-04-02 11:53:20.228,0.39604846,0.79260004,0.0,0.5528061,0.9225473,0.17901203,0.0,0.7989053,1.2655544,0.6281622,0.0,1.2503871,0.67916286,0.617721,0.0,0.57475036,0.1186528,-0.016124498,0.0,0.1446694,823.5897,807.0696,829.6337,805.8608,722.8571,-0.38763427734375,0.0172119140625,0.917236328125,4.673004150390625,-2.9010009765625,0.897216796875,1,1.0,1.0,1.0,1.0,80.00
2021-04-02 11:53:20.744,0.6439346,0.6766396,0.0,0.41109478,0.8251772,0.1323207,0.0,0.637688,1.2307507,0.55152375,0.0,0.8081185,0.586875,0.5554262,0.0,0.38569498,0.20005415,0.14994718,0.0,0.18420233,818.3516,811.50183,816.337,814.7253,736.55676,-0.39208984375,0.0172119140625,0.91961669921875,4.78515625,-3.93280029296875,0.919647216796875,1,1.0,1.0,1.0,1.0,80.00
2021-04-02 11:53:21.248,0.73292255,0.38894776,0.0,0.42941278,0.68797976,-0.0361367,0.0,0.5399212,1.140823,0.5315396,0.0,0.70788693,0.51917064,0.512534,0.0,0.35873502,0.15411265,0.20350422,0.0,0.1714393,814.3223,796.5934,821.978,802.6374,767.5824,-0.39691162109375,0.0191650390625,0.91925048828125,4.4561767578125,-5.345916748046875,1.846771240234375,1,1.0,1.0,1.0,1.0,80.00
2021-04-02 11:53:21.765,0.78073543,0.29499862,0.0,0.42871103,0.47473383,0.03675624,0.0,0.39216504,0.65923244,0.36189955,0.0,0.74271667,0.3424597,0.5219644,0.0,0.37661004,0.07587609,0.20083472,0.0,0.16317369,786.9231,813.91943,849.3773,787.72894,693.0403,-0.40692138671875,0.01776123046875,0.91778564453125,4.388885498046875,-4.433746337890625,0.755157470703125,1,1.0,1.0,1.0,1.0,80.00
2021-04-02 11:53:22.288,0.70637435,0.47185606,0.0,0.14517613,0.40053675,0.1530986,0.0,0.4725299,0.6163022,0.315088,0.0,0.72647655,0.3312782,0.5737098,0.0,0.30219847,-0.050830577,0.12005841,0.0,0.06563367,800.2198,793.36993,811.0989,803.44324,720.4396,-0.4176025390625,0.0123291015625,0.91094970703125,4.486083984375,-3.1103515625,0.919647216796875,1,1.0,1.0,1.0,1.0,80.00
2021-04-02 11:53:22.794,0.734055,0.62293184,0.0,0.20985751,0.27416226,0.28793994,0.0,0.40631083,0.66138756,0.15419993,0.0,0.7061447,0.37583348,0.55799717,0.0,0.21351208,-0.006849356,0.11651561,0.0,0.024410257,792.96704,818.3516,826.8132,801.02563,703.5165,-0.39703369140625,0.0052490234375,0.92218017578125,5.316009521484375,-6.62445068359375,-0.785064697265625,1,1.0,1.0,1.0,1.0,80.00
2021-04-02 11:53:23.298,0.75842065,0.69599885,0.0,0.501407,0.51188344,0.2577852,0.0,0.49744076,0.7480485,0.29395488,0.0,0.6517415,0.38416338,0.5584054,0.0,0.21102543,0.047353882,0.075928666,0.0,-0.07756944,801.02563,805.4579,803.8461,802.6374,767.5824,-0.44915771484375,0.0101318359375,0.902587890625,5.4730224609375,-5.839385986328125,-0.7177734375,1,1.0,1.0,1.0,1.0,80.00
2021-04-02 11:53:23.815,0.67792827,0.77481395,0.0,0.51623446,0.49933845,0.37866268,0.0,0.46733958,0.76248527,0.35279855,0.0,0.6290383,0.35052523,0.5200581,0.0,0.22349322,0.03650835,0.18938388,0.0,-0.0794108,793.7729,808.2784,817.9487,809.4872,705.5311,-0.408447265625,0.03118896484375,0.916748046875,6.29547119140625,-8.860015869140625,3.028106689453125,1,1.0,1.0,1.0,1.0,80.00
2021-04-02 11:53:24.326,0.64123535,0.805754,0.0,0.49285272,0.540813,0.37096137,0.0,0.5087404,0.74572617,0.37763944,0.0,0.61821324,0.28257585,0.5376723,0.0,0.27183637,-0.030361125,0.22769628,0.0,-0.026560219,790.54944,821.1722,856.63007,788.93774,711.978,-0.3515625,0.00970458984375,0.9371337890625,5.12908935546875,-10.579681396484375,0.485992431640625,1,1.0,1.0,1.0,1.0,80.00
2021-04-02 11:53:24.855,0.55310327,0.6398932,0.0,0.19318783,0.37385386,0.18115677,0.0,0.40648347,0.686611,0.4689003,0.0,0.61923426,0.2768512,0.46160787,0.0,0.343132,-0.102028735,0.26614332,0.0,0.082974836,815.5311,809.4872,812.3077,810.293,724.0659,-0.33868408203125,0.010009765625,0.9410400390625,3.940277099609375,-6.2506103515625,0.695343017578125,1,1.0,1.0,1.0,1.0,80.00
2021-04-02 11:53:25.388,0.659436,0.49416056,0.0,0.21444403,0.49849266,-0.100668296,0.0,0.4483069,0.75751305,0.38043547,0.0,0.5420961,0.29446927,0.3988723,0.0,0.35902995,-0.008152793,0.10680344,0.0,0.074482284,812.3077,825.6044,850.989,800.6227,772.01465,-0.334716796875,0.01513671875,0.9554443359375,4.725341796875,-6.69921875,1.09161376953125,1,1.0,1.0,1.0,1.0,80.00
2021-04-02 11:53:25.888,0.67434514,0.47963038,0.0,0.31686407,0.59874517,-0.091995366,0.0,0.48829764,0.772126,0.38347307,0.0,0.54966426,0.3079325,0.41911772,0.0,0.33287707,0.027948413,0.014251434,0.0,-0.04432074,826.0073,793.36993,809.89014,808.68134,744.61536,-0.309814453125,0.0155029296875,0.94696044921875,5.39825439453125,-4.44122314453125,2.115936279296875,1,1.0,1.0,1.0,1.0,80.00
2021-04-02 11:53:26.392,0.666664,0.70259213,0.0,0.41131872,0.67272085,0.063646935,0.0,0.6004645,0.772126,0.2742719,0.0,0.4606954,0.31729403,0.4840834,0.0,0.31234756,0.0134848105,-0.035360612,0.0,-0.13433099,781.685,801.8315,797.3993,790.9524,818.7546,-0.3408203125,0.01171875,0.9425048828125,4.299163818359375,-5.42816162109375,0.2392578125,1,1.0,1.0,1.0,1.0,80.00
2021-04-02 11:53:26.911,0.8407682,0.8251748,0.0,0.74021894,0.70330864,0.23437186,0.0,0.61622787,0.73851025,0.21660608,0.0,0.5807266,0.3257329,0.49866882,0.0,0.3594235,-0.084137574,-0.007135725,0.0,-0.08098031,804.65204,810.293,857.4359,805.8608,757.1062,-0.34295654296875,0.01605224609375,0.9400634765625,4.613189697265625,-4.658050537109375,0.5084228515625,1,1.0,1.0,1.0,1.0,80.00
2021-04-02 11:53:27.414,0.885663,0.9620717,0.0,0.8359707,0.60865605,0.42919418,0.0,0.6675789,0.5177247,0.27300715,0.0,0.9655007,0.34149563,0.53874606,0.0,0.46014947,-0.045565855,0.034666166,0.0,0.1873901,803.8461,795.78754,801.02563,806.6667,770.40295,-0.3426513671875,0.01104736328125,0.93206787109375,4.47113037109375,-5.944061279296875,0.97198486328125,1,1.0,1.0,1.0,1.0,80.00
2021-04-02 11:53:27.946,0.937179,0.7129497,0.0,0.81909925,0.5770646,0.3538742,0.0,0.6321757,0.6438957,0.34600613,0.0,0.95892584,0.34076178,0.5923279,0.0,0.48370615,0.011754263,0.0144984145,0.0,0.23637822,805.4579,800.6227,790.54944,818.7546,757.50916,-0.3638916015625,0.00775146484375,0.9361572265625,4.897308349609375,-2.489776611328125,1.562652587890625,1,1.0,1.0,1.0,1.0,80.00
2021-04-02 11:53:28.447,0.9140893,0.6544516,0.0,0.6725463,0.41490537,0.48386005,0.0,0.4523782,0.62912965,0.412395,0.0,0.9375781,0.3275245,0.5640213,0.0,0.4903002,0.038093634,0.094946325,0.0,0.2339165,803.0403,798.20514,846.1539,802.23444,705.12823,-0.35595703125,0.00128173828125,0.9376220703125,4.927215576171875,-6.23565673828125,0.919647216796875,1,1.0,1.0,1.0,1.0,75.00
2021-04-02 11:53:28.963,0.83681613,0.7853491,0.0,0.50924945,0.469078,0.3980646,0.0,0.28211856,0.7412923,0.40965012,0.0,0.7138069,0.37117812,0.5065067,0.0,0.42489013,-0.025028218,0.09785564,0.0,0.09877224,793.36993,798.20514,827.619,809.4872,712.7839,-0.38580322265625,0.00787353515625,0.92364501953125,4.32159423828125,-2.1832275390625,0.10467529296875,1,1.0,1.0,1.0,1.0,75.00
2021-04-02 11:53:29.490,0.47752875,0.7359796,0.0,0.3772218,0.47158512,0.35440433,0.0,0.2804766,0.7826758,0.2668423,0.0,0.65524274,0.36583877,0.43170705,0.0,0.39089382,-0.12932128,0.052603934,0.0,0.048533946,797.3993,790.9524,800.2198,800.2198,682.1612,-0.37744140625,-0.00537109375,0.92822265625,3.372039794921875,-3.730926513671875,1.18133544921875,1,1.0,1.0,1.0,1.0,75.00
2021-04-02 11:53:29.994,0.50353694,0.5746938,0.36223823,0.3050044,0.5956579,0.18829623,0.9693886,0.43289477,0.8142865,0.17847602,0.68734914,0.67540383,0.3737277,0.5021789,1.4518478,0.3999836,0.011866292,-0.044798844,0.9215461,0.0424401,799.011,805.4579,788.1319,797.8022,720.84247,-0.38397216796875,0.00274658203125,0.92352294921875,4.91973876953125,-4.486083984375,1.308441162109375,1,1.0,1.0,1.0,1.0,75.00
2021-04-02 11:53:30.510,0.64544153,0.3029572,0.36223823,0.38723105,0.5905839,0.16747941,0.9693886,0.44067553,0.69206506,0.19423805,0.68734914,0.6299735,0.3286314,0.5617533,1.4518478,0.40053642,0.05890052,-0.009569658,0.9215461,0.001186864,796.5934,802.23444,817.9487,791.75824,828.4249,-0.391845703125,0.0098876953125,0.91973876953125,5.7421875,-6.6693115234375,1.114044189453125,1,1.0,1.0,1.0,1.0,75.00
2021-04-02 11:53:31.013,0.74324614,0.41348532,0.36223823,0.6124372,0.6249704,0.20825513,0.9693886,0.42435166,0.64885855,0.037194423,0.68734914,0.65131253,0.3250445,0.61205494,1.4518478,0.42513144,0.10610976,0.055892445,0.9215461,0.013981319,782.0879,823.9927,839.707,790.9524,702.3077,-0.39874267578125,0.00506591796875,0.91973876953125,4.403839111328125,-2.400054931640625,0.897216796875,1,1.0,1.0,1.0,1.0,75.00
2021-04-02 11:53:31.531,0.7346722,0.5478428,0.36223823,0.62184167,0.57856804,0.013772962,0.9693886,0.30751348,0.8440903,-0.01643105,0.68734914,0.84961116,0.27612287,0.60290986,1.4518478,0.40666032,0.04812974,0.06549801,0.9215461,0.0554899,801.4286,792.5641,811.9048,806.26373,713.9927,-0.3958740234375,0.00439453125,0.91790771484375,4.5758056640625,-4.83001708984375,1.173858642578125,1,1.0,1.0,1.0,1.0,75.00
2021-04-02 11:53:32.038,0.7330392,0.7552208,0.36223823,0.76081145,0.72223175,0.22259825,0.9693886,0.57360864,0.8924287,0.31549364,0.68734914,0.9141743,0.12039998,0.50754046,1.4518478,0.38994932,0.0910232,-0.004520333,0.9215461,0.036630686,787.326,814.3223,812.3077,803.44324,736.55676,-0.4022216796875,0.003662109375,0.91455078125,4.568328857421875,-4.807586669921875,0.897216796875,1,1.0,1.0,1.0,1.0,75.00
2021-04-02 11:53:32.552,0.8671754,0.73765844,0.36223823,0.7284466,0.6990007,0.20779532,0.9693886,0.55746037,0.90408605,0.35648623,0.68734914,0.939028,0.1425141,0.5161171,1.4518478,0.41391298,0.036255736,0.051475264,0.9215461,-0.03951829,835.6777,815.9341,814.3223,828.022,686.1905,-0.39453125,0.00433349609375,0.92388916015625,4.14215087890625,-6.317901611328125,0.351409912109375,1,1.0,1.0,1.0,1.0,75.00
2021-04-02 11:53:33.060,0.94204754,0.6793165,0.36223823,0.88596916,0.68197733,0.121850096,0.9693886,0.48085842,0.8428232,0.38828155,0.68734914,0.8981585,0.12763347,0.41067183,1.4518478,0.4244558,0.014512682,0.007087197,0.9215461,-0.158702,813.91943,816.7399,794.9817,819.5604,740.58606,-0.39385986328125,0.00775146484375,0.92083740234375,4.68048095703125,-7.529144287109375,0.844879150390625,1,1.0,1.0,1.0,1.0,75.00
2021-04-02 11:53:33.584,0.92411447,0.44719544,0.36223823,0.78557724,0.5628662,-0.027024942,0.9693886,0.3786704,0.63699454,0.38548312,0.68734914,0.7336432,0.2876579,0.35938662,1.4518478,0.48522905,-0.024304202,0.09732332,0.9215461,-0.16560565,811.0989,799.81683,814.7253,799.81683,844.5421,-0.39178466796875,-0.00323486328125,0.9202880859375,3.895416259765625,-7.065582275390625,-0.43365478515625,1,1.0,1.0,1.0,1.0,75.00
2021-04-02 11:53:34.096,0.6033863,0.4262206,0.36223823,0.7460034,0.12199987,-0.054745156,0.9693886,0.24050657,0.12700765,0.2475775,0.68734914,0.5606723,0.41734207,0.32496658,1.4518478,0.4342002,0.06394974,0.1206599,0.9215461,-0.103278585,799.81683,805.8608,817.1429,810.696,650.32965,-0.33184814453125,0.00543212890625,0.9432373046875,5.674896240234375,-7.469329833984375,0.418701171875,1,1.0,1.0,1.0,1.0,75.00
2021-04-02 11:53:34.592,,,,,,,,,,,,,,,,,,,,,,,,,,,,,,,,,,,,,,/muse/elements/jaw_clench
2021-04-02 11:53:34.614,0.6033863,0.4533237,0.36223823,0.5878506,0.12199987,0.09409985,0.9693886,0.26441672,0.12700765,0.16102321,0.68734914,0.49556658,0.41734207,0.36498556,1.4518478,0.43768603,0.06394974,0.2123393,0.9215461,-0.08108149,784.5055,792.96704,791.3553,778.0586,720.4396,-0.2777099609375,0.0042724609375,0.9600830078125,4.50103759765625,-13.495635986328125,-0.418701171875,1,1.0,1.0,1.0,1.0,75.00
2021-04-02 11:53:34.781,,,,,,,,,,,,,,,,,,,,,,,,,,,,,,,,,,,,,,/muse/elements/jaw_clench
2021-04-02 11:53:35.124,0.6033863,0.6403846,0.36223823,0.6416329,0.12199987,0.15192908,0.9693886,-0.10737841,0.12700765,-0.086368576,0.68734914,0.34262857,0.41734207,0.40788522,1.4518478,0.35536355,0.06394974,0.16537979,0.9215461,-0.11541995,796.99634,819.5604,846.9597,794.57874,685.78754,-0.33001708984375,0.04058837890625,0.94903564453125,4.88983154296875,0.246734619140625,5.5328369140625,1,1.0,1.0,1.0,1.0,75.00
2021-04-02 11:53:35.632,0.6033863,0.7090423,0.36223823,0.6581567,0.12199987,0.24954951,0.9693886,-0.11255008,0.12700765,-0.15614243,0.68734914,0.27246422,0.41734207,0.3878601,1.4518478,0.33257762,0.06394974,0.10237053,0.9215461,-0.14096822,811.50183,822.381,775.64105,796.99634,670.4762,-0.365234375,0.04168701171875,0.927001953125,2.75146484375,-1.278533935546875,0.471038818359375,1,1.0,1.0,1.0,1.0,75.00
2021-04-02 11:53:36.144,0.6033863,0.7090423,0.36223823,0.6581567,0.12199987,0.24954951,0.9693886,-0.11255008,0.12700765,-0.15614243,0.68734914,0.27246422,0.41734207,0.3878601,1.4518478,0.33257762,0.06394974,0.10237053,0.9215461,-0.14096822,794.57874,803.8461,856.63007,792.96704,769.19415,-0.35614013671875,-0.0272216796875,0.93072509765625,5.271148681640625,-8.845062255859375,1.854248046875,1,1.0,1.0,1.0,1.0,75.00
2021-04-02 11:53:36.673,0.6033863,0.7090423,0.36223823,0.6581567,0.12199987,0.24954951,0.9693886,-0.11255008,0.12700765,-0.15614243,0.68734914,0.27246422,0.41734207,0.3878601,1.4518478,0.33257762,0.06394974,0.10237053,0.9215461,-0.14096822,788.5348,800.2198,823.5897,799.41394,774.43225,-0.3641357421875,-0.005126953125,0.9339599609375,4.239349365234375,-5.8917236328125,-0.770111083984375,1,1.0,1.0,1.0,1.0,75.00
2021-04-02 11:53:37.189,1.0332029,0.7090423,0.36223823,0.5522664,0.64577156,0.24954951,0.9693886,0.6495811,0.7381424,-0.15614243,0.68734914,0.62002516,0.56761676,0.3878601,1.4518478,0.561008,-0.19155557,0.10237053,0.9215461,0.0024997662,815.9341,796.1905,801.4286,807.8755,871.53845,-0.33514404296875,0.0142822265625,0.95050048828125,5.48797607421875,-4.732818603515625,3.60382080078125,1,1.0,1.0,1.0,1.0,75.00
2021-04-02 11:53:37.698,1.0134188,0.9373994,0.36223823,0.5328358,0.62911326,0.6635641,0.9693886,0.59354794,0.75357425,0.71082985,0.68734914,0.6246091,0.6293665,0.44161505,1.4518478,0.45759395,-0.09593372,-0.12710461,0.9215461,-0.016712788,783.69965,813.1135,820.7692,782.8938,740.989,-0.36859130859375,0.01959228515625,0.93658447265625,5.78704833984375,-1.846771240234375,2.923431396484375,1,1.0,1.0,1.0,1.0,75.00
2021-04-02 11:53:38.209,1.0235014,0.8454377,0.36223823,0.6894542,0.5687911,0.4057904,0.9693886,0.4367214,0.7669445,0.71082985,0.68734914,0.6650095,0.5512196,0.401199,1.4518478,0.3515336,-0.08295731,-0.10838329,0.9215461,-0.06507687,792.1612,824.3956,869.5238,806.6667,693.44324,-0.3558349609375,0.011962890625,0.92559814453125,4.20196533203125,-6.89361572265625,-0.710296630859375,1,1.0,1.0,1.0,1.0,75.00
2021-04-02 11:53:38.730,0.9814476,0.7888765,0.36223823,0.9103175,0.4240256,0.23931174,0.9693886,0.35889688,0.64683527,0.6119147,0.68734914,0.7187405,0.42874986,0.40542272,1.4518478,0.4114072,-0.007823112,-0.04045263,0.9215461,-0.13929395,808.68134,805.4579,818.3516,815.9341,736.9597,-0.3563232421875,0.0054931640625,0.93975830078125,3.835601806640625,-4.29168701171875,-1.36077880859375,1,1.0,1.0,1.0,1.0,80.00
2021-04-02 11:53:39.257,0.9371801,0.6778505,0.36223823,0.9045124,0.18615358,0.071553186,0.9693886,0.32357153,0.37582654,0.36390945,0.68734914,0.74957955,0.26171604,0.4257066,1.4518478,0.48891884,-0.11484813,-0.011735778,0.9215461,-0.09434237,782.8938,815.12823,820.7692,802.6374,857.8388,-0.37835693359375,0.00360107421875,0.9239501953125,4.50103759765625,-4.149627685546875,-0.4486083984375,1,1.0,1.0,1.0,1.0,80.00
2021-04-02 11:53:39.760,0.8401409,0.6230799,0.36223823,0.8121303,0.07916956,0.069310054,0.9693886,0.38494727,0.24292074,0.36390945,0.68734914,0.74957955,0.35378283,0.43758273,1.4518478,0.5156292,-0.13135003,-0.008212217,0.9215461,-0.02669164,823.5897,953.3333,1005.31134,813.1135,745.42126,-0.62371826171875,-0.35504150390625,0.65032958984375,-21.5032958984375,32.07550048828125,-3.78326416015625,1,1.0,1.0,1.0,1.0,80.00
2021-04-02 11:53:40.272,0.8401409,0.45926023,0.36223823,0.5246597,0.07916956,-0.00231387,0.9693886,0.26683304,0.24292074,0.28899962,0.68734914,0.6131945,0.35378283,0.42640814,1.4518478,0.46257752,-0.13135003,-0.09494043,0.9215461,-3.975672E-4,794.17584,789.7436,761.13556,800.2198,844.94507,-0.74627685546875,-0.05169677734375,0.68450927734375,20.598602294921875,-30.206298828125,18.9013671875,1,1.0,1.0,1.0,1.0,80.00
2021-04-02 11:53:40.792,0.8401409,0.538239,0.36223823,0.5140527,0.07916956,0.1066471,0.9693886,0.3170757,0.24292074,-0.028556565,0.68734914,0.47483802,0.35378283,0.39526904,1.4518478,0.38322482,-0.13135003,-0.22993885,0.9215461,0.01782005,809.89014,806.26373,803.44324,801.4286,676.52014,-0.53448486328125,0.10845947265625,0.85491943359375,4.284210205078125,-13.106842041015625,3.289794921875,1,1.0,1.0,1.0,1.0,80.00
2021-04-02 11:53:41.308,0.8401409,0.538239,0.36223823,0.5140527,0.07916956,0.1066471,0.9693886,0.3170757,0.24292074,-0.028556565,0.68734914,0.47483802,0.35378283,0.39526904,1.4518478,0.38322482,-0.13135003,-0.22993885,0.9215461,0.01782005,830.84247,798.20514,782.49084,825.6044,822.381,-0.480712890625,0.072021484375,0.88714599609375,9.40582275390625,-10.33294677734375,1.757049560546875,1,1.0,1.0,1.0,1.0,80.00
2021-04-02 11:53:41.815,1.4279081,0.538239,0.36223823,0.9408009,0.45283654,0.1066471,0.9693886,0.082901336,0.7451792,-0.028556565,0.68734914,0.6697149,0.42384595,0.39526904,1.4518478,0.57915044,0.11754494,-0.22993885,0.9215461,0.38043794,810.293,807.8755,811.50183,806.26373,759.92676,-0.45697021484375,0.05548095703125,0.8934326171875,3.566436767578125,-8.336639404296875,1.278533935546875,1,1.0,1.0,1.0,1.0,80.00
2021-04-02 11:53:42.328,1.3331518,0.742318,0.36223823,0.95208013,0.5212989,0.22015546,0.9693886,0.33588764,0.78680485,0.40702382,0.68734914,0.6452549,0.4355373,0.5948779,1.4518478,0.5451502,0.061876394,-0.08727773,0.9215461,0.2582691,794.17584,805.05493,818.3516,794.57874,761.53845,-0.42376708984375,0.00994873046875,0.9034423828125,4.628143310546875,-10.534820556640625,0.755157470703125,1,1.0,1.0,1.0,1.0,80.00
2021-04-02 11:53:42.844,1.161394,0.60020185,0.36223823,0.69558734,0.3678967,0.15619268,0.9693886,0.27726057,0.809368,0.43579167,0.68734914,0.5466135,0.52192324,0.5290814,1.4518478,0.45259416,0.022029001,-0.12127406,0.9215461,0.07518132,801.8315,792.96704,809.0842,821.978,745.0183,-0.426513671875,0.0096435546875,0.90576171875,4.74029541015625,-7.514190673828125,0.052337646484375,1,1.0,1.0,1.0,1.0,80.00
2021-04-02 11:53:43.368,0.9647596,0.6394933,0.36223823,0.84932554,0.26914343,0.1794031,0.9693886,0.24526516,0.79358333,0.427967,0.68734914,0.6401809,0.5752566,0.49497366,1.4518478,0.5266692,-0.0057055783,-0.16431896,0.9215461,0.008808362,795.78754,818.7546,813.1135,795.38464,768.3883,-0.42333984375,0.0098876953125,0.90325927734375,4.777679443359375,-3.72344970703125,1.7047119140625,1,1.0,1.0,1.0,1.0,80.00
2021-04-02 11:53:43.879,0.6313048,0.51576924,0.36223823,0.73369086,0.0079018455,0.17203504,0.9693886,0.13235438,0.7414013,0.43308565,0.68734914,0.6362266,0.57630736,0.36676997,1.4518478,0.52343976,-0.07535926,-0.08977856,0.9215461,-0.0227881,810.696,803.8461,807.0696,808.68134,805.05493,-0.4290771484375,0.0020751953125,0.90399169921875,3.686065673828125,-5.48797607421875,0.530853271484375,1,1.0,1.0,1.0,1.0,80.00
2021-04-02 11:53:44.381,0.5869404,0.558528,0.36223823,0.7240339,0.015566258,0.14654386,0.9693886,0.1309015,0.7414013,0.41400725,0.68734914,0.612786,0.4959043,0.3998955,1.4518478,0.48840323,-0.056604393,-0.029380344,0.9215461,-0.07395021,809.89014,798.60803,775.64105,826.0073,879.19415,-0.42694091796875,0.00390625,0.902099609375,5.24871826171875,-5.86181640625,0.31402587890625,1,1.0,1.0,1.0,1.0,80.00
2021-04-02 11:53:44.894,0.3330919,0.36882013,0.36223823,0.32556093,-0.04883857,0.025831243,0.9693886,0.17972538,0.6590881,0.42069775,0.68734914,0.55593055,0.38201585,0.37188885,1.4518478,0.31912786,-0.13617907,-0.06100571,0.9215461,-0.07880151,793.7729,817.9487,826.4103,805.05493,745.82416,-0.40472412109375,0.00421142578125,0.91412353515625,5.749664306640625,-7.34222412109375,0.43365478515625,1,1.0,1.0,1.0,1.0,80.00
2021-04-02 11:53:45.400,0.42376432,0.30004227,0.36223823,0.28967676,-0.039416347,-0.23351172,0.9693886,0.226918,0.37738556,0.2899115,0.68734914,0.42491436,0.32890004,0.369574,1.4518478,0.120856,-0.12971374,-0.073649034,0.9215461,-0.15953623,731.7216,808.68134,831.6484,726.8865,729.304,-0.3636474609375,0.02093505859375,0.9337158203125,3.84307861328125,-5.570220947265625,-0.22430419921875,1,1.0,1.0,1.0,1.0,80.00
2021-04-02 11:53:45.916,0.5662697,0.35616025,0.36223823,0.38676408,0.027635334,-0.15493977,0.9693886,0.29898283,0.33910257,0.10355498,0.68734914,0.38026252,0.29037958,0.38616022,1.4518478,0.06896111,-0.20619908,-0.06629259,0.9215461,-0.20004238,794.9817,791.3553,828.4249,793.7729,732.9304,-0.36920166015625,0.0093994140625,0.92901611328125,3.880462646484375,-4.38140869140625,1.203765869140625,1,1.0,1.0,1.0,1.0,80.00
2021-04-02 11:53:46.442,0.6029992,0.5002996,0.36223823,0.46512368,0.0959921,-0.013257314,0.9693886,0.32593748,0.31531277,0.093828715,0.68734914,0.37462047,0.29644778,0.41586608,1.4518478,-0.02741049,-0.20683727,0.002576264,0.9215461,-0.34555054,822.7839,804.65204,824.7985,810.293,713.9927,-0.3660888671875,0.00146484375,0.93365478515625,4.17205810546875,-6.220703125,1.55517578125,1,1.0,1.0,1.0,1.0,80.00
2021-04-02 11:53:46.968,0.56162286,0.53323776,0.36223823,0.44497472,0.06968615,0.09688308,0.9693886,0.2602864,0.3076063,0.105522916,0.68734914,0.3241215,0.25519744,0.39764193,1.4518478,-0.056059837,-0.18191409,0.007973225,0.9215461,-0.35550436,814.3223,798.60803,797.8022,813.91943,709.15753,-0.34307861328125,0.0098876953125,0.94573974609375,5.360870361328125,-8.50860595703125,1.712188720703125,1,1.0,1.0,1.0,1.0,80.00
2021-04-02 11:53:47.495,0.46968415,0.49511978,0.36223823,0.6227853,0.5943751,0.10622532,0.9693886,0.30989867,1.0933472,0.15221678,0.68734914,0.8000082,0.3644443,0.33869883,1.4518478,0.34903437,-0.22469519,0.043784626,0.9215461,-0.07588657,799.41394,814.3223,829.6337,817.1429,682.5641,-0.32855224609375,0.004150390625,0.94293212890625,4.807586669921875,-4.403839111328125,3.865509033203125,1,1.0,1.0,1.0,1.0,80.00
2021-04-02 11:53:48.015,0.65468186,0.3991457,0.36223823,0.48818958,0.6418651,0.01417596,0.9693886,0.32273605,1.0964147,0.10681367,0.68734914,0.8417602,0.32620203,0.33426818,1.4518478,0.32626393,-0.21677741,-0.03757983,0.9215461,-0.11684315,801.8315,809.89014,830.84247,814.3223,703.1135,-0.3375244140625,0.00689697265625,0.94451904296875,4.85992431640625,-3.955230712890625,1.15142822265625,1,1.0,1.0,1.0,1.0,80.00
2021-04-02 11:53:48.545,0.6371518,0.28072768,0.36223823,0.37744567,0.61852455,-0.05973609,0.9693886,0.3130503,0.9341661,0.106799,0.68734914,0.6286659,0.31707767,0.3518838,1.4518478,0.33100164,-0.3364894,-0.08550557,0.9215461,-0.21336393,801.4286,813.1135,809.89014,805.05493,751.4652,-0.3433837890625,-0.00421142578125,0.94091796875,4.62066650390625,-4.0673828125,0.964508056640625,1,1.0,1.0,1.0,1.0,80.00
2021-04-02 11:53:49.047,0.6404326,0.48165196,0.36223823,0.341575,0.5311546,-0.22807373,0.9693886,0.11034525,0.7786403,0.085288055,0.68734914,0.59276277,0.27595484,0.35425183,1.4518478,0.33615658,-0.22437046,-0.12715022,0.9215461,-0.13013847,809.4872,821.978,833.2601,799.011,724.0659,-0.339111328125,-0.00628662109375,0.9449462890625,3.970184326171875,-5.061798095703125,-0.299072265625,1,1.0,1.0,1.0,1.0,75.00
2021-04-02 11:53:49.561,0.3467803,0.38065162,0.36223823,0.31321716,0.429513,-0.23933893,0.9693886,-0.10167092,0.8530834,0.16096546,0.68734914,0.461006,0.31657165,0.38668886,1.4518478,0.3339955,1.5172988E-4,-0.093884744,0.9215461,-0.08791623,814.7253,809.0842,798.60803,814.3223,779.2674,-0.364501953125,-0.00482177734375,0.934814453125,5.301055908203125,-3.33465576171875,1.12152099609375,1,1.0,1.0,1.0,1.0,75.00
2021-04-02 11:53:50.065,0.1526591,0.50877184,0.36223823,0.34513655,0.4298585,-0.17736542,0.9693886,-0.06590761,0.8541816,0.16123801,0.68734914,0.47452962,0.33409464,0.45688313,1.4518478,0.31714317,0.093045756,-0.08833811,0.9215461,-0.053632624,772.4176,805.4579,802.6374,776.04395,791.3553,-0.3658447265625,0.004150390625,0.934326171875,5.57769775390625,-3.790740966796875,1.158905029296875,1,1.0,1.0,1.0,1.0,75.00
2021-04-02 11:53:50.567,-0.17392997,0.3243855,0.36223823,-0.048689477,0.4138264,-0.10412851,0.9693886,-0.09402451,0.8456883,0.14904934,0.68734914,0.35105783,0.38960883,0.49300098,1.4518478,0.27972156,0.17728883,-0.12087909,0.9215461,-0.093165234,812.71063,807.47253,838.49817,800.6227,713.9927,-0.37139892578125,0.01507568359375,0.92877197265625,5.061798095703125,-4.433746337890625,1.742095947265625,1,1.0,1.0,1.0,1.0,75.00
2021-04-02 11:53:51.071,-0.124110304,0.5380389,0.36223823,0.06172855,0.3823661,-0.065552175,0.9693886,0.08998341,0.6418928,0.072954915,0.68734914,0.32014126,0.4144916,0.48379916,1.4518478,0.22480309,0.002461135,-0.18022029,0.9215461,-0.15800941,809.89014,793.7729,805.05493,822.381,721.2454,-0.38690185546875,0.02923583984375,0.92523193359375,4.0972900390625,-2.67669677734375,0.665435791015625,1,1.0,1.0,1.0,1.0,75.00
2021-04-02 11:53:51.587,-0.124110304,0.4908896,0.5009404,0.06172855,0.3823661,0.070900284,0.7436483,0.08998341,0.6418928,0.123001166,0.32933217,0.32014126,0.4144916,0.40128922,1.1487229,0.22480309,0.002461135,-0.13505867,0.893021,-0.15800941,818.3516,785.31134,743.00366,828.022,1025.4579,-0.40594482421875,0.00897216796875,0.91357421875,3.45428466796875,-3.521575927734375,0.40374755859375,1,1.0,1.0,1.0,1.0,75.00
2021-04-02 11:53:52.115,-0.062547445,0.6415904,0.45977238,0.43954283,0.034765456,0.049980555,0.6913752,0.28346077,0.6027353,0.19877844,0.34960243,0.3761738,0.280555,0.4174075,1.1686558,0.3293172,-0.1721812,-0.11447631,0.86460024,0.14715381,801.02563,813.91943,848.97437,815.5311,743.4066,-0.40838623046875,0.007080078125,0.918701171875,4.059906005859375,-3.581390380859375,0.10467529296875,1,1.0,1.0,1.0,1.0,75.00
2021-04-02 11:53:52.618,-0.045165095,0.63926804,0.45977238,0.44043654,0.085753754,0.21809842,0.6913752,0.30281544,0.6173197,0.270518,0.34960243,0.38805124,0.30795676,0.4975718,1.1686558,0.29439294,-0.14938296,-0.049026106,0.86460024,0.028469041,814.7253,804.2491,808.2784,817.5458,780.87915,-0.41168212890625,0.0069580078125,0.911376953125,5.30853271484375,-3.237457275390625,1.6448974609375,1,1.0,1.0,1.0,1.0,75.00
2021-04-02 11:53:53.131,0.18131548,0.5944286,0.4861267,0.2699046,0.2860362,0.12594894,0.6489218,0.37991998,0.6379985,0.2567318,0.33948794,0.4596929,0.26766112,0.49631798,1.1825533,0.26746097,-0.11964446,0.10478075,0.8735747,0.04466153,829.2308,811.9048,816.337,835.6777,700.696,-0.41815185546875,-6.7138671875E-4,0.910888671875,3.850555419921875,-6.69921875,0.829925537109375,1,1.0,1.0,1.0,1.0,75.00
2021-04-02 11:53:53.637,0.3692729,0.27112392,0.4861267,0.34018907,0.35890028,0.03514731,0.6489218,0.35357517,0.5952536,0.26574808,0.33948794,0.4999332,0.26150718,0.42447454,1.1825533,0.3644475,-0.10632039,0.09918185,0.8735747,-0.006628132,790.9524,798.60803,819.15753,792.1612,746.2271,-0.400390625,0.01055908203125,0.9176025390625,5.5926513671875,-4.66552734375,1.801910400390625,1,1.0,1.0,1.0,1.0,75.00
2021-04-02 11:53:54.147,0.4821724,0.17808017,0.4861267,0.27876228,0.43520582,-0.26924884,0.6489218,0.36393023,0.55789274,0.27106974,0.33948794,0.48902088,0.21377882,0.31628206,1.1825533,0.41810027,-0.09994864,0.06730348,0.8735747,0.08345111,772.01465,799.81683,812.71063,776.4469,767.1795,-0.3858642578125,-9.1552734375E-4,0.92755126953125,4.71038818359375,-7.080535888671875,1.323394775390625,1,1.0,1.0,1.0,1.0,75.00
2021-04-02 11:53:54.664,0.50621814,0.37540486,0.4861267,0.47142607,0.29957587,-0.24927244,0.6489218,0.25252074,0.48183623,0.18172823,0.33948794,0.38054478,0.23545842,0.3578898,1.1825533,0.48585558,-0.17441809,-0.10483296,0.8735747,0.004057432,792.5641,786.1172,803.0403,809.0842,816.337,-0.37030029296875,1.8310546875E-4,0.93145751953125,3.2598876953125,-7.409515380859375,-0.8074951171875,1,1.0,1.0,1.0,1.0,75.00
2021-04-02 11:53:55.190,0.5655136,0.70759016,0.7726209,0.54300296,0.24754071,0.0104722595,0.5657561,0.21965154,0.36435527,-0.18239664,1.1036656,0.27521914,0.26002917,0.39924136,1.2923108,0.51184314,-0.1772251,-0.2010903,0.5887181,-0.017926289,813.5165,795.78754,807.8755,803.8461,717.619,-0.36419677734375,-0.012939453125,0.93438720703125,5.54779052734375,-7.82073974609375,1.353302001953125,1,1.0,1.0,1.0,1.0,75.00
2021-04-02 11:53:55.694,0.299588,0.9492593,0.90422297,0.6644161,0.6297756,0.47383994,0.9087961,0.5029299,0.75993997,0.28357878,1.3740083,0.82463586,0.69781727,0.5966135,1.2711865,0.8551432,0.5796984,-0.03154396,0.7276405,0.5454875,777.6557,786.9231,812.3077,773.6264,843.73627,-0.30010986328125,0.03692626953125,0.957275390625,7.5665283203125,-0.5084228515625,4.68048095703125,1,1.0,1.0,1.0,1.0,75.00
2021-04-02 11:53:56.212,0.76984,0.97851396,0.9654832,1.0377215,0.8071941,0.5844249,1.053696,0.8382609,1.0291084,0.5278769,1.3903179,1.0083779,0.62297726,0.60443693,1.271105,0.77885,0.4329929,0.08363918,0.7475379,0.5246609,775.2381,811.9048,826.0073,783.2967,707.9487,-0.36065673828125,0.00579833984375,0.93792724609375,3.850555419921875,0.785064697265625,-0.2691650390625,1,1.0,1.0,1.0,1.0,75.00
2021-04-02 11:53:56.719,1.0444512,0.8124573,0.9819238,1.2946146,0.9118774,0.5913804,1.1754764,0.9963707,1.1064283,0.584451,1.3544414,1.0147388,0.616038,0.5980372,1.2716109,0.73899484,0.34879953,0.08376665,0.7960328,0.51731175,834.4689,802.6374,792.1612,825.2015,872.3443,-0.39892578125,0.0087890625,0.9219970703125,3.491668701171875,-4.074859619140625,1.36077880859375,1,1.0,1.0,1.0,1.0,75.00
2021-04-02 11:53:57.227,1.138793,0.5317976,0.7024299,1.3364754,0.9002665,0.44585726,0.9362599,1.0316488,1.0977675,0.58774465,1.3006086,0.97313464,0.52230585,0.4390614,1.2288637,0.60481,0.07348095,0.0011923827,0.7182834,0.38564888,805.4579,811.0989,814.7253,820.7692,892.8938,-0.37701416015625,-0.01580810546875,0.92254638671875,5.286102294921875,-8.725433349609375,1.55517578125,1,1.0,1.0,1.0,1.0,75.00
2021-04-02 11:53:57.744,1.0588378,0.22093312,0.4567714,1.1665419,0.761438,0.2753247,0.22331983,0.8359794,1.0758008,0.5805274,0.71337414,0.89434874,0.47545862,0.39134666,1.1929684,0.46962962,0.0017720677,-0.08323817,0.79105943,0.14609694,815.9341,813.1135,824.3956,813.91943,634.61536,-0.38055419921875,-0.00152587890625,0.9290771484375,5.8319091796875,-4.702911376953125,0.785064697265625,1,1.0,1.0,1.0,1.0,75.00
2021-04-02 11:53:58.266,0.68440247,0.30506516,0.4567714,0.23657517,0.39487883,0.050247815,0.22331983,0.2874524,0.6015068,0.1078321,0.71337414,0.530055,0.36617172,0.3806797,1.1929684,0.34607658,-0.037828136,-0.13801737,0.79105943,-0.20557745,809.4872,812.71063,834.0659,817.1429,722.0513,-0.370849609375,0.00537109375,0.92840576171875,4.91973876953125,-4.239349365234375,2.026214599609375,1,1.0,1.0,1.0,1.0,75.00
2021-04-02 11:53:58.770,0.35723287,0.52835536,0.53009826,0.3368716,0.31405488,-0.10729029,0.17842327,0.34191597,0.6817139,0.17797399,0.67129743,0.50330746,0.404277,0.44142577,1.229814,0.37489676,-0.06535922,-0.18684135,0.82617205,-0.26749453,766.77655,815.9341,840.10986,784.5055,608.022,-0.37530517578125,0.00250244140625,0.9305419921875,3.701019287109375,-3.6187744140625,0.366363525390625,1,1.0,1.0,1.0,1.0,75.00
2021-04-02 11:53:59.288,0.8379641,0.5859838,0.53009826,0.57117087,0.3423144,-0.028478896,0.17842327,0.3452102,0.7297346,0.17663327,0.67129743,0.48149216,0.41024876,0.46517032,1.229814,0.4023129,-0.06294474,-0.1635286,0.82617205,-0.31409746,803.44324,800.6227,825.6044,816.337,750.65936,-0.3670654296875,-0.00433349609375,0.935302734375,4.897308349609375,-3.00567626953125,1.3458251953125,1,1.0,1.0,1.0,1.0,80.00
2021-04-02 11:53:59.805,1.0247636,0.52589905,0.53009826,0.9879557,0.43086055,-0.04278019,0.17842327,0.35320765,0.6494778,0.17774887,0.67129743,0.57878006,0.4723559,0.4988188,1.229814,0.41768953,-0.114817455,-0.17363583,0.82617205,-0.21902862,824.3956,793.7729,766.3736,823.5897,1059.3041,-0.37646484375,0.00360107421875,0.927001953125,5.046844482421875,-5.749664306640625,1.24114990234375,1,1.0,1.0,1.0,1.0,80.00
2021-04-02 11:54:00.315,1.1391693,0.54908013,0.53009826,1.1880516,0.4110695,0.048681274,0.17842327,0.20021026,0.70394623,0.17591728,0.67129743,0.5114744,0.45101696,0.5245672,1.229814,0.26747212,-0.0746592,-0.20321435,0.82617205,-0.19303781,806.6667,818.7546,834.87177,818.7546,761.53845,-0.38177490234375,-9.1552734375E-4,0.920654296875,5.061798095703125,-2.609405517578125,0.426177978515625,1,1.0,1.0,1.0,1.0,80.00
2021-04-02 11:54:00.824,0.4876982,0.47407177,0.53009826,0.93187296,0.1883974,0.008025368,0.17842327,0.032196045,0.6237623,0.07392323,0.67129743,0.51309013,0.47382107,0.51315665,1.229814,0.28722295,-0.15611103,-0.24033566,0.82617205,0.024760932,801.4286,795.78754,810.293,817.5458,715.2015,-0.38336181640625,0.0152587890625,0.923583984375,4.643096923828125,-4.059906005859375,2.9608154296875,1,1.0,1.0,1.0,1.0,80.00
2021-04-02 11:54:01.333,0.48800406,0.44325447,-0.24260871,0.56016415,0.22344597,-0.021109417,-0.053541377,-0.12094722,0.6237623,0.045149636,0.6947803,0.35468635,0.47359914,0.4550464,1.2129501,0.29767483,-0.16196258,-0.019477196,0.9674746,0.09831032,802.23444,796.1905,806.6667,808.68134,762.3443,-0.3802490234375,0.01226806640625,0.92156982421875,4.02252197265625,-3.72344970703125,1.054229736328125,1,1.0,1.0,1.0,1.0,80.00
2021-04-02 11:54:01.836,0.18978207,0.29228848,-0.16269511,0.56016415,0.17219402,-0.13248095,-0.031779066,-0.12094722,0.5173217,-0.02953327,0.8025427,0.35468635,0.44462872,0.42487398,1.2116265,0.29767483,-0.2080728,0.06024356,0.97912383,0.09831032,791.75824,801.02563,839.707,804.2491,652.3443,-0.400390625,0.010009765625,0.91546630859375,5.345916748046875,-3.386993408203125,2.4822998046875,1,1.0,1.0,1.0,1.0,80.00
2021-04-02 11:54:02.336,0.32277828,0.493472,-0.17065202,0.609992,0.26189014,0.10768391,-0.049970333,0.018324139,0.23618665,0.14633113,0.8025427,0.47601265,0.45513573,0.45460957,1.1987541,0.27103046,-0.2434095,0.059062865,1.0161431,-0.010804613,813.1135,794.17584,796.99634,826.4103,762.74725,-0.3670654296875,-0.0101318359375,0.93218994140625,4.179534912109375,-5.084228515625,0.785064697265625,1,1.0,1.0,1.0,1.0,80.00
2021-04-02 11:54:02.852,0.89112484,0.5881802,0.45570776,1.0371166,0.57125086,0.16236888,0.96406955,0.7052582,0.65288043,0.26482144,1.0977002,0.69372374,0.45001736,0.45990303,1.2339293,0.50944924,0.041359175,-0.08337313,0.87962204,-0.13814023,809.0842,815.12823,806.6667,813.1135,669.2674,-0.41864013671875,-0.0069580078125,0.9073486328125,4.478607177734375,-0.897216796875,-0.037384033203125,1,1.0,1.0,1.0,1.0,80.00
2021-04-02 11:54:03.360,0.79479223,0.6661682,0.5718022,1.046067,0.46655673,0.3057387,1.082573,0.6638393,0.6615035,0.32264692,1.1175108,0.74905694,0.3903654,0.437993,1.2562982,0.46032134,0.07839565,-0.105881795,0.79243416,-0.13177705,787.326,803.44324,821.978,795.78754,633.8095,-0.41021728515625,-0.0118408203125,0.91363525390625,4.9346923828125,-2.61688232421875,1.614990234375,1,1.0,1.0,1.0,1.0,80.00
2021-04-02 11:54:03.875,0.7780195,0.65309304,0.5718022,1.0580664,0.41946468,0.30563477,1.082573,0.61211175,0.7649092,0.4148121,1.1175108,0.8459703,0.38660973,0.43298185,1.2562982,0.41026488,0.11534441,-0.09138497,0.79243416,-0.18634404,806.6667,796.5934,793.36993,813.91943,673.2967,-0.4195556640625,-0.00933837890625,0.909912109375,4.583282470703125,-3.96270751953125,1.8841552734375,1,1.0,1.0,1.0,1.0,80.00
2021-04-02 11:54:04.390,0.675785,0.67684144,0.59724736,1.0225639,0.24901195,0.36937335,1.0750967,0.51033103,0.7643459,0.4594477,1.0749938,0.8386023,0.45072287,0.46494928,1.2599872,0.33670214,0.077120505,-0.09760105,0.8113161,-0.20063472,799.41394,812.71063,825.2015,803.44324,612.0513,-0.42266845703125,-0.00860595703125,0.90618896484375,4.74029541015625,-5.62255859375,1.069183349609375,1,1.0,1.0,1.0,1.0,80.00
2021-04-02 11:54:04.902,0.67306614,0.5685184,0.59724736,0.8911708,0.035060044,0.24885577,1.0750967,0.36160907,0.7639371,0.39775464,1.0749938,0.78403336,0.4874089,0.44459197,1.2599872,0.41211075,0.0088455705,-0.11256757,0.8113161,-0.3090149,812.3077,810.293,830.84247,806.26373,573.36993,-0.42156982421875,-0.0145263671875,0.91058349609375,4.643096923828125,-5.779571533203125,0.13458251953125,1,1.0,1.0,1.0,1.0,80.00
2021-04-02 11:54:05.410,0.55280215,0.5536423,0.59724736,0.6214093,0.05897219,0.17668806,1.0750967,0.3249955,0.7525422,0.5001588,1.0749938,0.6486584,0.4652616,0.3689789,1.2599872,0.46298903,-0.06446506,-0.09968404,0.8113161,-0.32991675,795.78754,819.9634,798.20514,798.20514,724.4689,-0.42236328125,-0.00762939453125,0.90814208984375,4.77020263671875,-4.32159423828125,0.7476806640625,1,1.0,1.0,1.0,1.0,80.00
2021-04-02 11:54:05.931,0.38387683,0.46853724,0.33817458,0.32722026,0.070543304,0.13942532,0.6423256,0.34451032,0.7814275,0.36537722,0.72565734,0.7084475,0.41005272,0.2951913,1.2152357,0.48526242,-0.088446274,-0.04688815,0.7542906,-0.30788335,784.5055,807.0696,825.6044,784.5055,674.5055,-0.42193603515625,-0.0098876953125,0.90777587890625,4.762725830078125,-4.074859619140625,0.680389404296875,1,1.0,1.0,1.0,1.0,80.00
2021-04-02 11:54:06.439,0.2491204,0.45267174,0.33817458,0.107589886,0.07180346,0.22365645,0.6423256,0.34596202,0.7828441,0.32442006,0.72565734,0.7228243,0.38898745,0.3640675,1.2152357,0.43290615,-0.06376794,-0.063094236,0.7542906,-0.20029572,805.4579,793.36993,817.9487,807.47253,636.63007,-0.41632080078125,-0.01043701171875,0.91204833984375,5.390777587890625,-3.9776611328125,3.63372802734375,1,1.0,1.0,1.0,1.0,80.00
2021-04-02 11:54:06.964,0.56295705,0.38511446,0.47678956,0.29537028,0.1624154,0.21128023,0.65702695,0.35866925,0.77440923,0.17890263,0.762813,0.7630848,0.41283396,0.38764018,1.2047555,0.4307112,-0.05968274,-0.09236607,0.7231291,-0.13940349,792.5641,793.7729,788.1319,797.8022,717.619,-0.39605712890625,0.0103759765625,0.91790771484375,5.525360107421875,-8.680572509765625,3.686065673828125,1,1.0,1.0,1.0,1.0,80.00
2021-04-02 11:54:07.490,0.828734,0.33440644,0.47678956,0.5284078,0.30600554,0.27448845,0.65702695,0.36120233,0.8470994,0.611197,0.762813,0.85776067,0.42683315,0.41057667,1.2047555,0.39365372,-0.097468786,-0.16991253,0.7231291,-0.13807543,811.9048,808.2784,836.08057,813.91943,631.39197,-0.37127685546875,0.014404296875,0.93115234375,6.721649169921875,-9.757232666015625,1.54022216796875,1,1.0,1.0,1.0,1.0,80.00
2021-04-02 11:54:08.000,0.9087505,0.42077795,0.47678956,0.6844535,0.65801173,0.37168786,0.65702695,0.50614405,1.1238365,1.0167575,0.762813,1.1198722,0.54148,0.4890803,1.2047555,0.57374257,-0.107784286,-0.23506753,0.7231291,-0.13407797,800.2198,794.17584,802.23444,807.0696,686.1905,-0.31365966796875,0.0079345703125,0.9501953125,4.882354736328125,-6.661834716796875,0.2093505859375,1,1.0,1.0,1.0,1.0,80.00
2021-04-02 11:54:08.503,0.88739,0.28944355,0.47678956,0.7016434,0.6992664,0.31564423,0.65702695,0.48808536,1.1238365,1.0167575,0.762813,1.1198722,0.52776724,0.5157979,1.2047555,0.58902186,-0.0031317384,-0.27179894,0.7231291,-0.15314257,791.3553,801.8315,809.0842,805.05493,702.3077,-0.31524658203125,-0.0076904296875,0.9407958984375,4.448699951171875,-2.220611572265625,2.51220703125,1,1.0,1.0,1.0,1.0,80.00
2021-04-02 11:54:09.008,0.7607394,0.22094393,0.47678956,0.6319779,0.6424101,0.12846641,0.65702695,0.38812822,1.1218175,1.0167575,0.762813,1.1187456,0.53423685,0.50483084,1.2047555,0.5784244,0.10734075,-0.22181436,0.7231291,-0.06361721,803.8461,803.8461,800.2198,799.41394,663.6264,-0.31689453125,-0.01165771484375,0.93975830078125,4.32159423828125,-5.5328369140625,0.34393310546875,1,1.0,1.0,1.0,1.0,80.00
2021-04-02 11:54:09.527,0.69659626,0.27452904,0.6509902,0.5721716,0.44717523,-0.03178161,1.2315683,0.17072996,0.7719694,0.3225251,1.389132,0.655467,0.4805803,0.4582991,1.3310653,0.39711314,0.08761296,-0.029949827,0.9413694,0.0037761964,805.05493,796.99634,768.7912,808.2784,701.50183,-0.32806396484375,-0.014404296875,0.9444580078125,4.628143310546875,-5.884246826171875,0.471038818359375,1,1.0,1.0,1.0,1.0,70.00
2021-04-02 11:54:10.033,0.5925813,0.5126072,0.8790387,0.602002,0.27045122,0.107611775,1.236871,0.19670372,0.61499065,0.440669,1.4091797,0.6719897,0.5035082,0.4890175,1.2807639,0.4352425,0.067024104,0.023989575,0.91199666,0.06530694,773.6264,815.12823,824.7985,782.0879,649.92676,-0.34228515625,-0.00921630859375,0.93914794921875,4.927215576171875,-3.207550048828125,1.33087158203125,1,1.0,1.0,1.0,1.0,70.00
2021-04-02 11:54:10.572,0.7921244,0.5891421,0.812889,0.7933235,0.35103905,0.16924286,1.1512561,0.43839708,0.9190881,0.37212536,1.3978854,0.922776,0.43111554,0.49900305,1.2694849,0.4146936,0.10505285,0.039896257,0.9127183,0.04554127,797.3993,809.0842,826.0073,809.89014,644.68866,-0.34405517578125,-0.01629638671875,0.93634033203125,3.9776611328125,-2.332763671875,-1.143951416015625,1,1.0,1.0,1.0,1.0,70.00
2021-04-02 11:54:11.076,0.8540543,0.57368106,0.84680253,0.8045908,0.5050471,0.12061811,1.0906409,0.6422868,1.041427,0.33014905,1.3011782,0.98552436,0.391274,0.47478253,1.2773731,0.37444106,0.15225339,-0.0897762,0.83160514,0.028354265,800.2198,804.65204,788.93774,816.337,675.7143,-0.37469482421875,-0.005126953125,0.92999267578125,4.844970703125,-3.132781982421875,1.951446533203125,1,1.0,1.0,1.0,1.0,70.00
2021-04-02 11:54:11.602,0.84865683,0.5062945,0.69033843,0.7863108,0.48006445,0.07727527,0.98806965,0.63275826,1.0387756,0.34339046,1.1953954,0.9437446,0.33656272,0.44365767,1.3068937,0.240263,0.15377504,-0.06462411,0.8088011,0.08280305,798.60803,814.3223,816.337,803.8461,605.6044,-0.37579345703125,-0.006591796875,0.92498779296875,4.68048095703125,-4.358978271484375,0.381317138671875,1,1.0,1.0,1.0,1.0,70.00
2021-04-02 11:54:12.103,0.6347307,0.5413451,0.8247435,0.55870897,0.3985828,-0.06621931,1.1121655,0.46972376,1.0424113,0.24526963,1.050346,0.9377004,0.34557322,0.406357,1.3433106,0.20332964,0.03236449,-0.13218112,0.7213417,0.10257803,796.5934,795.38464,798.60803,810.293,638.6447,-0.38348388671875,0.00311279296875,0.9345703125,4.605712890625,-4.6954345703125,1.1663818359375,1,1.0,1.0,1.0,1.0,70.00
2021-04-02 11:54:12.612,0.75518215,0.5114679,0.70349616,0.6898834,0.32406396,0.07275579,1.0313743,0.44518,0.72656053,0.25078988,1.1509317,0.48685297,0.34448025,0.3745669,1.2441914,0.27685335,0.0741246,-0.11045387,0.6463769,0.074832045,808.68134,813.91943,835.6777,808.68134,683.7729,-0.37255859375,0.00360107421875,0.9295654296875,4.50103759765625,-6.347808837890625,2.3626708984375,1,1.0,1.0,1.0,1.0,70.00
2021-04-02 11:54:13.130,0.7878179,0.6906032,0.70349616,0.6965818,0.48034483,0.19017252,1.0313743,0.55530024,0.80794644,0.33073828,1.1509317,0.54119724,0.4434074,0.4576397,1.2441914,0.4220609,0.1215518,-0.115963645,0.6463769,-0.03776194,806.6667,825.2015,836.08057,804.65204,664.0293,-0.38604736328125,-6.7138671875E-4,0.92376708984375,4.3963623046875,-1.375732421875,1.084136962890625,1,1.0,1.0,1.0,1.0,70.00
2021-04-02 11:54:13.631,0.78739226,0.62491405,0.70349616,0.64567333,0.51642394,0.19908378,1.0313743,0.5097598,0.85756433,0.33073828,1.1509317,0.5377859,0.5210177,0.5086627,1.2441914,0.47266838,0.15846875,-0.03050174,0.6463769,-0.12354029,813.91943,804.2491,789.34064,815.9341,773.6264,-0.3997802734375,-0.00408935546875,0.92303466796875,4.50103759765625,-2.97576904296875,0.9271240234375,1,1.0,1.0,1.0,1.0,70.00
2021-04-02 11:54:14.144,0.52697897,0.5996934,0.70349616,0.45329255,0.5298612,0.115660414,1.0313743,0.38834825,0.8567403,0.33073828,1.1509317,0.5235376,0.48940668,0.532132,1.2441914,0.4799477,0.05291142,-0.014091186,0.6463769,-0.038843267,787.326,809.4872,825.2015,798.60803,709.15753,-0.40228271484375,-0.01019287109375,0.9200439453125,4.14215087890625,-5.674896240234375,0.411224365234375,1,1.0,1.0,1.0,1.0,70.00
2021-04-02 11:54:14.660,0.46881825,0.589159,0.23406516,0.38315687,0.6330219,-0.020790638,0.49991292,0.28044245,0.80651313,0.13885023,0.78945833,0.1363501,0.3940318,0.44458482,1.2226442,0.389356,-0.06359966,0.02215826,0.49335477,0.03201825,782.49084,802.6374,830.0366,801.02563,624.1392,-0.39459228515625,-0.01025390625,0.919677734375,5.555267333984375,-6.74407958984375,0.91217041015625,1,1.0,1.0,1.0,1.0,70.00
2021-04-02 11:54:15.170,0.37123495,0.73024386,0.23406516,0.59375,0.72059774,0.09450324,0.49991292,0.43823746,0.7960626,0.48490056,0.78945833,0.32971916,0.46980548,0.49103245,1.2226442,0.41532588,-0.036973987,-0.006993315,0.49335477,0.102026336,778.0586,797.8022,822.381,799.011,736.9597,-0.36749267578125,0.00634765625,0.93389892578125,5.45806884765625,-6.89361572265625,1.854248046875,1,1.0,1.0,1.0,1.0,70.00
2021-04-02 11:54:15.695,0.2775673,0.81652635,0.23406516,0.6547983,0.68104374,0.15100642,0.49991292,0.4827175,0.745548,0.54463243,0.78945833,0.86607635,0.5574452,0.5271203,1.2226442,0.4986981,0.03789309,0.0024297952,0.49335477,0.05025883,772.8205,807.47253,833.663,809.89014,656.77655,-0.41619873046875,-0.007080078125,0.91583251953125,4.732818603515625,0.88226318359375,2.415008544921875,1,1.0,1.0,1.0,1.0,70.00
2021-04-02 11:54:16.208,0.5375965,0.6650101,0.23406516,0.55015427,0.59876895,0.15686335,0.49991292,0.5130262,0.8346854,0.5477792,0.78945833,0.9316365,0.66359293,0.53034043,1.2226442,0.48820174,0.044535175,-0.0894582,0.49335477,0.012383118,811.0989,814.7253,807.8755,812.3077,712.381,-0.40972900390625,-0.01885986328125,0.91131591796875,4.553375244140625,-5.84686279296875,1.158905029296875,1,1.0,1.0,1.0,1.0,70.00
2021-04-02 11:54:16.720,0.683916,0.5640023,0.23406516,0.2719048,0.49832276,0.113202974,0.49991292,0.43598506,0.83459175,0.33764753,0.78945833,0.9535852,0.6518368,0.39221278,1.2226442,0.48505646,0.058412656,-0.12884939,0.49335477,0.014995342,804.2491,809.0842,812.3077,813.5165,727.28937,-0.39813232421875,-0.0186767578125,0.9136962890625,4.4561767578125,-5.54779052734375,-0.381317138671875,1,1.0,1.0,1.0,1.0,70.00
2021-04-02 11:54:17.234,0.78496164,0.49219462,0.23406516,0.050145652,0.40353608,0.2126287,0.49991292,0.37176588,0.8670432,0.33980605,0.78945833,1.0003946,0.6071529,0.318939,1.2226442,0.4453018,0.043204635,-0.11175073,0.49335477,0.10223026,787.326,798.60803,795.38464,812.71063,810.293,-0.38568115234375,-0.00555419921875,0.92144775390625,5.2935791015625,-7.61138916015625,1.09161376953125,1,1.0,1.0,1.0,1.0,70.00
2021-04-02 11:54:17.751,0.8630759,0.5673602,0.23406516,0.5047864,0.53187275,0.30450982,0.49991292,0.25420484,0.97390974,0.31907412,0.78945833,0.87424034,0.66309637,0.2705159,1.2226442,0.65460163,0.14124212,-0.054082934,0.49335477,0.2334344,789.7436,803.44324,815.5311,792.96704,710.3663,-0.37725830078125,-0.0042724609375,0.9254150390625,5.031890869140625,-0.59814453125,0.814971923828125,1,1.0,1.0,1.0,1.0,70.00
2021-04-02 11:54:18.253,1.0504127,0.69743174,0.23406516,0.73867977,0.66331255,0.44183502,0.49991292,0.4692126,1.1326958,0.3477734,0.78945833,0.87424034,0.7251522,0.38452134,1.2226442,0.7000089,0.1314412,-0.035286255,0.49335477,0.3686022,826.8132,811.0989,806.26373,819.9634,740.58606,-0.40667724609375,-0.01580810546875,0.90325927734375,2.803802490234375,-7.46185302734375,-0.964508056640625,1,1.0,1.0,1.0,1.0,70.00
2021-04-02 11:54:18.775,1.2459636,0.85525537,0.23406516,0.8533296,0.85285854,0.54244024,0.49991292,0.48940578,1.1326958,0.3024467,0.78945833,0.8078445,0.82570726,0.5560718,1.2226442,0.76310694,0.15102,0.078251496,0.49335477,0.41662645,823.5897,780.4762,751.06226,836.8865,1045.6044,-0.38714599609375,-0.01910400390625,0.92279052734375,6.1309814453125,-6.841278076171875,1.338348388671875,1,1.0,1.0,1.0,1.0,70.00
2021-04-02 11:54:19.282,1.1155202,0.84659046,0.23406516,0.73555166,0.7657973,0.41774663,0.49991292,0.69387376,0.9859245,0.3263947,0.78945833,0.7440914,0.68066794,0.5657363,1.2226442,0.6284213,-0.025896706,0.061631545,0.49335477,0.36113855,805.05493,819.15753,840.5128,800.6227,779.67035,-0.39593505859375,0.0010986328125,0.92181396484375,4.957122802734375,-3.84307861328125,2.534637451171875,1,1.0,1.0,1.0,1.0,70.00
2021-04-02 11:54:19.810,0.7806862,0.7238692,0.23406516,0.20335022,0.38116136,0.3349854,0.49991292,0.5204744,0.7747965,0.5662855,0.78945833,0.8428854,0.4618375,0.5107182,1.2226442,0.56217366,-0.023450362,0.076924525,0.49335477,-0.04210165,805.4579,812.71063,819.15753,815.9341,725.6777,-0.38946533203125,-0.00799560546875,0.9266357421875,4.613189697265625,-3.70849609375,0.814971923828125,1,1.0,1.0,1.0,1.0,75.00
2021-04-02 11:54:20.310,0.67557275,0.5381333,0.29869783,0.13754766,0.26670372,0.15656531,0.36804643,0.42916852,0.7956398,0.5632235,0.5757711,0.86117864,0.49779415,0.44501695,1.214872,0.565279,-0.042536985,-0.030693436,0.7167536,-0.10502743,792.96704,805.05493,805.8608,793.36993,792.5641,-0.3916015625,-0.0147705078125,0.92547607421875,4.35150146484375,-5.899200439453125,0.16448974609375,1,1.0,1.0,1.0,1.0,75.00
2021-04-02 11:54:20.820,0.5978192,0.30750066,0.28727722,0.5397404,-0.064636156,0.008546879,0.3243937,0.28079018,0.7387519,0.5648352,0.5757711,0.8276322,0.46224278,0.31398553,1.2070888,0.48583874,-0.06369931,-0.06613166,0.70073384,-0.18901281,787.326,810.696,831.6484,803.44324,718.8278,-0.38348388671875,-0.00274658203125,0.928955078125,5.15899658203125,-5.600128173828125,0.897216796875,1,1.0,1.0,1.0,1.0,75.00
2021-04-02 11:54:21.333,0.53741246,0.39863643,0.13575931,0.81078184,-0.06480857,-0.06236793,0.14340545,0.23142906,0.6684554,0.48611054,0.38203397,0.824227,0.5124696,0.28463426,1.200694,0.45892635,-0.10776346,-0.126676,0.69022214,-0.24990682,806.26373,793.36993,798.20514,815.9341,773.6264,-0.4093017578125,-0.02191162109375,0.91558837890625,4.1571044921875,-1.248626708984375,0.55328369140625,1,1.0,1.0,1.0,1.0,75.00
2021-04-02 11:54:21.835,0.7187887,0.3314377,0.13575931,1.0419406,0.20750512,-0.19834943,0.14340545,0.23631315,0.79243773,0.105588056,0.38203397,0.66779244,0.41383022,0.3207132,1.200694,0.3378125,-0.13891146,-0.09747962,0.69022214,-0.26753548,803.8461,807.47253,816.337,809.4872,823.5897,-0.39422607421875,-0.02545166015625,0.91204833984375,4.41131591796875,-2.25799560546875,0.299072265625,1,1.0,1.0,1.0,1.0,75.00
2021-04-02 11:54:22.349,0.7187887,0.30753687,0.13575931,0.8658851,0.20750512,-0.2333449,0.14340545,0.3869824,0.79243773,0.06951318,0.38203397,0.5743722,0.41383022,0.36576912,1.200694,0.48025373,-0.13891146,-0.10160004,0.69022214,-0.03293273,819.5604,810.696,825.6044,808.2784,642.27106,-0.41802978515625,-0.0169677734375,0.9119873046875,4.822540283203125,-1.383209228515625,2.94586181640625,1,1.0,1.0,1.0,1.0,75.00
2021-04-02 11:54:22.870,0.5221831,0.29546502,0.13575931,0.17174177,0.34114078,-0.1457689,0.14340545,0.3505128,0.68352836,0.01648998,0.38203397,0.38855767,0.33602422,0.397041,1.200694,0.47029728,0.03773288,-0.15751809,0.69022214,0.17018484,806.6667,802.6374,791.75824,805.05493,826.4103,-0.4149169921875,-0.01458740234375,0.9091796875,5.585174560546875,-4.366455078125,0.3887939453125,1,1.0,1.0,1.0,1.0,75.00
2021-04-02 11:54:23.374,0.4019632,0.2989048,0.13575931,0.20548804,0.28209594,-0.22756913,0.14340545,0.25855276,0.77133054,0.027369484,0.38203397,0.57172734,0.3127259,0.37154856,1.200694,0.4776229,0.06353896,-0.16115005,0.69022214,0.09078971,788.1319,803.8461,815.12823,799.41394,731.7216,-0.42120361328125,-0.01361083984375,0.9129638671875,3.84307861328125,-5.72723388671875,1.9140625,1,1.0,1.0,1.0,1.0,75.00
2021-04-02 11:54:23.903,0.36287868,0.34776935,0.13575931,0.13875245,0.37738153,-0.019278914,0.14340545,0.24785562,1.0006583,0.17910439,0.38203397,0.67232496,0.32927006,0.37767893,1.200694,0.44223884,0.057630457,-0.21365543,0.69022214,0.033064894,742.6007,790.14655,816.7399,757.50916,754.2857,-0.44818115234375,-0.019775390625,0.919677734375,-12.867584228515625,15.2227783203125,-12.822723388671875,1,1.0,1.0,1.0,1.0,75.00
2021-04-02 11:54:24.406,0.28396466,0.3558585,0.13575931,0.15644653,0.43176907,0.2623376,0.14340545,0.24419756,1.0006583,0.24346171,0.38203397,0.6492983,0.32885548,0.36437154,1.200694,0.4329582,0.05738106,-0.10973,0.69022214,-0.1913109,817.9487,835.6777,817.9487,819.15753,945.6777,-0.6292724609375,-0.23651123046875,0.7430419921875,22.17620849609375,-5.166473388671875,13.690032958984375,1,1.0,1.0,1.0,1.0,75.00
2021-04-02 11:54:24.925,0.1323305,0.43395576,0.13575931,-0.049395707,0.5831283,0.42153892,0.14340545,0.41591412,1.0006583,0.23999465,0.38203397,0.64096767,0.34921363,0.37065786,1.200694,0.33727315,0.07035188,-0.09505832,0.69022214,-0.44465405,805.8608,826.0073,826.8132,804.65204,768.7912,-0.55828857421875,-0.0413818359375,0.833251953125,11.312408447265625,-18.54248046875,0.46356201171875,1,1.0,1.0,1.0,1.0,75.00
2021-04-02 11:54:25.447,0.1323305,0.3773766,0.13575931,-0.049395707,0.5831283,0.61558557,0.14340545,0.41591412,1.0006583,0.109629095,0.38203397,0.64096767,0.34921363,0.3655685,1.200694,0.33727315,0.07035188,0.0086157005,0.69022214,-0.44465405,781.685,805.8608,808.2784,785.7143,735.34796,-0.3804931640625,0.0806884765625,0.930908203125,12.149810791015625,-13.226470947265625,4.246826171875,1,1.0,1.0,1.0,1.0,75.00
2021-04-02 11:54:25.967,1.3664021,0.575441,0.13575931,1.0396154,0.7936323,0.23300153,0.14340545,0.46129435,0.8019995,0.012454446,0.38203397,0.9434873,0.56776434,0.38780755,1.200694,0.49020833,0.41488108,0.07096369,0.69022214,0.1800249,803.0403,805.4579,813.1135,826.0073,703.1135,-0.38177490234375,0.015869140625,0.91583251953125,2.691650390625,-6.05621337890625,1.5850830078125,1,1.0,1.0,1.0,1.0,75.00
2021-04-02 11:54:26.478,1.4284605,0.86716217,0.13575931,1.0690811,0.71352226,0.3598084,0.14340545,0.49411055,0.8019995,0.31228593,0.38203397,0.9434873,0.5978448,0.64969915,1.200694,0.4892851,0.35078755,0.028235275,0.69022214,0.22761014,782.0879,801.02563,781.685,799.41394,712.381,-0.38250732421875,0.01959228515625,0.92303466796875,0.829925537109375,-2.94586181640625,1.79443359375,1,1.0,1.0,1.0,1.0,75.00
2021-04-02 11:54:26.986,1.3489176,0.84116286,0.13575931,1.0572137,0.6955269,0.32634056,0.14340545,0.50127083,0.82568,0.40798452,0.38203397,0.9349427,0.53084856,0.5805323,1.200694,0.3680094,0.26262286,-0.043494426,0.69022214,0.20182367,789.34064,801.02563,797.8022,809.89014,712.7839,-0.375244140625,-0.00555419921875,0.9295654296875,4.53094482421875,-4.912261962890625,0.22430419921875,1,1.0,1.0,1.0,1.0,75.00
2021-04-02 11:54:27.502,1.0931239,0.7997306,0.13575931,0.7007989,0.4765705,0.22884351,0.14340545,0.28319946,0.88978773,0.40418926,0.38203397,0.736325,0.401209,0.52878535,1.200694,0.28052923,0.06826866,0.009857051,0.69022214,0.17534478,805.05493,804.65204,818.3516,806.6667,678.5348,-0.3817138671875,1.8310546875E-4,0.92724609375,4.74029541015625,-3.75335693359375,2.175750732421875,1,1.0,1.0,1.0,1.0,75.00
2021-04-02 11:54:28.030,0.8497578,0.5287695,0.105157636,0.5654778,0.40459982,0.022651214,-0.053846434,0.23889805,0.86745906,0.27200845,0.40348902,0.6753548,0.25403345,0.31041843,1.0527623,0.29114836,-0.0548148,0.12494653,0.99624205,0.08701953,807.47253,821.5751,832.4542,809.89014,648.315,-0.41943359375,0.02294921875,0.917724609375,5.0244140625,0.2093505859375,4.373931884765625,1,1.0,1.0,1.0,1.0,75.00
2021-04-02 11:54:28.540,0.80914146,0.34221599,0.11063497,0.64781314,0.25147972,-0.07341099,-0.017839955,0.27854007,0.81143266,0.08455201,0.45419654,0.6794393,0.31943515,0.37939745,1.0660067,0.37699792,-0.07177096,0.14846537,0.9728279,0.111799285,764.35895,809.89014,805.8608,769.59705,676.52014,-0.41461181640625,0.00201416015625,0.90460205078125,4.344024658203125,-5.286102294921875,-0.34393310546875,1,1.0,1.0,1.0,1.0,75.00
2021-04-02 11:54:29.067,0.8738478,0.609487,0.12188062,0.75631356,0.27606934,0.33807072,-0.03808142,0.32962644,0.22827342,0.40696314,0.45419654,0.57374257,0.2912373,0.42216712,1.0757104,0.43253458,-0.13017105,0.06417494,0.9964374,0.06684432,809.4872,807.8755,823.1868,807.8755,793.7729,-0.40240478515625,-0.004150390625,0.91510009765625,4.68048095703125,-7.82073974609375,0.83740234375,1,1.0,1.0,1.0,1.0,75.00
2021-04-02 11:54:29.568,0.72835857,0.666218,0.1279921,0.8142838,0.26641643,0.3691053,-0.04050378,0.2997252,0.19464506,0.42843446,0.45419654,0.50391674,0.3725258,0.3961177,1.1063856,0.47065163,-0.07688444,-0.06675884,1.0113277,0.112559624,793.36993,807.0696,810.293,809.0842,788.1319,-0.39801025390625,-0.005126953125,0.92010498046875,3.94775390625,-5.7421875,-0.07476806640625,1,1.0,1.0,1.0,1.0,75.00
2021-04-02 11:54:30.071,0.70184433,0.6382903,0.1279921,0.5178948,0.4193985,0.36346897,-0.04050378,0.50251424,0.79114765,0.42798275,0.45419654,0.5815582,0.1563435,0.2743723,1.1063856,0.21461406,-0.026249671,-0.021975415,1.0113277,-0.103732266,787.326,807.0696,823.5897,813.5165,821.1722,-0.40228271484375,-0.00726318359375,0.916015625,4.568328857421875,-5.48797607421875,1.3458251953125,1,1.0,1.0,1.0,1.0,70.00
2021-04-02 11:54:30.582,0.60810375,0.25304928,0.1279921,0.54905075,0.5307746,-0.05599511,-0.04050378,0.6323751,1.0042177,0.2293214,0.45419654,0.97934574,0.38449115,0.23153457,1.1063856,0.25224996,-0.079440735,0.055600766,1.0113277,-0.03936653,809.0842,809.4872,829.2308,820.3663,680.54944,-0.40545654296875,0.00323486328125,0.9248046875,4.78515625,-3.828125,1.3458251953125,1,1.0,1.0,1.0,1.0,70.00
2021-04-02 11:54:31.106,0.84918433,-0.030938683,0.1279921,0.7621636,0.69468486,-0.2526971,-0.04050378,0.67473257,1.0406094,0.23322004,0.45419654,0.9844838,0.4859966,0.29944348,1.1063856,0.32494277,-0.13756238,0.10919736,1.0113277,-1.2942153E-4,800.2198,793.7729,781.685,807.0696,857.03296,-0.41455078125,0.00439453125,0.91339111328125,4.90478515625,-3.72344970703125,1.831817626953125,1,1.0,1.0,1.0,1.0,70.00
2021-04-02 11:54:31.613,0.92127794,0.0055025844,0.1279921,0.8699688,0.75664175,-0.32924187,-0.04050378,0.7202395,0.9859705,0.27922624,0.45419654,0.977751,0.5263391,0.33500594,1.1063856,0.32735133,-0.20860696,0.07888698,1.0113277,0.010012995,805.8608,811.0989,818.3516,799.41394,811.50183,-0.40948486328125,-6.103515625E-4,0.91162109375,4.68048095703125,-5.839385986328125,0.127105712890625,1,1.0,1.0,1.0,1.0,70.00
2021-04-02 11:54:32.117,1.0022837,0.0011906566,0.1279921,0.942554,0.7687255,-0.37158054,-0.04050378,0.6200226,1.0101656,0.26126426,0.45419654,0.92570007,0.5077742,0.3374353,1.1063856,0.33491987,-0.28327766,-0.0035440486,1.0113277,-0.032371186,810.293,811.50183,835.2747,807.0696,720.84247,-0.4105224609375,-0.0047607421875,0.91326904296875,3.865509033203125,-1.18133544921875,-0.785064697265625,1,1.0,1.0,1.0,1.0,70.00
2021-04-02 11:54:32.625,0.72028095,0.07779898,0.1279921,0.8217474,0.56459844,-0.41775745,-0.04050378,0.5380089,0.76551735,0.07990209,0.45419654,0.9069893,0.4504444,0.29271924,1.1063856,0.366996,-0.08781072,-0.040604975,1.0113277,-0.042515468,805.8608,804.2491,804.2491,819.15753,822.381,-0.42059326171875,-0.00347900390625,0.9136962890625,5.016937255859375,-4.0374755859375,0.351409912109375,1,1.0,1.0,1.0,1.0,70.00
2021-04-02 11:54:33.142,0.42851248,0.07366626,0.1279921,0.66353923,0.39278203,-0.32379305,-0.04050378,0.4471139,0.72312105,0.335216,0.45419654,0.78558594,0.5616759,0.286536,1.1063856,0.4339183,0.015031014,-0.08775115,1.0113277,-0.06705238,768.7912,801.02563,815.5311,780.4762,795.38464,-0.41412353515625,-0.00726318359375,0.91162109375,5.211334228515625,-4.613189697265625,0.67291259765625,1,1.0,1.0,1.0,1.0,70.00
2021-04-02 11:54:33.701,0.80993825,0.3241871,0.1279921,0.58030367,0.46979335,-0.09056643,-0.04050378,0.47759122,0.7827433,0.36099428,0.45419654,0.7796165,0.5769953,0.32809937,1.1063856,0.48601317,0.025892753,-0.041781515,1.0113277,-0.046350714,774.83514,793.36993,834.4689,793.7729,780.07324,-0.42333984375,-0.00311279296875,0.90997314453125,5.99639892578125,-2.9608154296875,1.45050048828125,1,1.0,1.0,1.0,1.0,70.00
2021-04-02 11:54:34.207,0.9574787,0.615782,0.1279921,0.91402614,0.4603683,0.08101303,-0.04050378,0.47050372,0.7483832,0.36205068,0.45419654,0.85392547,0.5495727,0.36208794,1.1063856,0.43766335,-0.028020956,-0.07186293,1.0113277,0.008821143,805.4579,817.5458,816.337,806.6667,796.5934,-0.4326171875,-0.00299072265625,0.90606689453125,4.90478515625,-4.8748779296875,-0.0299072265625,1,1.0,1.0,1.0,1.0,70.00
2021-04-02 11:54:34.722,1.0623838,0.7258325,0.1279921,1.0647954,0.4915003,0.065063894,-0.04050378,0.62776524,0.60984856,0.35443464,0.45419654,0.7778578,0.4802488,0.38140392,1.1063856,0.4419184,-0.058074404,-0.056143135,1.0113277,0.051595714,804.65204,819.9634,828.4249,817.1429,782.49084,-0.43328857421875,0.009033203125,0.90478515625,4.8748779296875,-5.345916748046875,2.549591064453125,1,1.0,1.0,1.0,1.0,70.00
2021-04-02 11:54:35.227,1.0082508,0.5615418,0.1279921,1.0066968,0.42571172,-0.07506455,-0.04050378,0.6481507,0.574659,0.4837271,0.45419654,0.7706088,0.2613959,0.24060206,1.1063856,0.4190174,-0.021631291,-0.17751613,1.0113277,0.03549551,804.65204,796.99634,796.99634,822.381,781.28204,-0.4296875,0.0079345703125,0.90289306640625,5.57769775390625,-4.5458984375,1.51031494140625,1,1.0,1.0,1.0,1.0,70.00
2021-04-02 11:54:35.733,0.7852929,0.24385126,0.3078455,0.81232524,0.37293676,-0.2735979,0.21393746,0.5896973,0.49178582,0.4837271,0.47905394,0.6170724,0.23126519,0.3031877,1.2056222,0.4241383,-0.039722268,-0.22219428,0.52755976,-0.095863454,804.2491,810.293,821.5751,816.337,796.5934,-0.430419921875,0.0098876953125,0.8990478515625,4.089813232421875,-5.914154052734375,0.22430419921875,1,1.0,1.0,1.0,1.0,70.00
2021-04-02 11:54:36.245,0.6328951,0.22524418,0.1756475,0.52049637,0.4184501,-0.22586727,0.20223156,0.45052245,0.56986266,0.50621766,0.5289313,0.49260843,0.19352508,0.3304828,1.1754221,0.36842945,-0.047588676,-0.12282632,0.6143351,-0.10414796,784.10254,805.8608,830.84247,795.38464,795.38464,-0.4229736328125,4.2724609375E-4,0.906005859375,5.30853271484375,-5.06927490234375,0.231781005859375,1,1.0,1.0,1.0,1.0,70.00
2021-04-02 11:54:36.758,-0.001156469,0.42351475,0.28645226,0.2214273,0.3753064,-0.19266096,0.31861484,0.2778609,0.60155326,0.31747034,0.6343654,0.33870605,0.30270568,0.36102676,1.1566695,0.37409356,-0.03909368,-0.054579474,0.60738224,-0.14581254,808.2784,799.41394,799.011,809.4872,825.2015,-0.4215087890625,-0.00103759765625,0.9044189453125,3.955230712890625,-4.837493896484375,0.725250244140625,1,1.0,1.0,1.0,1.0,70.00
2021-04-02 11:54:37.266,0.13120858,0.47493663,0.27209812,0.16306295,0.3515205,-0.18575056,0.32859623,0.20251694,0.6163504,0.28209767,0.61945087,0.3390958,0.35500363,0.29465312,1.131003,0.35111034,-0.0402351,-0.081730306,0.62825495,-0.09623082,801.02563,809.4872,814.7253,797.8022,764.7619,-0.4217529296875,0.0018310546875,0.9111328125,5.271148681640625,-4.5458984375,1.697235107421875,1,1.0,1.0,1.0,1.0,70.00
2021-04-02 11:54:37.772,0.16825545,0.46656156,0.3804608,0.21344921,0.25765622,-0.25346702,0.36209705,0.06587742,0.53695506,0.28209767,0.62912065,0.33860847,0.39678273,0.26407242,1.1177777,0.28006166,0.02358614,-0.09941549,0.58204675,-0.1344821,790.54944,803.44324,790.9524,804.2491,773.22345,-0.4100341796875,0.0018310546875,0.912353515625,4.583282470703125,-5.802001953125,1.831817626953125,1,1.0,1.0,1.0,1.0,70.00
2021-04-02 11:54:38.281,0.47599292,0.41487217,0.25750598,0.34250328,0.2739713,-0.18131496,0.29287353,-0.012260876,0.43671548,-0.0053771157,0.6517934,0.21785063,0.35614198,0.26405835,1.0881548,0.16900158,0.029187478,-0.03905561,0.71418196,-0.13951822,786.52014,801.4286,826.4103,791.75824,848.5714,-0.38427734375,0.00518798828125,0.9202880859375,4.9346923828125,-6.56463623046875,1.8243408203125,1,1.0,1.0,1.0,1.0,70.00
2021-04-02 11:54:38.796,0.5807387,0.41739562,0.22703138,0.61815155,0.23065898,-0.19939525,0.31761858,0.1290014,0.5314339,0.016679468,0.6493518,0.23308069,0.4258869,0.24702586,1.0732182,0.20651236,0.04593964,-0.031757522,0.746104,-0.14077806,796.99634,809.89014,818.7546,809.4872,826.4103,-0.3699951171875,3.0517578125E-4,0.93780517578125,4.927215576171875,-5.181427001953125,0.800018310546875,1,1.0,1.0,1.0,1.0,70.00
2021-04-02 11:54:39.310,0.826508,0.5204807,0.21253212,0.8125277,0.24357934,-0.08104639,0.35927227,0.30646673,0.88813144,0.470323,0.63622665,0.79653,0.45674032,0.2606601,1.0431949,0.43522346,0.032162204,-0.084863186,0.8046134,-0.047883242,813.91943,811.9048,835.2747,814.3223,773.22345,-0.3778076171875,0.00970458984375,0.93182373046875,4.38140869140625,-3.5888671875,0.3887939453125,1,1.0,1.0,1.0,1.0,70.00
2021-04-02 11:54:39.819,0.66599774,0.46886247,0.21253212,0.67381066,0.16991867,-0.07590737,0.35927227,0.2756121,0.8879142,0.470323,0.63622665,0.8486012,0.42184705,0.26336563,1.0431949,0.4244126,-0.053570785,-0.20667435,0.8046134,-0.103379816,811.50183,815.12823,808.68134,802.23444,790.14655,-0.37860107421875,0.01702880859375,0.93182373046875,4.807586669921875,-3.476715087890625,1.48040771484375,1,1.0,1.0,1.0,1.0,70.00
2021-04-02 11:54:40.321,0.5640119,0.38135365,0.21253212,0.5629122,0.13611056,-0.055526037,0.35927227,0.16330625,0.8879142,0.470323,0.63622665,0.8062872,0.33083594,0.33596897,1.0431949,0.3831361,-0.09740167,-0.13994308,0.8046134,-0.19263847,805.4579,809.89014,829.6337,811.50183,707.5458,-0.3900146484375,0.0052490234375,0.91937255859375,4.0972900390625,-4.029998779296875,1.21124267578125,1,1.0,1.0,1.0,1.0,75.00
2021-04-02 11:54:40.844,0.24731964,0.06611964,0.21253212,0.465383,0.09497832,-0.19885129,0.35927227,0.3543102,0.8145984,0.19617377,0.63622665,0.8097941,0.29830575,0.34632868,1.0431949,0.3652832,-0.1809886,-0.078714676,0.8046134,-0.19686802,798.60803,801.8315,797.8022,793.36993,795.78754,-0.38720703125,0.007568359375,0.9197998046875,4.837493896484375,-3.671112060546875,1.218719482421875,1,1.0,1.0,1.0,1.0,75.00
2021-04-02 11:54:41.357,0.34503967,-0.052752823,0.03322169,0.41248733,0.04770466,-0.4476489,-0.36202347,0.34696627,0.57463235,0.005993984,0.2953513,0.2725046,0.32264733,0.4043523,1.1339005,0.3324247,-0.1031398,-0.059222512,0.55941874,-0.2392658,753.47986,806.26373,827.2161,753.0769,772.8205,-0.39849853515625,0.00146484375,0.91705322265625,7.2674560546875,-2.878570556640625,0.231781005859375,1,1.0,1.0,1.0,1.0,75.00
2021-04-02 11:54:41.871,0.43570843,0.31256792,-0.1821372,0.24476455,0.14705685,-0.29595116,-0.16692875,0.47185957,0.36455625,-0.019099861,0.25007537,0.19179195,0.30585843,0.40400004,1.1598479,0.32308382,-0.07464009,-0.044660803,0.67661005,-0.20620164,803.8461,810.293,824.3956,807.0696,774.83514,-0.43402099609375,0.0377197265625,0.90673828125,7.01324462890625,0.844879150390625,2.474822998046875,1,1.0,1.0,1.0,1.0,75.00
2021-04-02 11:54:42.385,0.40210137,0.5679283,-0.10454689,0.34647277,0.06553597,-0.22749972,0.31471443,0.18213934,0.28476036,0.21463875,0.6349149,0.08905645,0.3090052,0.4589561,1.1602145,0.3187518,-0.040129196,-0.053697683,0.67931575,-0.29072115,813.91943,803.8461,802.23444,820.7692,786.1172,-0.432373046875,0.020751953125,0.90576171875,4.119720458984375,-11.805877685546875,4.568328857421875,1,1.0,1.0,1.0,1.0,75.00
2021-04-02 11:54:42.897,0.40210137,0.58024555,0.015625382,0.34647277,0.06553597,-0.18525283,0.37408274,0.18213934,0.28476036,0.4798813,0.8542718,0.08905645,0.3090052,0.4943726,1.1584203,0.3187518,-0.040129196,-3.204794E-4,0.7164543,-0.29072115,818.3516,797.3993,818.3516,822.381,761.9414,-0.41522216796875,0.00970458984375,0.91357421875,3.357086181640625,-3.27484130859375,-0.7177734375,1,1.0,1.0,1.0,1.0,75.00
2021-04-02 11:54:43.420,0.74148506,0.67581445,0.12817444,-0.02977258,0.73453176,-0.07568192,0.5100196,0.4150331,0.5834694,0.52469915,0.8542718,0.40521768,0.57624435,0.5114461,1.1615332,0.46073744,-0.019430326,-0.023545483,0.6919142,-0.003448153,799.81683,812.71063,827.2161,801.8315,805.4579,-0.41339111328125,0.00244140625,0.91241455078125,4.53094482421875,-4.11224365234375,0.276641845703125,1,1.0,1.0,1.0,1.0,75.00
2021-04-02 11:54:43.947,0.5975148,0.73069793,0.38033924,-0.07925917,0.6251567,0.26013026,0.388465,0.44467863,0.5870807,0.5574394,0.8666946,0.50649923,0.5625153,0.47836518,1.1421595,0.5010703,-0.00976842,0.037967123,0.82546234,-0.03553179,805.05493,805.8608,811.0989,806.26373,823.1868,-0.40277099609375,-0.0042724609375,0.91766357421875,3.745880126953125,-4.41131591796875,0.28411865234375,1,1.0,1.0,1.0,1.0,75.00
2021-04-02 11:54:44.452,0.6970372,0.8055153,0.41231787,0.23578654,0.552313,0.3971035,0.41588417,0.40351292,0.59994745,0.4980141,0.5965562,0.5551323,0.5403173,0.40764174,1.1210356,0.45074525,-0.05559775,-0.120123565,0.8178474,-0.052595627,796.5934,816.337,833.663,804.2491,792.96704,-0.4107666015625,-0.00115966796875,0.90472412109375,5.1141357421875,-5.510406494140625,1.368255615234375,1,1.0,1.0,1.0,1.0,75.00
2021-04-02 11:54:44.968,0.6914501,0.60932887,0.44246426,0.53568083,0.4224985,0.3706201,0.44027156,0.44399142,0.84934276,0.39778236,0.5724766,0.8974507,0.48047346,0.38387647,1.0938419,0.4235535,-0.121447824,-0.14401087,0.8337157,-0.03837698,798.60803,813.5165,780.87915,784.90845,767.5824,-0.4168701171875,-0.00445556640625,0.90399169921875,9.981536865234375,-22.198638916015625,0.657958984375,1,1.0,1.0,1.0,1.0,75.00
2021-04-02 11:54:45.493,0.79915076,0.43007633,0.54306877,0.71685433,0.49763292,0.2368482,0.33053055,0.46343488,0.84934276,0.13386387,0.4956891,0.89679015,0.42631325,0.37163848,1.0936158,0.33780965,-0.23941846,-0.26896322,0.6778011,-0.04160574,797.8022,798.20514,817.9487,774.43225,799.011,-0.33734130859375,0.09356689453125,0.95318603515625,-5.390777587890625,-8.321685791015625,11.1553955078125,1,1.0,1.0,1.0,1.0,75.00
2021-04-02 11:54:45.994,0.7583739,0.26900625,0.54306877,0.9425713,0.77308387,0.08760584,0.33053055,0.628665,1.165749,0.024816578,0.4956891,0.932202,0.99063826,0.382497,1.0936158,0.5461283,0.60244334,-0.22323169,0.6778011,0.33597824,772.8205,803.0403,839.707,779.2674,697.8755,-0.3543701171875,0.015380859375,0.91827392578125,0.037384033203125,2.930908203125,-1.21124267578125,1,1.0,1.0,1.0,1.0,75.00
2021-04-02 11:54:46.503,0.6853581,0.4289443,0.54306877,1.015237,0.8458367,0.27738997,0.33053055,0.65080935,1.1508173,0.46178046,0.4956891,0.8629137,1.0876348,0.4298342,1.0936158,0.66265213,0.74291223,-0.03540465,0.6778011,0.60817325,794.9817,797.8022,781.28204,791.3553,825.2015,-0.40185546875,-0.0013427734375,0.91705322265625,4.942169189453125,-9.787139892578125,-0.695343017578125,1,1.0,1.0,1.0,1.0,75.00
2021-04-02 11:54:47.019,0.54695475,0.34581295,0.031004226,0.93964237,0.7893784,0.20560813,0.102219895,0.5435304,1.1377674,0.49593204,0.65018266,0.7034993,0.9535681,0.33313072,1.0215234,0.650134,0.63635325,-0.13942216,0.2765643,0.67983913,811.0989,805.8608,807.8755,814.7253,775.64105,-0.38958740234375,-0.0032958984375,0.91888427734375,5.4730224609375,-5.45806884765625,0.13458251953125,1,1.0,1.0,1.0,1.0,75.00
2021-04-02 11:54:47.525,0.44116542,0.2298681,-0.04103835,0.79894215,0.6887641,0.1322421,0.25244153,0.44960147,0.6928649,0.49593204,0.8591107,0.64160514,0.4576538,0.23732018,1.0405564,0.45841056,0.14219728,-0.17558524,0.4907179,0.45967138,795.78754,801.4286,815.5311,796.99634,665.2381,-0.39312744140625,0.001708984375,0.91656494140625,4.62066650390625,-6.123504638671875,0.538330078125,1,1.0,1.0,1.0,1.0,75.00
2021-04-02 11:54:48.045,0.5450202,0.1303897,0.03205312,0.8158158,0.58864105,0.0327544,0.1970452,0.33722764,0.68138427,0.35773876,0.8711822,0.5838952,0.5475307,0.14861019,1.0265487,0.39089713,0.08780589,-0.25360113,0.52219313,0.2925695,786.1172,799.41394,800.6227,794.57874,646.30035,-0.39813232421875,0.0101318359375,0.92901611328125,4.957122802734375,-5.330963134765625,0.5084228515625,1,1.0,1.0,1.0,1.0,75.00
2021-04-02 11:54:48.571,0.6388202,0.09232972,0.22608435,0.7760963,0.43976152,0.07766827,0.23434012,0.2849673,0.9626004,0.09246175,0.89581895,0.56828845,0.5296687,0.21269315,1.0414321,0.35075793,0.022783529,-0.2846361,0.58170104,-0.049471244,781.685,811.0989,792.1612,799.011,691.4286,-0.407470703125,5.4931640625E-4,0.91644287109375,3.63372802734375,-4.605712890625,0.949554443359375,1,1.0,1.0,1.0,1.0,75.00
2021-04-02 11:54:49.072,0.6006016,0.12101217,0.40718254,0.612698,0.26605237,0.1275323,0.1765616,0.32450444,1.0226469,0.18348478,0.6414538,0.70418966,0.5132739,0.35937878,1.1028036,0.4131957,0.044065207,-0.20651153,0.55946404,0.015123161,805.4579,799.81683,820.7692,796.5934,749.85345,-0.393798828125,0.0042724609375,0.91754150390625,5.39825439453125,-4.605712890625,1.1962890625,1,1.0,1.0,1.0,1.0,75.00
2021-04-02 11:54:49.579,0.5404854,0.2790755,0.5464927,0.34616736,0.5346211,0.17222062,0.4784796,0.31453055,1.040424,0.24371254,0.6974295,0.7891096,0.4925622,0.46672723,1.1508037,0.46870357,0.04913619,-0.20614013,0.6185724,0.019188542,782.49084,792.1612,811.50183,808.68134,853.4066,-0.4090576171875,-6.103515625E-5,0.91943359375,4.418792724609375,-4.658050537109375,1.188812255859375,1,1.0,1.0,1.0,1.0,75.00
2021-04-02 11:54:50.089,0.4414107,0.6788221,0.52693546,0.67422414,0.7157433,0.21353067,0.52094173,0.40230685,1.0347127,0.2979516,0.687655,0.8378524,0.5403687,0.47092643,1.1422836,0.49321443,-0.012804203,-0.15120947,0.62092483,-0.044128872,810.293,819.5604,841.7216,815.5311,748.24176,-0.4061279296875,-0.00482177734375,0.9144287109375,4.71038818359375,-5.203857421875,0.6878662109375,1,1.0,1.0,1.0,1.0,75.00
2021-04-02 11:54:50.602,0.5432984,0.81088567,0.55308443,0.73260117,0.75621784,0.30719084,0.61350465,0.41568992,0.9101335,0.5140073,0.6060285,0.81228817,0.5249724,0.49351966,1.107106,0.48877025,-0.11728784,-0.15731929,0.6501438,-0.16197032,796.5934,800.2198,827.619,802.23444,725.6777,-0.392578125,-0.00128173828125,0.9163818359375,4.50103759765625,-4.059906005859375,1.592559814453125,1,1.0,1.0,1.0,1.0,75.00
2021-04-02 11:54:51.108,0.59404325,0.8143842,0.51575834,0.7111154,0.6734003,0.24063987,0.47469425,0.49467495,0.8327143,0.5208413,0.6548626,0.72110337,0.43168113,0.43692592,1.0930005,0.44337118,-0.15623982,-0.1523019,0.5822325,-0.30435345,783.2967,789.34064,809.89014,805.05493,776.04395,-0.4114990234375,6.103515625E-4,0.91314697265625,4.029998779296875,-5.03936767578125,1.742095947265625,1,1.0,1.0,1.0,1.0,75.00
2021-04-02 11:54:51.623,0.6377446,0.66070914,0.20033325,0.46501434,0.6214262,0.17399868,-0.15035763,0.38440692,0.915469,0.5208413,0.475419,0.604932,0.37077442,0.4229839,1.083382,0.4196038,-0.12824313,-0.13006434,0.6637252,-0.3640254,802.6374,809.0842,807.0696,794.17584,698.68134,-0.41119384765625,-0.00128173828125,0.91510009765625,4.9945068359375,-4.83001708984375,1.31591796875,1,1.0,1.0,1.0,1.0,75.00
2021-04-02 11:54:52.129,0.6358594,0.55111355,0.29293048,0.57150084,0.6300128,-0.04952183,0.09363105,0.32992995,0.9898852,0.34386352,0.5412319,0.5273444,0.38441315,0.42402062,1.0813961,0.3445013,-0.10968308,-0.118904896,0.6817827,-0.34548545,812.3077,816.337,815.12823,813.5165,720.0366,-0.41314697265625,-0.0045166015625,0.91351318359375,4.77020263671875,-3.349609375,1.07666015625,1,1.0,1.0,1.0,1.0,75.00
2021-04-02 11:54:52.654,0.65531856,0.5642137,0.2765623,0.6965809,0.5654827,-0.052580245,0.013681379,0.37231892,0.990415,-0.10911312,0.51124555,0.5582604,0.38101298,0.4650682,1.0495913,0.36148503,-0.20423517,-0.03768344,0.69921136,-0.257226,794.57874,799.011,808.2784,803.0403,795.78754,-0.405029296875,-8.544921875E-4,0.910400390625,5.12908935546875,-5.57769775390625,-0.059814453125,1,1.0,1.0,1.0,1.0,75.00
2021-04-02 11:54:53.158,0.6896587,0.4591425,0.34814465,0.7316117,0.5355593,-0.120554276,0.105757594,0.49829865,0.7998482,-0.021275215,0.5082675,0.6383187,0.400891,0.48082322,1.0440999,0.3072867,-0.29068276,-0.032366563,0.67247576,-0.14803916,799.81683,794.57874,812.3077,801.02563,741.39197,-0.41851806640625,-0.0032958984375,0.9085693359375,5.24871826171875,-4.418792724609375,1.338348388671875,1,1.0,1.0,1.0,1.0,75.00
2021-04-02 11:54:53.666,0.68627834,0.41812235,0.34973556,0.5521628,0.75219,0.04392883,-0.039793268,0.64521813,0.53419477,0.1400601,0.59137875,0.9986258,0.41379926,0.44265157,1.0330578,0.46708107,-0.3708857,-0.13176097,0.60637265,-0.010348123,801.8315,808.68134,813.91943,824.7985,834.4689,-0.42010498046875,-7.32421875E-4,0.908935546875,4.732818603515625,-4.844970703125,1.375732421875,1,1.0,1.0,1.0,1.0,75.00
2021-04-02 11:54:54.167,0.66224337,0.35238358,0.35245875,0.50573283,0.9211268,0.18029733,0.024493173,0.85940236,0.75279665,0.25836685,0.6562905,1.0271772,0.506002,0.44912615,1.0824832,0.57107985,-0.35439014,-0.15645653,0.5382137,0.05159149,785.31134,799.41394,815.9341,795.38464,759.5238,-0.41314697265625,-0.00537109375,0.905517578125,4.358978271484375,-4.523468017578125,1.33087158203125,1,1.0,1.0,1.0,1.0,75.00
2021-04-02 11:54:54.688,0.5498306,0.29942217,0.17461929,0.42263225,0.95383275,0.19153214,0.044194326,0.8620669,0.97127247,0.3482054,0.6144799,1.0244275,0.55403805,0.4436648,1.1087128,0.67134976,-0.37787056,-0.09530261,0.43500146,0.06736822,808.68134,806.26373,813.91943,812.71063,816.337,-0.4168701171875,-0.00469970703125,0.91015625,5.09918212890625,-4.42626953125,1.09161376953125,1,1.0,1.0,1.0,1.0,75.00
2021-04-02 11:54:55.199,0.47043374,0.2880675,0.018551191,0.4731919,0.90345573,0.12324156,0.24241345,0.7465836,1.1601342,0.41648313,0.6644972,0.9752119,0.7466468,0.4704223,1.0987508,0.7865123,-0.3044203,0.0864073,0.6096346,-0.02575884,804.65204,811.9048,801.02563,813.1135,714.3956,-0.41497802734375,-0.0030517578125,0.91131591796875,4.658050537109375,-5.1739501953125,1.024322509765625,1,1.0,1.0,1.0,1.0,75.00
2021-04-02 11:54:55.706,0.37761867,0.19797273,-0.08044974,0.3395948,0.76933783,0.07757988,0.26234877,0.4753221,1.1783663,0.40392202,0.6344319,0.9785569,0.70132333,0.483117,1.0918005,0.75493264,-0.28110048,0.10257897,0.6746047,-0.10330627,791.75824,806.6667,834.4689,808.2784,842.9304,-0.4166259765625,-0.005859375,0.9114990234375,4.66552734375,-4.299163818359375,0.755157470703125,1,1.0,1.0,1.0,1.0,75.00
2021-04-02 11:54:56.231,0.3285078,0.18314305,0.01995204,0.2971514,0.7102613,0.11554307,0.3018769,0.4964276,1.1703814,0.38683125,0.57113814,1.0080487,0.6458832,0.44647202,1.0783236,0.6548137,-0.16613543,0.0556083,0.77389383,-0.12015035,819.5604,809.4872,802.6374,827.619,794.9817,-0.41925048828125,-0.00494384765625,0.90643310546875,4.732818603515625,-5.51788330078125,-0.2093505859375,1,1.0,1.0,1.0,1.0,75.00
2021-04-02 11:54:56.738,0.4854286,-0.020704502,0.26467827,0.4907582,0.53900635,0.08765687,0.18081103,0.5810144,0.906724,0.48898354,0.5766721,0.90919006,0.3207182,0.33494124,1.0393506,0.37705284,-0.11667575,-0.074091986,0.7595478,-0.07464834,792.1612,803.8461,810.696,800.2198,818.3516,-0.4180908203125,-0.0037841796875,0.9102783203125,4.643096923828125,-4.613189697265625,0.844879150390625,1,1.0,1.0,1.0,1.0,75.00
