TimeStamp,Delta_TP9,Delta_AF7,Delta_AF8,Delta_TP10,Theta_TP9,Theta_AF7,Theta_AF8,Theta_TP10,Alpha_TP9,Alpha_AF7,Alpha_AF8,Alpha_TP10,Beta_TP9,Beta_AF7,Beta_AF8,Beta_TP10,Gamma_TP9,Gamma_AF7,Gamma_AF8,Gamma_TP10,RAW_TP9,RAW_AF7,RAW_AF8,RAW_TP10,AUX_RIGHT,Accelerometer_X,Accelerometer_Y,Accelerometer_Z,Gyro_X,Gyro_Y,Gyro_Z,HeadBandOn,HSI_TP9,HSI_AF7,HSI_AF8,HSI_TP10,Battery,Elements
2021-04-13 08:48:45.935,0.8851456,0.5000299,0.11813727,0.2265169,0.5652739,0.2212286,-0.24847971,0.16293994,0.79328805,0.44278702,0.1872077,0.57915366,0.57924,0.26435152,0.08648458,0.7486635,0.017851561,-0.33983856,-0.24680494,0.15600966,818.3516,703.91943,796.1905,812.71063,788.1319,0.08795166015625,-0.02557373046875,0.997802734375,6.003875732421875,-5.435638427734375,-0.037384033203125,1,1.0,1.0,1.0,1.0,50.00
2021-04-13 08:48:46.016,,,,,,,,,,,,,,,,,,,,,,,,,,,,,,,,,,,,,,/muse/elements/blink
2021-04-13 08:48:46.445,0.8851456,0.49686447,0.35828304,0.2265169,0.5652739,0.16979553,-0.18533464,0.16293994,0.79328805,0.436423,0.046367727,0.57915366,0.57924,0.2317792,0.06592328,0.7486635,0.017851561,-0.33564904,-0.20909862,0.15600966,820.3663,725.6777,782.49084,805.8608,797.8022,0.2025146484375,0.01959228515625,0.98992919921875,10.250701904296875,-13.53302001953125,-16.0003662109375,1,2.0,1.0,1.0,2.0,50.00
2021-04-13 08:48:46.954,0.8851456,0.47298312,0.47257394,0.2265169,0.5652739,0.09841519,-0.19919202,0.16293994,0.79328805,-0.12216771,0.06609403,0.57915366,0.57924,0.22943449,0.07235705,0.7486635,0.017851561,-0.2973471,-0.09566075,0.15600966,877.1795,730.10986,788.1319,849.3773,780.87915,0.2171630859375,0.05767822265625,0.9715576171875,2.7215576171875,-21.376190185546875,-20.763092041015625,1,2.0,1.0,1.0,2.0,50.00
2021-04-13 08:48:47.464,0.8851456,0.8063427,0.62926716,0.2265169,0.5652739,0.35110474,-0.15340632,0.16293994,0.79328805,0.2887999,0.21249516,0.57915366,0.57924,0.052652244,0.013337738,0.7486635,0.017851561,-0.3286734,-0.13521764,0.15600966,809.4872,699.89014,773.22345,813.5165,777.25275,0.28704833984375,0.06787109375,0.969970703125,2.295379638671875,-6.766510009765625,-10.026397705078125,1,2.0,1.0,1.0,2.0,50.00
2021-04-13 08:48:47.971,0.8851456,0.8063427,0.7166855,0.2265169,0.5652739,0.35110474,0.009221368,0.16293994,0.79328805,0.2887999,0.21282311,0.57915366,0.57924,0.052652244,0.06519009,0.7486635,0.017851561,-0.3286734,-0.14880404,0.15600966,813.91943,734.94507,775.2381,794.9817,716.4103,0.2572021484375,0.1126708984375,0.97174072265625,5.764617919921875,-3.9178466796875,4.463653564453125,1,2.0,1.0,1.0,2.0,50.00
2021-04-13 08:48:48.497,0.8851456,0.8063427,1.0610743,0.2265169,0.5652739,0.35110474,0.45960984,0.16293994,0.79328805,0.2887999,0.5275213,0.57915366,0.57924,0.052652244,0.06070182,0.7486635,0.017851561,-0.3286734,-0.33060268,0.15600966,842.9304,762.74725,791.75824,836.08057,790.54944,0.3096923828125,0.115966796875,0.9354248046875,7.01324462890625,-8.411407470703125,1.71966552734375,1,2.0,1.0,1.0,2.0,50.00
2021-04-13 08:48:49.005,0.8851456,0.8063427,1.0570017,0.2265169,0.5652739,0.35110474,0.45866898,0.16293994,0.79328805,0.2887999,0.5252563,0.57915366,0.57924,0.052652244,0.06997259,0.7486635,0.017851561,-0.3286734,-0.3638826,0.15600966,823.9927,774.43225,795.38464,821.1722,733.3333,0.32049560546875,0.14501953125,0.9332275390625,4.897308349609375,-4.50103759765625,0.5084228515625,1,2.0,1.0,1.0,2.0,50.00
2021-04-13 08:48:49.515,0.8851456,0.60601884,0.95294225,1.181468,0.5652739,-0.01993553,0.32115662,0.8517728,0.79328805,-0.017427796,0.5252563,0.33338997,0.57924,-0.16348998,-0.0048860917,0.5447181,0.017851561,-0.37091804,-0.4136174,0.16315901,805.4579,754.68866,788.5348,797.8022,724.0659,0.34375,0.15118408203125,0.9429931640625,5.435638427734375,-8.261871337890625,3.768310546875,1,1.0,1.0,1.0,1.0,50.00
2021-04-13 08:48:50.022,0.8851456,0.36612478,0.524177,1.181468,0.5652739,0.07128257,0.022603335,0.8517728,0.79328805,0.5495169,0.32653818,0.33338997,0.57924,0.048552405,-0.09228732,0.5447181,0.017851561,-0.40926084,-0.49443528,0.16315901,821.1722,780.4762,787.326,815.5311,824.7985,0.35205078125,0.142578125,0.93145751953125,4.65057373046875,-4.9346923828125,0.067291259765625,1,1.0,1.0,1.0,1.0,50.00
2021-04-13 08:48:50.375,,,,,,,,,,,,,,,,,,,,,,,,,,,,,,,,,,,,,,/muse/elements/blink
2021-04-13 08:48:50.551,0.8851456,0.52841514,0.17232205,1.181468,0.5652739,0.08141245,-0.020753305,0.8517728,0.79328805,0.5496735,-0.0445994,0.33338997,0.57924,0.01728643,-0.14272644,0.5447181,0.017851561,-0.41196597,-0.46180862,0.16315901,836.08057,789.7436,797.8022,822.381,772.4176,0.360107421875,0.14349365234375,0.9312744140625,4.14215087890625,-5.9515380859375,-0.321502685546875,1,1.0,1.0,1.0,1.0,50.00
2021-04-13 08:48:51.067,0.8851456,0.5179521,-0.12805349,1.181468,0.5652739,0.11665307,0.04754472,0.8517728,0.79328805,0.5496735,0.034588866,0.33338997,0.57924,0.0056632725,-0.2205119,0.5447181,0.017851561,-0.46403834,-0.443437,0.16315901,846.55676,789.7436,793.36993,819.5604,753.47986,0.34368896484375,0.137451171875,0.92724609375,5.54779052734375,-4.605712890625,0.657958984375,1,1.0,1.0,1.0,1.0,50.00
2021-04-13 08:48:51.572,0.8851456,0.5656041,-0.23505996,1.181468,0.5652739,0.043647528,-0.14126655,0.8517728,0.79328805,0.3055318,-0.029885499,0.33338997,0.57924,-0.1897545,-0.20104131,0.5447181,0.017851561,-0.47132584,-0.40614396,0.16315901,840.10986,797.3993,802.6374,828.4249,790.9524,0.3475341796875,0.15264892578125,0.92962646484375,4.762725830078125,-4.403839111328125,1.054229736328125,1,1.0,1.0,1.0,1.0,50.00
2021-04-13 08:48:52.083,0.9830464,0.36191306,-0.054786026,1.181468,0.8367421,-0.089224964,-0.16431874,0.8517728,0.530916,0.14163788,0.13229913,0.33338997,0.6697274,-0.23017871,-0.13524292,0.5447181,0.112985775,-0.5260585,-0.47917256,0.16315901,832.8571,796.5934,796.5934,824.3956,830.4396,0.34869384765625,0.1456298828125,0.928466796875,4.792633056640625,-5.495452880859375,1.62994384765625,1,2.0,1.0,1.0,2.0,50.00
2021-04-13 08:48:52.610,1.0553722,0.37056318,0.41587067,1.181468,0.81735474,0.09668744,-0.047091298,0.8517728,0.70833665,0.18426749,0.26628804,0.33338997,0.6207295,-0.20945777,0.0018695578,0.5447181,0.101468064,-0.5715025,-0.43851715,0.16315901,807.47253,788.93774,806.26373,793.36993,838.9011,0.34796142578125,0.1461181640625,0.9251708984375,4.47113037109375,-4.74029541015625,1.712188720703125,1,1.0,1.0,1.0,1.0,50.00
2021-04-13 08:48:52.797,,,,,,,,,,,,,,,,,,,,,,,,,,,,,,,,,,,,,,/muse/elements/blink
2021-04-13 08:48:53.131,1.0644219,0.5043573,0.6617406,1.181468,0.7945589,0.272135,0.11660592,0.8517728,0.71415585,0.28463733,0.3182743,0.33338997,0.6063776,-0.073179975,0.09453646,0.5447181,0.0988506,-0.6097344,-0.3875392,0.16315901,829.6337,789.34064,796.5934,811.9048,765.9707,0.35174560546875,0.14849853515625,0.9332275390625,5.121612548828125,-4.90478515625,1.51031494140625,1,1.0,1.0,1.0,1.0,50.00
2021-04-13 08:48:53.636,1.0920097,0.52747595,0.6620849,1.181468,0.72916055,0.2880223,0.1134481,0.8517728,0.62632084,0.2877818,0.30943644,0.33338997,0.53411704,-0.10679156,0.1344884,0.5447181,0.08314351,-0.5249038,-0.37411588,0.16315901,832.0513,799.011,797.3993,818.3516,712.7839,0.3463134765625,0.14471435546875,0.93109130859375,4.77020263671875,-5.256195068359375,0.919647216796875,1,1.0,1.0,1.0,1.0,50.00
2021-04-13 08:48:54.124,,,,,,,,,,,,,,,,,,,,,,,,,,,,,,,,,,,,,,/muse/elements/blink
2021-04-13 08:48:54.153,1.0920097,0.3981619,0.4520175,1.181468,0.72916055,0.05504002,-0.11328921,0.8517728,0.62632084,0.25555763,0.22153264,0.33338997,0.53411704,-0.087949716,0.10468973,0.5447181,0.08314351,-0.5267442,-0.5107625,0.16315901,875.56775,804.2491,799.011,856.63007,804.65204,0.36077880859375,0.16253662109375,0.92681884765625,5.091705322265625,-7.64129638671875,0.19439697265625,1,1.0,1.0,1.0,1.0,50.00
2021-04-13 08:48:54.684,1.0920097,0.35268784,0.118239015,1.181468,0.72916055,-0.2423632,-0.2648322,0.8517728,0.62632084,-0.18845096,0.005403725,0.33338997,0.53411704,-0.12499633,0.044440597,0.5447181,0.08314351,-0.49390525,-0.571809,0.16315901,815.9341,791.75824,795.78754,805.8608,711.5751,0.360595703125,0.16796875,0.9044189453125,5.7122802734375,-2.94586181640625,0.366363525390625,1,1.0,1.0,1.0,1.0,50.00
2021-04-13 08:48:55.213,1.0920097,0.45600247,-0.056673445,1.181468,0.72916055,-0.33737096,-0.34836152,0.8517728,0.62632084,-0.29523504,0.052608527,0.33338997,0.53411704,-0.118932426,-0.03305081,0.5447181,0.08314351,-0.54644525,-0.5209017,0.16315901,775.2381,771.2088,813.91943,773.6264,782.8938,0.33184814453125,0.16876220703125,0.93011474609375,5.203857421875,-4.314117431640625,5.42816162109375,1,2.0,1.0,1.0,2.0,50.00
2021-04-13 08:48:55.372,,,,,,,,,,,,,,,,,,,,,,,,,,,,,,,,,,,,,,/muse/elements/blink
2021-04-13 08:48:55.723,1.0920097,1.0140637,0.39845133,1.181468,0.72916055,0.53437805,0.10298427,0.8517728,0.62632084,0.46255136,0.073687784,0.33338997,0.53411704,-0.16948833,-0.11697226,0.5447181,0.08314351,-0.5566827,-0.46344024,0.16315901,788.93774,785.31134,805.05493,790.14655,803.44324,0.2872314453125,0.173828125,0.9481201171875,6.639404296875,-0.73272705078125,4.5458984375,1,2.0,1.0,1.0,2.0,50.00
2021-04-13 08:48:56.228,1.0920097,1.0953183,0.6656592,1.181468,0.72916055,0.67197335,0.24325567,0.8517728,0.62632084,0.46212274,0.03427815,0.33338997,0.53411704,-0.17941795,-0.12791567,0.5447181,0.08314351,-0.6072924,-0.44451046,0.16315901,835.6777,798.60803,800.2198,828.4249,775.64105,0.25244140625,0.16064453125,0.95367431640625,3.2000732421875,5.734710693359375,22.37060546875,1,2.0,1.0,1.0,2.0,50.00
2021-04-13 08:48:56.771,1.0920097,1.0824808,0.69591737,1.181468,0.72916055,0.76218736,0.30749652,0.8517728,0.62632084,0.5494598,0.11945724,0.33338997,0.53411704,-0.1466512,-0.07778324,0.5447181,0.08314351,-0.6213437,-0.48537692,0.16315901,823.5897,802.6374,796.5934,836.8865,805.8608,0.1844482421875,0.0928955078125,0.97979736328125,-5.24871826171875,4.897308349609375,15.798492431640625,1,2.0,1.0,1.0,2.0,50.00
2021-04-13 08:48:57.287,1.0920097,0.62945527,0.45795563,1.1049497,0.72916055,0.36791354,0.07831525,0.78301424,0.62632084,0.44906673,0.10231862,0.9634317,0.53411704,-0.1458099,-0.0061301803,0.37040168,0.08314351,-0.45481816,-0.4569384,0.056962218,815.5311,830.0366,803.8461,802.6374,616.4835,0.06927490234375,0.01605224609375,1.0072021484375,9.88433837890625,10.24322509765625,23.544464111328125,1,1.0,1.0,1.0,1.0,50.00
2021-04-13 08:48:57.836,1.0920097,0.9000571,0.14588782,1.1049497,0.72916055,0.61823994,0.070304096,0.78301424,0.62632084,0.58396006,0.16809364,0.9634317,0.53411704,-0.095487915,-0.018893564,0.37040168,0.08314351,-0.4391294,-0.4009126,0.056962218,831.6484,804.65204,798.20514,828.8278,768.7912,0.00927734375,-0.00872802734375,1.0078125,-4.179534912109375,2.444915771484375,-22.572479248046875,1,1.0,1.0,1.0,1.0,50.00
2021-04-13 08:48:58.354,1.0920097,1.0096961,0.31333178,1.1703913,0.72916055,0.69919485,0.2224186,0.6872953,0.62632084,0.58341944,0.25660968,0.84456426,0.53411704,-0.06382283,-0.012078115,0.33698928,0.08314351,-0.38025156,-0.32455662,0.07171264,724.87177,827.619,811.50183,710.3663,887.6557,-0.01226806640625,0.2222900390625,0.98773193359375,10.445098876953125,2.968292236328125,10.146026611328125,1,1.0,1.0,1.0,1.0,50.00
2021-04-13 08:48:58.515,,,,,,,,,,,,,,,,,,,,,,,,,,,,,,,,,,,,,,/muse/elements/blink
2021-04-13 08:48:58.863,1.0920097,1.2081434,0.40100807,1.1703913,0.72916055,0.9627769,0.21684231,0.6872953,0.62632084,0.5317912,0.33802605,0.84456426,0.53411704,0.08162362,0.007343827,0.33698928,0.08314351,-0.47134116,-0.35262775,0.07171264,813.91943,855.82416,805.4579,807.8755,670.87915,-0.128173828125,0.09283447265625,0.98358154296875,-1.7047119140625,4.85992431640625,0.95703125,1,1.0,1.0,1.0,1.0,50.00
2021-04-13 08:48:59.398,1.0920097,1.2081434,0.49337444,1.1703913,0.72916055,0.9627769,0.21857512,0.6872953,0.62632084,0.5317912,0.4080373,0.84456426,0.53411704,0.08162362,0.06852237,0.33698928,0.08314351,-0.47134116,-0.17891689,0.07171264,805.05493,838.9011,804.65204,804.2491,880.40295,-0.17633056640625,0.09112548828125,0.9820556640625,5.5029296875,-0.620574951171875,-15.200347900390625,1,1.0,1.0,1.0,1.0,50.00
2021-04-13 08:48:59.686,,,,,,,,,,,,,,,,,,,,,,,,,,,,,,,,,,,,,,/muse/elements/blink
2021-04-13 08:48:59.928,1.0920097,1.2081434,0.5701,1.1703913,0.72916055,0.9627769,0.22976652,0.6872953,0.62632084,0.5317912,0.31019232,0.84456426,0.53411704,0.08162362,0.10284503,0.33698928,0.08314351,-0.47134116,-0.09073038,0.07171264,833.663,825.6044,797.3993,814.7253,817.9487,-0.12506103515625,0.072998046875,1.009521484375,-0.16448974609375,-11.37969970703125,2.878570556640625,1,2.0,1.0,1.0,2.0,50.00
2021-04-13 08:49:00.437,1.0920097,1.2081434,0.65865594,1.1703913,0.72916055,0.9627769,0.32921672,0.6872953,0.62632084,0.5317912,0.2428003,0.84456426,0.53411704,0.08162362,0.06447032,0.33698928,0.08314351,-0.47134116,-0.008269091,0.07171264,797.3993,813.1135,794.9817,808.2784,751.06226,-0.01422119140625,0.10009765625,1.0028076171875,6.519775390625,-7.28240966796875,-4.373931884765625,1,2.0,1.0,1.0,2.0,50.00
2021-04-13 08:49:00.968,1.0920097,1.2081434,0.58587873,1.1703913,0.72916055,0.9627769,0.16848812,0.6872953,0.62632084,0.5317912,-0.044843227,0.84456426,0.53411704,0.08162362,-0.047284644,0.33698928,0.08314351,-0.47134116,-0.19052234,0.07171264,823.9927,807.0696,803.44324,820.7692,899.34064,-0.01715087890625,0.0989990234375,1.00286865234375,5.0543212890625,-5.345916748046875,-0.770111083984375,1,2.0,1.0,1.0,2.0,50.00
2021-04-13 08:49:01.479,1.0920097,1.2081434,0.36969733,1.1703913,0.72916055,0.9627769,-0.100666724,0.6872953,0.62632084,0.5317912,0.11983944,0.84456426,0.53411704,0.08162362,-0.19510351,0.33698928,0.08314351,-0.47134116,-0.36645815,0.07171264,795.38464,791.3553,796.1905,811.9048,823.5897,-0.025390625,0.0955810546875,0.98968505859375,4.306640625,-9.263763427734375,5.704803466796875,1,2.0,1.0,1.0,2.0,50.00
2021-04-13 08:49:01.997,0.7454972,0.2775891,0.17834581,1.1345682,-0.1471009,-0.39003882,-0.18885441,0.44135478,0.4135469,-0.28693444,0.14563826,0.7360271,0.47131023,-0.120597705,-0.22682019,0.37232688,0.065152355,-0.49607638,-0.3899124,-0.22938871,813.5165,783.2967,730.10986,821.1722,803.0403,-0.0269775390625,0.07073974609375,1.01409912109375,1.71966552734375,-5.151519775390625,0.665435791015625,1,1.0,1.0,1.0,1.0,50.00
2021-04-13 08:49:02.538,0.8225543,0.2775891,0.05088723,1.1345682,-0.1276109,-0.39003882,-0.1086436,0.44135478,0.54855984,-0.28693444,0.14563826,0.7360271,0.4744452,-0.120597705,-0.334474,0.37232688,0.07955353,-0.49607638,-0.47308835,-0.22938871,816.7399,800.6227,806.6667,821.5751,861.8681,-0.02691650390625,0.07769775390625,1.00799560546875,4.433746337890625,-4.314117431640625,6.123504638671875,1,1.0,1.0,1.0,1.0,50.00
2021-04-13 08:49:03.044,0.7685735,-0.06461032,0.01147627,0.6970729,0.10355779,-0.4038369,-0.12283743,0.19443601,0.5594122,-0.3643568,0.11955049,0.44887722,0.4200309,-0.097762324,-0.35097787,0.44746995,0.05082542,-0.53126055,-0.47522977,0.07199445,800.2198,801.02563,797.8022,811.50183,622.1245,-0.002685546875,0.058837890625,0.9971923828125,1.62994384765625,-5.0543212890625,-0.515899658203125,1,1.0,1.0,1.0,1.0,50.00
2021-04-13 08:49:03.546,0.75273776,-0.06461032,0.01147627,0.3644045,0.1799322,-0.4038369,-0.12283743,0.18550332,0.54453367,-0.3643568,0.11955049,0.16518039,0.3966909,-0.097762324,-0.35097787,0.5107685,0.084705174,-0.53126055,-0.47522977,0.24251735,805.4579,805.4579,800.2198,811.50183,719.2308,-0.00103759765625,0.0640869140625,1.000244140625,7.409515380859375,-3.102874755859375,1.173858642578125,1,1.0,1.0,1.0,1.0,50.00
2021-04-13 08:49:04.061,0.44117087,0.6347071,0.23293877,0.2680482,0.09277539,-0.16047767,0.23109363,-0.05605906,0.42052075,0.36589655,0.41036084,0.16764402,0.22649232,-0.10747398,-0.033197943,0.3573247,-0.09277576,-0.55927813,-0.47473156,0.17861062,809.4872,803.0403,802.23444,821.978,778.46155,-0.03240966796875,0.04693603515625,0.9920654296875,5.734710693359375,-5.555267333984375,-2.669219970703125,1,1.0,1.0,1.0,1.0,50.00
2021-04-13 08:49:04.612,0.33097458,0.6976325,0.8336046,0.19043061,-0.08136148,-0.05292051,0.50425786,-0.16392173,0.41168866,0.2784461,0.49857134,0.35987052,0.19628412,-0.02169519,0.09292697,0.3056839,-0.16930282,-0.5771791,-0.438581,0.13911968,814.7253,799.81683,803.8461,823.9927,750.65936,-0.03179931640625,0.072998046875,1.001708984375,3.96270751953125,-7.79083251953125,4.089813232421875,1,1.0,1.0,1.0,1.0,50.00
2021-04-13 08:49:05.120,0.1191962,0.7769931,0.8625386,0.18306743,-0.02746452,0.06862101,0.48533386,-0.03988942,0.34377515,0.2973571,0.5269738,0.35987052,0.18436217,0.01867484,0.06329193,0.27576873,-0.34247974,-0.5537903,-0.38945812,0.084823646,803.44324,803.44324,800.2198,823.1868,743.8095,-0.0313720703125,0.0841064453125,0.99169921875,5.585174560546875,-7.05810546875,-0.46356201171875,1,1.0,1.0,1.0,1.0,50.00
2021-04-13 08:49:05.625,-0.043013103,0.8079901,0.84108406,0.13445033,0.033387337,0.077507935,0.41630134,0.09094556,0.34315658,0.27147985,0.5236101,0.41705352,0.21345809,0.031695485,0.053534955,0.35862762,-0.30163774,-0.57679504,-0.40124968,0.033921406,803.0403,798.60803,797.8022,805.05493,761.53845,-0.0343017578125,0.09295654296875,0.99188232421875,5.809478759765625,-3.22998046875,0.755157470703125,1,1.0,1.0,1.0,1.0,50.00
2021-04-13 08:49:06.169,-0.043013103,0.79940045,0.5063735,0.35050738,0.033387337,0.16240507,-2.9590869E-4,0.21134594,0.34315658,0.33016598,0.29279247,0.32435453,0.21345809,-0.004451234,-0.060909033,0.3113565,-0.30163774,-0.619288,-0.42764908,-0.07736496,798.20514,800.2198,794.57874,811.50183,798.60803,-0.029052734375,0.06732177734375,1.00164794921875,3.529052734375,-3.611297607421875,1.786956787109375,1,1.0,1.0,1.0,1.0,50.00
2021-04-13 08:49:06.682,-0.043013103,0.92595863,0.5079549,0.7784269,0.033387337,0.32927638,0.050447654,0.49113765,0.34315658,0.33058462,0.20622765,0.50621164,0.21345809,-0.043656334,0.01097004,0.3155792,-0.30163774,-0.6573308,-0.49918106,-0.1344536,691.4286,774.0293,791.3553,697.8755,794.9817,0.0157470703125,0.1085205078125,1.0263671875,5.18890380859375,-5.69732666015625,-2.99072265625,1,1.0,1.0,1.0,1.0,50.00
2021-04-13 08:49:06.946,,,,,,,,,,,,,,,,,,,,,,,,,,,,,,,,,,,,,,/muse/elements/blink
2021-04-13 08:49:07.204,-0.043013103,1.0419779,0.52230215,0.9281736,0.033387337,0.33062124,0.053815722,0.60219723,0.34315658,0.32673347,0.21725878,0.49597132,0.21345809,-0.008195975,-0.021706538,0.2975832,-0.30163774,-0.6556007,-0.54917926,-0.15663752,792.1612,789.7436,801.02563,794.9817,716.4103,-0.09967041015625,0.18316650390625,1.02471923828125,9.413299560546875,15.379791259765625,17.5555419921875,1,1.0,1.0,1.0,1.0,50.00
2021-04-13 08:49:07.748,-0.043013103,1.1280317,0.4055937,1.1312578,0.033387337,0.2788913,-0.011213667,0.7811459,0.34315658,0.23588279,0.26954994,0.49597132,0.21345809,0.0017858064,0.056061465,0.32390335,-0.30163774,-0.5757086,-0.34265792,-0.27770364,801.4286,827.619,802.6374,799.41394,821.5751,-0.29425048828125,0.02984619140625,0.962158203125,3.63372802734375,13.704986572265625,-30.453033447265625,1,1.0,1.0,1.0,1.0,50.00
2021-04-13 08:49:08.284,-0.043013103,1.158222,0.39276108,1.1312578,0.033387337,0.03169706,0.010427727,0.7811459,0.34315658,0.01402337,0.48862052,0.49597132,0.21345809,0.074957214,0.21328802,0.32390335,-0.30163774,-0.5592073,-0.12880944,-0.27770364,776.04395,855.82416,811.0989,790.14655,724.4689,-0.4031982421875,0.127685546875,0.92706298828125,3.312225341796875,-4.6954345703125,-1.36077880859375,1,1.0,1.0,1.0,1.0,50.00
2021-04-13 08:49:08.807,-0.043013103,1.238227,0.40273094,1.1312578,0.033387337,0.09857523,0.0075172437,0.7811459,0.34315658,-0.051182386,0.48862052,0.49597132,0.21345809,0.09609777,0.345357,0.32390335,-0.30163774,-0.47786516,-1.1117684E-4,-0.27770364,779.2674,811.50183,782.49084,782.8938,811.50183,-0.3983154296875,0.08233642578125,0.9197998046875,-1.457977294921875,-7.716064453125,13.435821533203125,1,1.0,1.0,1.0,1.0,50.00
2021-04-13 08:49:09.349,-0.043013103,1.238227,0.6063371,1.1312578,0.033387337,0.09857523,0.19145842,0.7811459,0.34315658,-0.051182386,0.4241081,0.49597132,0.21345809,0.09609777,0.3433524,0.32390335,-0.30163774,-0.47786516,-0.0029145696,-0.27770364,794.9817,794.17584,804.2491,798.20514,776.8498,-0.31591796875,0.06439208984375,0.9437255859375,7.40203857421875,-8.052520751953125,-3.2000732421875,1,2.0,1.0,1.0,2.0,50.00
2021-04-13 08:49:09.872,0.79348344,1.238227,0.6063371,1.1312578,0.34192654,0.09857523,0.19145842,0.7811459,0.122837886,-0.051182386,0.4241081,0.49597132,0.5515351,0.09609777,0.3433524,0.32390335,-0.071021065,-0.47786516,-0.0029145696,-0.27770364,776.8498,807.8755,795.78754,780.87915,767.5824,-0.3399658203125,0.0745849609375,0.94110107421875,2.190704345703125,-6.168365478515625,2.691650390625,1,2.0,1.0,1.0,2.0,50.00
2021-04-13 08:49:10.387,0.8028036,1.238227,0.6063371,1.1312578,0.32271585,0.09857523,0.19145842,0.7811459,0.16506876,-0.051182386,0.4241081,0.49597132,0.5428596,0.09609777,0.3433524,0.32390335,-0.043887965,-0.47786516,-0.0029145696,-0.27770364,802.6374,862.27106,801.4286,799.011,744.21246,-0.3341064453125,0.0501708984375,0.94647216796875,4.134674072265625,-6.407623291015625,0.097198486328125,1,1.0,1.0,1.0,1.0,45.00
2021-04-13 08:49:10.914,0.8028036,1.238227,0.6063371,1.1312578,0.32271585,0.09857523,0.19145842,0.7811459,0.16506876,-0.051182386,0.4241081,0.49597132,0.5428596,0.09609777,0.3433524,0.32390335,-0.043887965,-0.47786516,-0.0029145696,-0.27770364,803.8461,821.1722,804.2491,794.57874,714.7985,-0.2979736328125,0.05865478515625,0.95391845703125,3.327178955078125,-7.3870849609375,7.97027587890625,1,1.0,1.0,1.0,1.0,45.00
2021-04-13 08:49:11.457,0.69801223,1.238227,0.6063371,1.1312578,0.3280503,0.09857523,0.19145842,0.7811459,0.07567945,-0.051182386,0.4241081,0.49597132,0.542346,0.09609777,0.3433524,0.32390335,-0.016139457,-0.47786516,-0.0029145696,-0.27770364,806.6667,843.73627,805.8608,827.619,852.6007,-0.292236328125,0.03839111328125,0.951416015625,5.719757080078125,0.83740234375,-7.708587646484375,1,1.0,1.0,1.0,1.0,45.00
2021-04-13 08:49:11.978,0.69801223,1.238227,-0.035444383,1.1312578,0.3280503,0.09857523,0.0666445,0.7811459,0.07567945,-0.051182386,-0.034193356,0.49597132,0.542346,0.09609777,0.006070891,0.32390335,-0.016139457,-0.47786516,-0.196403,-0.27770364,784.90845,846.9597,790.9524,784.10254,784.5055,-0.4344482421875,0.03448486328125,0.89361572265625,6.0113525390625,-0.13458251953125,-0.22430419921875,1,1.0,1.0,1.0,1.0,45.00
2021-04-13 08:49:12.530,0.9189845,1.238227,0.26396465,1.1312578,0.48163608,0.09857523,0.020456523,0.7811459,1.1882488,-0.051182386,0.051745564,0.49597132,1.0542752,0.09609777,-0.09021347,0.32390335,0.636062,-0.47786516,-0.21822327,-0.27770364,774.83514,805.8608,776.04395,780.07324,736.55676,-0.42730712890625,0.05413818359375,0.91632080078125,3.581390380859375,-4.5458984375,2.385101318359375,1,1.0,1.0,1.0,1.0,45.00
2021-04-13 08:49:13.071,0.9546088,1.238227,0.5303469,1.0023156,0.5815282,0.09857523,0.024896327,0.62688226,1.1966169,-0.051182386,0.09787447,1.3551599,0.79367787,0.09609777,-0.07958287,1.1942116,0.41179577,-0.47786516,-0.2293552,0.9626213,787.326,803.44324,792.96704,791.75824,779.67035,-0.386474609375,0.03289794921875,0.9237060546875,5.36834716796875,-10.0189208984375,2.519683837890625,1,1.0,1.0,1.0,1.0,45.00
2021-04-13 08:49:13.583,1.0337994,0.4893616,0.694868,1.0104644,0.580021,-0.023229301,-0.10339121,0.34139797,0.55726343,0.097598985,0.05186288,0.13122411,0.24201149,-0.100886375,-0.06362142,0.39142063,-0.061442923,-0.5619143,-0.23944859,-0.07638299,809.4872,800.6227,815.5311,799.011,743.4066,-0.3612060546875,0.03515625,0.93603515625,4.77020263671875,-6.47491455078125,0.949554443359375,1,1.0,1.0,1.0,1.0,45.00
2021-04-13 08:49:14.106,0.9731072,0.39050755,0.7842971,0.9363804,0.47544757,-0.16794792,-0.10618453,0.25701645,0.5731087,0.14696285,0.014776642,0.26526004,0.38227466,-0.092568465,0.008487678,0.30321762,-0.12026712,-0.4812696,-0.25854155,-0.18153666,802.23444,795.78754,786.1172,807.0696,812.71063,-0.34442138671875,0.034423828125,0.93585205078125,4.972076416015625,-5.360870361328125,1.831817626953125,1,1.0,1.0,1.0,1.0,45.00
2021-04-13 08:49:14.622,0.8921566,0.45346168,0.761354,0.7855684,0.27291068,-0.10159023,-0.17522678,0.16104324,0.63687366,0.15115163,-0.16789812,0.2531795,0.46290386,-0.13374767,0.031647116,0.21461119,-0.120417416,-0.4848021,-0.33701497,-0.22842611,798.60803,802.23444,780.87915,790.9524,774.43225,-0.34271240234375,0.0341796875,0.93707275390625,5.091705322265625,-5.682373046875,1.18133544921875,1,1.0,1.0,1.0,1.0,45.00
2021-04-13 08:49:15.129,0.6519767,0.37493265,0.40096357,0.57066226,0.18804394,-0.09796609,-0.16202566,0.121929385,0.50728744,-0.008226894,-0.2451985,0.41750607,0.42673948,-0.10538442,-0.010986914,0.20460765,-0.055009533,-0.45405805,-0.56507593,-0.23817304,815.12823,823.1868,794.57874,805.4579,692.6374,-0.34033203125,0.0322265625,0.94439697265625,4.14215087890625,-5.0543212890625,0.381317138671875,1,1.0,1.0,1.0,1.0,45.00
2021-04-13 08:49:15.676,0.52151555,0.7021701,0.8793858,0.5301916,0.042071596,0.10263451,-0.07920922,0.3275453,0.3605515,0.08940239,0.12127832,0.47894567,0.32792255,-0.017197197,-0.01085021,0.20357473,0.03663644,-0.45831588,-0.46120524,-0.14380248,784.10254,806.26373,784.10254,794.9817,813.1135,-0.34332275390625,0.01837158203125,0.93701171875,4.29168701171875,-4.65057373046875,0.83740234375,1,1.0,1.0,1.0,1.0,45.00
2021-04-13 08:49:16.187,0.777177,0.86620176,0.80427915,0.62769395,0.13089076,0.043993976,-0.087502375,0.43873742,0.66048163,0.15848345,0.20906174,0.46519494,0.25253874,0.012948978,-0.049015097,0.21077785,0.015400983,-0.43057516,-0.40114802,-0.095972724,807.8755,830.0366,795.38464,807.47253,693.0403,-0.3408203125,0.023681640625,0.93621826171875,4.78515625,-5.106658935546875,0.500946044921875,1,1.0,1.0,1.0,1.0,45.00
2021-04-13 08:49:16.702,0.8789165,0.9836731,0.84203094,0.7390508,0.15226425,0.13350312,0.026570007,0.45550394,0.5978625,0.2424693,0.29036045,0.4838689,0.21358436,0.023688605,-0.06771857,0.22881475,-0.05131947,-0.35569465,-0.40634942,-0.031602178,822.7839,810.696,818.3516,825.2015,760.32965,-0.34771728515625,0.02490234375,0.94000244140625,4.964599609375,-4.777679443359375,1.308441162109375,1,1.0,1.0,1.0,1.0,45.00
2021-04-13 08:49:17.242,0.87884575,1.0577757,0.61137193,0.73967594,0.21621616,0.18223506,0.055121962,-0.019094564,0.62072986,0.26720914,0.26153326,0.4161175,0.27518666,-0.014214367,-0.10195933,0.16387886,-0.15172829,-0.35662952,-0.3819043,-0.06913631,791.3553,789.34064,809.0842,808.68134,767.5824,-0.34625244140625,0.02740478515625,0.94024658203125,4.852447509765625,-4.687957763671875,0.94207763671875,1,1.0,1.0,1.0,1.0,45.00
2021-04-13 08:49:17.759,0.7870201,0.91407615,0.55971175,0.68809277,0.2615706,0.25315145,0.070881404,0.30977595,0.5415673,0.22164874,0.17553765,0.44760135,0.31582665,-0.01688844,-0.06023847,0.10933672,-0.051726658,-0.40840995,-0.39976165,-0.07600448,811.0989,787.72894,807.47253,815.9341,720.0366,-0.3414306640625,0.02362060546875,0.94049072265625,4.6954345703125,-4.964599609375,0.441131591796875,1,1.0,1.0,1.0,1.0,45.00
2021-04-13 08:49:18.284,0.74371856,0.58269817,0.4023906,0.7053182,0.43014547,0.12792617,-0.1174508,0.44892606,0.5415673,0.24277605,0.12609392,0.44495204,0.2942398,-0.07108997,-0.00575185,0.055587303,0.009667966,-0.5345214,-0.34023702,-0.048965666,827.2161,779.67035,810.696,828.4249,792.5641,-0.3538818359375,0.03399658203125,0.93902587890625,5.196380615234375,-8.725433349609375,5.988922119140625,1,1.0,1.0,1.0,1.0,45.00
2021-04-13 08:49:18.789,0.64271474,0.38553515,0.2846279,0.64303374,0.40484887,0.10967185,-0.16528091,0.5761225,0.4053947,0.26887923,0.011473201,0.35242623,0.21560678,-0.05319762,-0.034929745,0.037901577,0.060933366,-0.507018,-0.36278448,-0.030320019,815.12823,794.9817,796.1905,807.47253,681.75824,-0.36431884765625,0.06781005859375,0.92901611328125,9.099273681640625,2.093505859375,7.334747314453125,1,1.0,1.0,1.0,1.0,45.00
2021-04-13 08:49:19.291,0.6454053,0.5437765,0.37487453,0.9349889,0.37401077,0.14780952,-0.16585761,0.37649158,0.44122744,0.27785835,-0.15337072,0.30001622,0.14294265,-0.016517255,-0.1322829,0.14541897,-0.010071095,-0.48914903,-0.37051573,-0.123918675,802.23444,780.87915,803.8461,823.5897,779.67035,-0.3271484375,0.085693359375,0.9287109375,0.411224365234375,-12.72552490234375,3.15521240234375,1,1.0,1.0,1.0,1.0,45.00
2021-04-13 08:49:19.797,0.75255036,0.5957393,0.34835973,0.9724849,0.30903286,0.1062404,-0.11532937,0.37532854,0.6771076,0.26535836,-0.013181521,0.48567894,0.2006471,-0.043442115,-0.23968068,0.1246204,0.015535056,-0.4768244,-0.39114505,-0.32781658,816.337,823.9927,799.81683,822.381,727.6923,-0.37542724609375,0.02508544921875,0.92230224609375,10.475006103515625,0.83740234375,6.362762451171875,1,1.0,1.0,1.0,1.0,45.00
2021-04-13 08:49:20.302,0.9453722,0.75100404,0.2718495,0.97793525,0.5040791,0.1146149,-0.10523237,0.5794593,0.67899024,0.37048596,0.060858447,0.48925236,0.21494952,-0.090775415,-0.12530667,0.20394826,-0.022030385,-0.47082278,-0.39257178,-0.34613103,810.696,795.78754,803.0403,803.0403,698.68134,-0.357177734375,0.021484375,0.9324951171875,3.75335693359375,-7.16278076171875,-0.321502685546875,1,1.0,1.0,1.0,1.0,45.00
2021-04-13 08:49:20.808,0.90063643,0.85572547,0.09993435,0.8147216,0.49814802,-0.10976595,-0.075265445,0.5779094,0.6862814,0.34288865,0.060895808,0.5980024,0.23092291,-0.20168875,-0.088922285,0.14649886,-0.01902705,-0.48737252,-0.40216076,-0.3026032,809.89014,809.89014,800.2198,815.12823,823.9927,-0.36236572265625,0.0279541015625,0.9337158203125,4.97955322265625,-4.66552734375,0.88226318359375,1,1.0,1.0,1.0,1.0,45.00
2021-04-13 08:49:21.319,0.9255888,1.1092725,0.40971702,0.8792564,0.49141088,0.13426483,0.16081943,0.5215575,0.6524979,0.3894872,0.10506027,0.55017126,0.21949247,-0.28525716,-0.053523757,0.20510966,-0.083751254,-0.62339455,-0.3487517,-0.26955098,807.8755,799.41394,790.14655,815.5311,802.6374,-0.36767578125,0.0252685546875,0.93255615234375,4.837493896484375,-5.435638427734375,1.577606201171875,1,1.0,1.0,1.0,1.0,45.00
2021-04-13 08:49:21.830,0.5465174,0.8821182,0.4561669,0.6730054,0.3138502,-0.033661015,0.15195066,0.22399597,0.71697724,0.25180066,-0.008988416,0.81071675,0.22339411,-0.21397632,-0.07506627,0.15064028,-0.07353383,-0.7045749,-0.32796907,-0.2259108,787.326,799.011,813.91943,807.8755,673.2967,-0.3743896484375,0.0206298828125,0.93560791015625,4.882354736328125,-3.72344970703125,0.889739990234375,1,1.0,1.0,1.0,1.0,45.00
2021-04-13 08:49:22.367,0.07137778,0.7121302,0.6710222,0.576741,0.23505768,-0.08084443,0.07764459,0.27817473,0.685188,0.23551163,0.101088166,0.82158566,0.1941852,-0.09071571,-0.111181274,0.1883318,-0.04043901,-0.58347476,-0.32815367,-0.27050662,803.8461,789.34064,801.02563,813.5165,818.3516,-0.36859130859375,0.014404296875,0.93182373046875,4.77020263671875,-6.160888671875,0.9869384765625,1,1.0,1.0,1.0,1.0,45.00
2021-04-13 08:49:22.905,0.20819362,0.50844157,0.636144,0.41799057,0.24737592,0.06258094,-0.11062816,0.32953417,0.6893325,0.31060594,0.0898184,0.82755196,0.2656994,-0.06336381,-0.09279894,0.23528205,-0.07490873,-0.54881763,-0.3615147,-0.2651281,790.9524,788.5348,794.17584,811.9048,737.76556,-0.364013671875,0.0211181640625,0.93218994140625,4.8748779296875,-5.03936767578125,0.530853271484375,1,1.0,1.0,1.0,1.0,45.00
2021-04-13 08:49:23.456,0.37292412,0.5703917,0.6409984,0.55866486,0.2376628,0.17034823,-0.08391965,0.35372892,0.45938286,0.32781184,0.039006628,0.6128124,0.28630775,-0.07588165,-0.14000827,0.254975,-0.108751185,-0.46496162,-0.43732557,-0.20008646,802.6374,799.41394,797.3993,809.89014,880.0,-0.372314453125,0.01422119140625,0.93438720703125,4.329071044921875,-4.50103759765625,0.216827392578125,1,1.0,1.0,1.0,1.0,45.00
2021-04-13 08:49:23.962,0.42084548,0.47866073,0.406199,0.50919086,0.17046094,0.16331868,-0.08864716,0.34914845,0.34268868,0.33989012,-0.08222169,0.46460938,0.29678944,-0.19327873,-0.061828822,0.30337638,-0.12383009,-0.49631035,-0.46984288,-0.18786193,801.4286,800.6227,800.2198,805.8608,779.2674,-0.37408447265625,0.0224609375,0.9327392578125,4.97955322265625,-4.3963623046875,1.457977294921875,1,1.0,1.0,1.0,1.0,45.00
2021-04-13 08:49:24.498,0.36025864,0.14786606,0.24662381,0.4765619,0.07345798,-0.06286398,0.0014238588,0.23192917,0.48624972,0.16609956,-0.10845536,0.625658,0.30902913,-0.24597576,-0.047716983,0.27363226,-0.0842949,-0.49118754,-0.42971477,-0.19871798,806.6667,795.38464,790.54944,809.89014,713.9927,-0.37042236328125,0.01568603515625,0.93084716796875,4.7552490234375,-4.85992431640625,1.62994384765625,1,1.0,1.0,1.0,1.0,45.00
2021-04-13 08:49:25.033,0.3355463,0.03107668,0.17235093,0.41704324,-0.08211172,-0.051770113,0.1471905,0.11886227,0.5205616,0.15923846,-0.114061505,0.625658,0.29298168,-0.25859717,-0.05447473,0.24689192,-0.007093629,-0.4606341,-0.40978804,-0.2329838,804.2491,804.65204,812.71063,811.50183,811.50183,-0.3734130859375,0.0150146484375,0.93218994140625,4.6356201171875,-5.360870361328125,1.697235107421875,1,1.0,1.0,1.0,1.0,45.00
2021-04-13 08:49:25.572,0.25269315,0.43272328,0.21971466,0.38495043,0.32214826,0.013336962,0.1321767,-0.12706071,0.549935,0.18801165,-0.20621428,0.5936847,0.25868216,-0.2922638,-0.01003223,0.18790084,-0.010551813,-0.52404535,-0.4109685,-0.26483318,790.9524,803.44324,786.9231,792.96704,693.44324,-0.3720703125,0.01373291015625,0.92926025390625,4.53094482421875,-5.51788330078125,1.278533935546875,1,1.0,1.0,1.0,1.0,45.00
2021-04-13 08:49:26.109,0.14580111,0.73548317,0.32451177,0.2195444,0.35115907,0.021764524,0.06551882,-0.052443568,0.45157912,0.23862569,-0.117267706,0.29100546,0.15778765,-0.21164212,0.07011163,0.18445016,-0.015243972,-0.5725631,-0.44087145,-0.22512813,801.4286,786.9231,796.99634,807.47253,897.72894,-0.3631591796875,0.0147705078125,0.93487548828125,4.66552734375,-4.83001708984375,1.1065673828125,1,1.0,1.0,1.0,1.0,45.00
2021-04-13 08:49:26.648,0.20814009,0.76669335,0.3507457,0.16968912,0.39599138,-0.13517569,-0.08510509,0.18915898,0.3963884,0.25965,0.18523444,0.23616347,0.22300571,-0.02665857,0.1181123,0.3138681,-0.09876722,-0.4399587,-0.4019068,-0.30051115,809.0842,798.60803,796.5934,811.50183,757.1062,-0.36273193359375,0.01434326171875,0.9320068359375,4.478607177734375,-5.076751708984375,1.457977294921875,1,1.0,1.0,1.0,1.0,45.00
2021-04-13 08:49:27.166,0.19763143,0.5291649,0.30719703,0.12581742,0.28117102,-0.3237764,-0.09674534,0.31361866,0.45405674,0.19932055,0.23995039,0.31801328,0.2580626,0.03505016,0.03991755,0.27471837,-0.103605166,-0.3980095,-0.3803789,-0.34348303,799.41394,799.41394,790.9524,805.05493,707.9487,-0.36395263671875,0.0191650390625,0.93438720703125,4.5159912109375,-5.36834716796875,0.8074951171875,1,1.0,1.0,1.0,1.0,45.00
2021-04-13 08:49:27.707,0.12852557,0.20887782,0.3634129,0.08772036,0.2710032,-0.46037877,-0.1836909,0.37070286,0.44817084,0.07720097,0.24862762,0.31005272,0.28172657,-0.025379444,-0.05141575,0.21792966,-0.14855117,-0.45368007,-0.31304085,-0.44235653,801.02563,802.6374,792.5641,804.65204,790.9524,-0.3538818359375,0.01068115234375,0.937255859375,4.807586669921875,-5.659942626953125,0.777587890625,1,1.0,1.0,1.0,1.0,45.00
2021-04-13 08:49:28.225,-0.082042545,0.2430065,0.45467478,0.09717119,0.27089918,-0.18739589,0.04940428,0.37175903,0.44797635,0.185366,0.14920017,0.28855217,0.23331888,-0.16258088,-0.07795397,0.15520483,-0.17234121,-0.6156944,-0.14330961,-0.3494594,803.0403,803.0403,802.23444,811.50183,713.1868,-0.3624267578125,0.01519775390625,0.93670654296875,4.747772216796875,-4.747772216796875,0.37384033203125,1,1.0,1.0,1.0,1.0,45.00
2021-04-13 08:49:28.766,0.11454388,0.46215358,0.5723753,0.26789823,0.302417,0.11645192,0.12795892,0.46638048,0.43874127,0.18724525,-0.0018766788,0.39352745,0.28707597,-0.18694246,-0.024831895,0.22891182,-0.15007009,-0.4956337,0.022320181,-0.21485956,809.0842,791.3553,803.44324,809.89014,755.09155,-0.37249755859375,0.005859375,0.93060302734375,4.80010986328125,-4.418792724609375,1.218719482421875,1,1.0,1.0,1.0,1.0,45.00
2021-04-13 08:49:29.280,0.31444892,0.5445681,0.6901254,0.6946279,0.43561414,0.27552646,0.22232322,0.65673393,0.8908636,0.33529797,0.072729684,0.79306275,0.29671282,-0.058703415,0.020432126,0.28620183,-0.05783055,-0.30951217,7.836607E-4,-0.035025008,821.978,799.81683,802.6374,818.7546,737.3626,-0.36212158203125,0.0084228515625,0.9339599609375,4.628143310546875,-4.613189697265625,1.495361328125,1,1.0,1.0,1.0,1.0,45.00
2021-04-13 08:49:29.812,0.42392534,0.4673446,0.68657875,0.82007855,0.42604667,0.21186237,0.13203579,0.69527245,0.89301866,0.31067452,0.08050888,0.803066,0.3975828,-0.001041254,0.024752447,0.26678574,0.03582951,-0.32661846,-0.10355819,0.018049415,810.696,799.41394,806.6667,821.978,682.96704,-0.36376953125,0.01336669921875,0.93206787109375,4.77020263671875,-4.373931884765625,0.4486083984375,1,1.0,1.0,1.0,1.0,45.00
2021-04-13 08:49:30.324,0.32178077,0.1665003,0.5296725,0.7900411,0.32175887,-0.021172475,0.022844188,0.577037,0.8940986,0.2975186,0.082238026,0.8239887,0.39557365,-0.023309741,-0.062534,0.2976524,0.038000833,-0.42449337,-0.399358,-0.0043947403,806.6667,799.011,797.8022,819.15753,757.50916,-0.3758544921875,0.01458740234375,0.9300537109375,4.942169189453125,-4.78515625,1.42059326171875,1,1.0,1.0,1.0,1.0,45.00
2021-04-13 08:49:30.829,0.17655553,-0.2905979,0.15666741,0.33693945,0.12077108,-0.37480476,-0.18414272,0.10872334,0.56625915,0.030476814,-0.07645479,0.4904476,0.4109765,-0.092719026,-0.07647416,0.3067789,0.10210685,-0.48158365,-0.36311144,-0.12658805,805.05493,795.78754,802.6374,800.2198,712.7839,-0.36920166015625,0.01611328125,0.92730712890625,4.62066650390625,-4.0972900390625,1.15142822265625,1,1.0,1.0,1.0,1.0,45.00
2021-04-13 08:49:31.342,0.25619933,-0.017853225,-0.26432315,0.32532868,0.044768028,-0.38273785,-0.2518454,0.041980114,0.2165973,-0.20463656,-0.028225286,0.36914864,0.3364209,-0.17332134,-0.16372612,0.27596965,0.121164784,-0.46841148,-0.34877235,-0.18500564,814.3223,803.0403,805.4579,827.619,736.9597,-0.3665771484375,0.0196533203125,0.9312744140625,4.65057373046875,-4.66552734375,1.24114990234375,1,1.0,1.0,1.0,1.0,50.00
2021-04-13 08:49:31.878,0.36190915,0.005244365,-0.3849538,0.41458082,0.09501339,-0.58979774,-0.3104316,-0.13559897,0.3096794,-0.32808414,-0.034882244,0.20039737,0.28371578,-0.16608256,-0.16797252,0.23579533,0.13236995,-0.4070208,-0.3138664,-0.20856051,801.02563,793.7729,791.3553,809.89014,742.6007,-0.36785888671875,0.0137939453125,0.926513671875,5.18890380859375,-4.643096923828125,0.755157470703125,1,1.0,1.0,1.0,1.0,50.00
2021-04-13 08:49:32.402,0.33120224,0.113627195,-0.013798799,0.4826686,0.053050358,-0.4427121,-0.46266618,-0.14549202,0.33266586,-0.199474,-0.06081707,0.23204137,0.24038321,-0.22215237,-0.16512264,0.2177121,0.06693251,-0.4875213,-0.37737477,-0.22918244,817.1429,798.60803,801.8315,821.1722,676.9231,-0.36187744140625,0.0213623046875,0.9349365234375,4.882354736328125,-5.084228515625,1.256103515625,1,1.0,1.0,1.0,1.0,50.00
2021-04-13 08:49:32.913,0.22904924,0.44004986,0.4097234,0.32459274,0.017362664,-0.107324176,-0.60254633,-0.21632794,0.38877633,0.04135351,-0.26556736,0.26614234,0.19003345,-0.20161222,-0.096479036,0.2455094,-0.01996036,-0.47067183,-0.4283051,-0.19201684,799.41394,803.0403,803.44324,807.0696,759.92676,-0.36273193359375,0.0108642578125,0.93310546875,4.6954345703125,-4.7552490234375,1.2860107421875,1,1.0,1.0,1.0,1.0,50.00
2021-04-13 08:49:33.434,0.1857779,0.4845575,0.49115506,0.19112828,-0.065028705,-0.0791356,-0.54620546,-0.2041016,0.37114707,0.08280391,-0.19262663,0.3415805,0.22554854,-0.23004179,-0.07335705,0.1748306,-0.080478035,-0.49755913,-0.3901882,-0.13136367,802.6374,794.57874,803.0403,818.7546,655.16486,-0.36053466796875,0.01763916015625,0.93572998046875,4.47113037109375,-4.66552734375,0.7476806640625,1,1.0,1.0,1.0,1.0,50.00
2021-04-13 08:49:33.945,0.37453058,0.45644078,0.5860987,0.35898438,-0.028143477,-0.11701453,-0.26457837,0.03434337,0.5844186,0.10701482,-0.03463552,0.53267986,0.2382494,-0.17558092,-0.05905785,0.13305657,-0.11093928,-0.5336187,-0.3821826,-0.11680225,817.5458,794.9817,803.8461,817.1429,754.68866,-0.363525390625,0.014892578125,0.9320068359375,4.912261962890625,-4.844970703125,0.545806884765625,1,1.0,1.0,1.0,1.0,50.00
2021-04-13 08:49:34.476,0.26407677,0.07694675,0.39956188,0.4507155,-0.083995596,-0.25282654,-0.18875667,0.058865644,0.67161536,0.067952685,-0.04684581,0.5993391,0.25008038,-0.16202666,-0.051549897,0.20974664,-0.1883654,-0.5704043,-0.37124914,-0.21403383,814.7253,804.65204,800.2198,810.293,730.10986,-0.37109375,0.01141357421875,0.9324951171875,4.71038818359375,-4.643096923828125,1.173858642578125,1,1.0,1.0,1.0,1.0,50.00
2021-04-13 08:49:35.018,0.15525585,-0.0589374,0.3038166,0.36828408,-0.15055588,-0.21283862,-0.23993462,0.11118513,0.71181834,0.05480269,-0.034271326,0.5993391,0.2347705,-0.24274233,-0.059676696,0.23161976,-0.12896979,-0.6568399,-0.38825923,-0.33138737,803.0403,798.20514,801.02563,810.293,670.87915,-0.35406494140625,0.0106201171875,0.9383544921875,5.15899658203125,-6.392669677734375,0.650482177734375,1,1.0,1.0,1.0,1.0,50.00
2021-04-13 08:49:35.527,0.35177982,-0.39999858,-0.11096979,0.4108774,0.013215758,-0.26238635,-0.39212623,0.15376943,0.7169954,-0.0071950615,-0.17704043,0.5103036,0.22389758,-0.33849257,-0.12182601,0.22460797,-0.081728205,-0.5622604,-0.27835065,-0.4013377,806.6667,789.34064,800.2198,812.3077,739.7802,-0.34600830078125,0.02764892578125,0.9381103515625,5.988922119140625,-5.9515380859375,2.205657958984375,1,1.0,1.0,1.0,1.0,50.00
2021-04-13 08:49:36.034,0.65026516,-0.43043146,-0.20966505,0.6901615,0.111014776,-0.35534883,-0.43148786,0.26055667,0.41036108,-0.03071458,-0.1873041,0.40634856,0.2251006,-0.35196945,-0.23137186,0.16952674,-0.009346333,-0.58018047,-0.33951882,-0.3510026,799.41394,794.57874,795.78754,801.4286,745.82416,-0.35174560546875,0.0302734375,0.933837890625,8.08990478515625,-9.390869140625,6.766510009765625,1,1.0,1.0,1.0,1.0,50.00
2021-04-13 08:49:36.554,0.84271693,0.32943413,0.0795657,0.80672187,0.27126884,-0.010853926,-0.39876708,0.2633524,0.4354093,0.08824606,-0.114778176,0.35110268,0.22272903,-0.19127382,-0.20363605,0.23115976,-0.0014424293,-0.5167755,-0.35208607,-0.29545224,798.60803,834.4689,808.68134,811.50183,705.9341,-0.337646484375,0.02227783203125,0.94482421875,3.42437744140625,-3.401947021484375,-2.056121826171875,1,1.0,1.0,1.0,1.0,50.00
2021-04-13 08:49:37.082,1.2660487,0.50509953,0.62137634,0.8738062,0.8811659,0.1020908,-0.19947433,0.16952628,0.98014414,0.0816402,-0.050117973,0.35110268,1.2911452,-0.1069068,0.08060462,0.27876523,0.69130033,-0.5719511,-0.3094281,-0.20426494,840.5128,826.0073,792.1612,829.6337,796.5934,-0.36590576171875,0.03228759765625,0.9349365234375,3.30474853515625,-4.0374755859375,-1.876678466796875,1,1.0,1.0,1.0,1.0,50.00
2021-04-13 08:49:37.586,1.2693634,0.8175966,0.70022196,0.57155865,0.9268038,0.38367462,-0.19612986,-0.2633094,0.98014414,0.06789811,0.05281053,0.31947708,1.3539864,-0.017812343,0.12855217,0.3415496,0.7500112,-0.49934798,-0.22227648,-0.16239034,806.26373,801.4286,790.54944,807.0696,746.63007,-0.39654541015625,0.00653076171875,0.91888427734375,3.596343994140625,-3.880462646484375,-0.9271240234375,1,1.0,1.0,1.0,1.0,50.00
2021-04-13 08:49:38.100,1.1044863,0.8175966,0.7505088,1.0244006,0.7563235,0.38367462,-0.059114326,0.4229624,0.96836925,0.06789811,0.23676956,0.45080626,1.1557266,-0.017812343,0.13800888,0.25601858,0.6934091,-0.49934798,-0.23664808,0.21711364,807.47253,789.34064,796.99634,815.12823,662.4176,-0.4000244140625,0.00653076171875,0.91748046875,5.301055908203125,-6.3702392578125,0.28411865234375,1,1.0,1.0,1.0,1.0,50.00
2021-04-13 08:49:38.634,0.6065439,1.1513712,0.47236493,0.8449233,0.3009111,0.7097057,-0.08466521,0.48052156,0.6388364,-0.013874604,0.17731811,0.674984,0.2953151,-0.005134266,-0.11695587,0.22784078,0.32884645,-0.6131852,-0.4332092,0.013041025,817.5458,802.6374,796.5934,821.1722,772.8205,-0.40264892578125,0.01019287109375,0.92071533203125,5.1739501953125,-5.9814453125,0.964508056640625,1,1.0,1.0,1.0,1.0,50.00
2021-04-13 08:49:39.142,0.5070593,0.9547383,0.40597588,0.7333892,0.2605146,0.4445257,-0.041341312,0.45077115,0.6388364,-0.0051282397,0.14612412,0.674984,0.29700965,0.0031911673,-0.114509605,0.24888052,0.23274928,-0.5399207,-0.46681267,-0.06319806,809.0842,799.81683,795.38464,807.47253,641.06226,-0.38031005859375,0.01153564453125,0.92291259765625,4.366455078125,-5.7122802734375,1.03179931640625,1,1.0,1.0,1.0,1.0,50.00
2021-04-13 08:49:39.666,0.36893094,0.35719514,0.029891977,0.20496693,0.27018303,-0.4232528,-0.20901874,0.32418016,0.5293089,-0.16564232,0.15446486,0.6876499,0.256656,-0.06430111,-0.13854039,0.23327513,-0.1441134,-0.61470675,-0.58128047,-0.28653786,803.8461,795.38464,801.4286,816.337,727.28937,-0.37408447265625,0.01458740234375,0.9296875,4.418792724609375,-5.66741943359375,1.413116455078125,1,1.0,1.0,1.0,1.0,50.00
2021-04-13 08:49:40.211,0.01580905,0.26180702,-0.26529106,-0.033925362,0.1991158,-0.358982,-0.357737,0.23733874,0.4629329,-0.122075014,0.032170754,0.664691,0.24095307,-0.14600979,-0.077263944,0.22330505,-0.2652687,-0.5680266,-0.65774304,-0.30199605,818.3516,803.8461,799.011,815.5311,681.75824,-0.37774658203125,0.0113525390625,0.9287109375,4.747772216796875,-4.867401123046875,1.622467041015625,1,1.0,1.0,1.0,1.0,50.00
2021-04-13 08:49:40.750,0.012049131,0.15030558,-0.3640997,0.05901895,0.18647945,-0.24681807,-0.54195964,0.23538809,0.45526922,-0.07447132,-0.030129472,0.65611535,0.25420395,-0.27331457,0.08722204,0.20133907,-0.27181518,-0.68639964,-0.69785476,-0.3366445,808.68134,794.17584,801.4286,808.2784,774.43225,-0.36322021484375,0.01171875,0.93267822265625,5.00946044921875,-4.97955322265625,-0.35888671875,1,1.0,1.0,1.0,1.0,50.00
2021-04-13 08:49:41.265,0.10555059,0.42567798,0.21654737,0.20967326,0.056830846,-0.020347437,-0.21118344,0.37998438,0.5217964,-0.054374706,0.2540144,0.7018912,0.30309716,-0.2720552,0.12087956,0.3517007,-0.22841127,-0.73143613,-0.67788297,-0.24765322,809.4872,801.8315,797.3993,815.5311,637.4359,-0.363525390625,0.009033203125,0.9278564453125,4.5758056640625,-5.615081787109375,1.12152099609375,1,1.0,1.0,1.0,1.0,45.00
2021-04-13 08:49:41.775,0.30550966,0.60396594,0.3116815,0.23891096,0.11590409,0.030648464,-0.07600343,0.40798074,0.43101218,-0.074154384,0.2547685,0.62447524,0.23532067,-0.1291401,0.071198784,0.36995587,-0.15009952,-0.8010537,-0.5232441,-0.19060983,821.5751,813.5165,803.8461,821.1722,727.6923,-0.3770751953125,0.01080322265625,0.92962646484375,4.4561767578125,-5.211334228515625,1.36077880859375,1,1.0,1.0,1.0,1.0,45.00
2021-04-13 08:49:42.314,0.2978732,0.6471557,0.3003115,0.35842767,0.11630728,-0.061454587,-0.07693884,0.37820864,0.41919345,-0.16039267,0.24458215,0.64174247,0.2251275,-0.09071564,-0.07200833,0.32486564,-0.13878872,-0.73843294,-0.5217638,-0.05524164,809.4872,802.6374,810.293,817.1429,743.4066,-0.37176513671875,0.00640869140625,0.93072509765625,4.9945068359375,-4.3365478515625,1.263580322265625,1,1.0,1.0,1.0,1.0,45.00
2021-04-13 08:49:42.834,0.13117717,0.50149477,-0.018137757,0.28611585,0.13508141,-0.2658194,-0.18577544,0.30775917,0.371891,0.050894145,0.24462639,0.5141488,0.23306748,-0.1213036,-0.07271428,0.19528091,-0.109320424,-0.70904654,-0.49152395,-0.0983461,807.0696,795.38464,803.0403,809.89014,696.26373,-0.36566162109375,0.010009765625,0.93194580078125,4.687957763671875,-4.358978271484375,0.9869384765625,1,1.0,1.0,1.0,1.0,45.00
2021-04-13 08:49:43.347,0.01890222,0.25694,-0.12232338,0.272719,0.0077676224,-0.39804837,-0.28628704,0.13969068,0.41049483,0.08359287,0.0018076719,0.4307625,0.20868577,-0.22298124,-0.025645189,0.19810927,-0.10470029,-0.6894418,-0.5937888,-0.13746433,816.7399,801.02563,808.68134,818.3516,773.6264,-0.37530517578125,0.01116943359375,0.92962646484375,4.90478515625,-4.927215576171875,1.024322509765625,1,1.0,1.0,1.0,1.0,45.00
2021-04-13 08:49:43.868,0.019229915,0.030256871,-0.05299359,0.06075987,0.09408994,-0.25881594,-0.14340125,0.13701883,0.4273065,0.072876215,0.014287825,0.20926116,0.18018198,-0.2315318,-9.995053E-4,0.14582232,-0.08882353,-0.6611694,-0.5711373,-0.2614316,780.87915,807.0696,804.2491,785.7143,755.09155,-0.37744140625,0.01025390625,0.92474365234375,4.3365478515625,-4.725341796875,1.158905029296875,1,1.0,1.0,1.0,1.0,45.00
2021-04-13 08:49:44.374,0.062155098,0.11715037,-0.06976029,0.064412385,0.11076633,0.1425461,-0.2590032,-0.021588394,0.411729,0.17580499,0.06501186,0.12865739,0.11710494,-0.07516739,-0.010592814,0.10969757,-0.13482349,-0.63943684,-0.39580134,-0.36068147,802.6374,802.23444,809.0842,816.7399,742.6007,-0.380615234375,0.01123046875,0.9263916015625,4.80010986328125,-4.2169189453125,1.009368896484375,1,1.0,1.0,1.0,1.0,45.00
2021-04-13 08:49:44.925,0.084749304,0.26897755,-0.1909142,0.05068449,0.3027889,0.14775816,-0.26943815,0.12469104,0.24442138,0.18922226,0.06801415,0.11225526,0.18886974,-0.01254159,-0.02270539,-0.066856295,-0.14856645,-0.6245175,-0.29371658,-0.38136742,808.68134,802.6374,804.2491,813.5165,724.4689,-0.37652587890625,0.00787353515625,0.92730712890625,5.211334228515625,-4.964599609375,1.069183349609375,1,1.0,1.0,1.0,1.0,45.00
2021-04-13 08:49:45.437,0.33942544,0.38091528,-0.009079841,0.20621903,0.20249453,0.08886411,-0.19230652,0.25213408,0.66897035,0.1807961,0.028795496,0.50611925,0.24774398,-0.03417739,-0.011838828,0.28845054,-0.14472021,-0.63814765,-0.28434244,-0.1599324,803.44324,795.38464,796.5934,813.1135,711.1722,-0.36920166015625,0.00823974609375,0.927490234375,3.7982177734375,-4.852447509765625,0.336456298828125,1,1.0,1.0,1.0,1.0,45.00
2021-04-13 08:49:45.957,0.15019499,0.35086468,0.025291527,0.295771,0.08724872,-0.34455758,-0.056656875,0.18731542,0.6715469,-0.073344864,-0.05727442,0.5063714,0.25410563,-0.11745932,0.013530181,0.2875859,-0.1246857,-0.577812,-0.39917514,-0.23395844,810.293,797.3993,802.23444,816.337,843.73627,-0.37005615234375,0.00994873046875,0.9295654296875,4.66552734375,-5.196380615234375,1.0467529296875,1,1.0,1.0,1.0,1.0,45.00
2021-04-13 08:49:46.478,0.19860227,0.1729419,0.20039621,0.40979767,-0.010360003,-0.41791883,-0.13124935,0.086604744,0.6715469,0.033660613,-0.29421505,0.5100713,0.20425412,-0.12410064,0.04959589,0.2635657,-0.107507564,-0.50355893,-0.5135672,-0.28207743,807.0696,793.7729,801.8315,813.91943,766.3736,-0.37274169921875,0.01080322265625,0.923828125,5.121612548828125,-4.77020263671875,0.76263427734375,1,1.0,1.0,1.0,1.0,45.00
2021-04-13 08:49:46.997,0.16228803,-0.04707104,0.10083422,0.34940428,0.040455278,-0.43146235,-0.35020134,0.023236362,0.6214755,0.080011904,-0.30676162,0.3703245,0.17039901,-0.08383187,0.0010968287,0.22861925,-0.12708743,-0.48815838,-0.5552841,-0.2937099,815.9341,801.02563,807.8755,815.12823,692.6374,-0.37335205078125,0.00970458984375,0.9285888671875,4.478607177734375,-4.089813232421875,1.248626708984375,1,1.0,1.0,1.0,1.0,45.00
2021-04-13 08:49:47.508,0.22189415,-0.1814575,0.08778278,0.22254735,0.15089037,-0.45958287,-0.46330276,0.025852682,0.40342718,0.10805094,-0.09515745,0.45118085,0.11425505,-0.15136227,-0.06513933,0.24028505,-0.14483164,-0.55073965,-0.472405,-0.21006204,801.02563,793.7729,796.1905,813.1135,743.8095,-0.373291015625,0.01025390625,0.9307861328125,5.106658935546875,-5.36834716796875,1.188812255859375,1,1.0,1.0,1.0,1.0,45.00
2021-04-13 08:49:48.011,0.053630847,-0.2523603,-0.08957121,0.1939984,0.1908591,-0.38700753,-0.13255788,0.022260195,0.3777038,0.061072554,0.09054031,0.45774728,0.1468624,-0.18415663,-0.14721285,0.27291054,-0.17983535,-0.65428734,-0.39627656,-0.17056179,815.12823,797.3993,796.99634,810.293,826.4103,-0.379150390625,0.01019287109375,0.9346923828125,5.076751708984375,-4.35150146484375,1.203765869140625,1,1.0,1.0,1.0,1.0,45.00
2021-04-13 08:49:48.554,-0.078651264,-0.13689524,-0.047814123,0.39194712,0.023373272,-0.35988536,-0.10085938,-0.029415818,0.32376525,-0.04857677,0.16309163,0.4570829,0.12716916,-0.24856018,-0.10920353,0.25217092,-0.10306966,-0.64820504,-0.4073108,-0.19375508,808.2784,796.99634,796.5934,817.5458,758.315,-0.371826171875,0.00677490234375,0.92950439453125,4.897308349609375,-4.486083984375,0.657958984375,1,1.0,1.0,1.0,1.0,45.00
2021-04-13 08:49:49.089,-0.10593975,-0.012992222,-0.016528578,0.4161179,-0.06243523,-0.38879144,-0.15856501,-0.07963392,0.35820997,0.09460042,0.14256302,0.3720142,0.28485796,-0.22831023,-0.059763126,0.2646663,0.022045141,-0.44706684,-0.46846247,-0.21732853,804.65204,790.54944,796.5934,801.02563,766.3736,-0.3702392578125,0.00616455078125,0.92803955078125,4.605712890625,-4.329071044921875,0.829925537109375,1,1.0,1.0,1.0,1.0,45.00
2021-04-13 08:49:49.641,0.21237285,0.106725514,0.03798209,0.25308394,-0.026850697,-0.3329958,-0.35772362,0.04747084,0.49042854,0.092496626,-0.13799606,0.38629094,0.38793483,-0.1571066,-0.10191091,0.2815441,-0.0054096975,-0.44202778,-0.52524257,-0.22540818,812.71063,809.0842,780.87915,811.50183,745.42126,-0.37017822265625,0.010986328125,0.92938232421875,4.957122802734375,-5.12908935546875,1.263580322265625,1,1.0,1.0,1.0,1.0,45.00
2021-04-13 08:49:50.145,0.3279451,0.32185975,0.4309463,0.22258943,0.24885248,-0.2577453,-0.23021372,0.15809633,0.52836907,0.092496626,0.09767271,0.39612323,0.43422297,-0.063367605,-0.10503534,0.34474912,-0.1082446,-0.51364297,-0.49637082,-0.19369882,809.89014,794.9817,805.4579,813.91943,764.7619,-0.365478515625,0.00970458984375,0.9339599609375,4.605712890625,-4.83001708984375,1.18133544921875,1,1.0,1.0,1.0,1.0,45.00
2021-04-13 08:49:50.687,0.3491737,0.53153825,0.629574,0.32495883,0.37417248,-0.20264879,-0.23107505,0.18938184,0.51158166,0.0152530605,0.17930157,0.3742741,0.3614057,-0.07229174,-0.09807482,0.2758799,-0.28468794,-0.774832,-0.4879723,-0.25780544,804.2491,803.8461,804.2491,807.0696,750.65936,-0.3697509765625,0.00994873046875,0.93115234375,4.0972900390625,-5.5328369140625,0.560760498046875,1,1.0,1.0,1.0,1.0,45.00
2021-04-13 08:49:51.231,0.2854943,0.4841771,0.60341734,0.32577726,0.40583274,-0.16951196,-0.23852283,0.24569477,0.45502788,-0.03405865,0.26882598,0.28616822,0.29947513,-0.16857229,-0.051831774,0.25272897,-0.27631927,-0.8174482,-0.5239089,-0.28684148,811.50183,796.99634,804.65204,805.8608,713.1868,-0.3680419921875,0.0078125,0.9365234375,4.717864990234375,-4.8150634765625,0.979461669921875,1,1.0,1.0,1.0,1.0,45.00
2021-04-13 08:49:51.769,0.261582,0.30931592,0.41304424,0.21738017,0.29596817,-0.18221912,-0.24361962,0.2065941,0.29365626,0.045321893,0.24190468,0.35006025,0.3234254,-0.21678822,-0.07827931,0.18972872,-0.24197423,-0.76404595,-0.5387787,-0.28502318,798.20514,791.3553,801.4286,810.293,702.3077,-0.36224365234375,0.0035400390625,0.93310546875,4.78515625,-5.69732666015625,1.278533935546875,1,1.0,1.0,1.0,1.0,50.00
2021-04-13 08:49:52.295,0.1951765,-0.1400485,-0.02550917,0.14287536,0.188166,-0.10860001,-0.3029919,0.2695362,0.39128548,0.054295085,0.06519158,0.40610474,0.29604143,-0.1590944,-0.14356771,0.19803149,-0.13199739,-0.6401934,-0.49418148,-0.18204752,810.696,798.60803,801.8315,809.89014,718.4249,-0.37237548828125,0.0013427734375,0.9320068359375,4.972076416015625,-4.403839111328125,1.263580322265625,1,1.0,1.0,1.0,1.0,50.00
2021-04-13 08:49:52.817,0.12559414,-0.11257892,-0.04682911,0.14611043,0.22214139,-0.14528202,-0.26479107,0.1967954,0.3950084,0.12049507,-0.18392608,0.3567578,0.26059383,-0.17269634,-0.18229893,0.17395507,-0.12522547,-0.6881134,-0.5058276,-0.121237874,819.9634,800.6227,801.8315,803.0403,731.7216,-0.36895751953125,0.001953125,0.93621826171875,4.5758056640625,-4.732818603515625,0.94207763671875,1,1.0,1.0,1.0,1.0,50.00
2021-04-13 08:49:53.333,0.14051077,0.081761315,-0.05554113,0.06646251,0.256127,-0.20999163,-0.28729454,0.194757,0.39356297,0.032512877,-0.26974094,0.38599774,0.16352871,-0.24422608,-0.16142179,0.16030161,-0.16310312,-0.6262612,-0.5232702,-0.18436077,806.26373,795.78754,797.8022,802.23444,690.6227,-0.362548828125,0.0037841796875,0.93206787109375,4.463653564453125,-4.6954345703125,1.21124267578125,1,1.0,1.0,1.0,1.0,50.00
2021-04-13 08:49:53.878,0.17929876,0.08247588,-0.11833324,0.16936252,0.18141694,-0.21948145,-0.32776877,0.21906579,0.32985148,-0.046730116,-0.25504553,0.32328582,0.19473697,-0.23123954,-0.16107552,0.13411039,-0.22662728,-0.5825407,-0.60430896,-0.2448287,809.89014,807.8755,814.3223,823.5897,744.21246,-0.3629150390625,0.0059814453125,0.92962646484375,4.56085205078125,-3.93280029296875,1.143951416015625,1,1.0,1.0,1.0,1.0,50.00
2021-04-13 08:49:54.420,0.3484674,0.13569364,0.018704778,0.18320319,0.13538618,-0.16624218,-0.42599326,0.21369426,0.35520968,-0.014617582,-0.28084078,0.29528883,0.23840275,-0.16590391,-0.14052345,0.15957023,-0.07230891,-0.5021265,-0.5583002,-0.22687452,808.2784,798.60803,808.2784,813.5165,742.1978,-0.3680419921875,0.00457763671875,0.93310546875,4.762725830078125,-4.306640625,0.814971923828125,1,1.0,1.0,1.0,1.0,50.00
2021-04-13 08:49:54.928,0.4426011,0.17679302,0.11359062,0.55794793,0.006775881,-0.15788056,-0.26338872,0.27065602,0.33225054,0.08785474,0.001976578,0.4400299,0.3238449,-0.16348074,-0.10634493,0.20761818,0.03596209,-0.45635405,-0.55886817,-0.14873163,807.47253,796.1905,801.4286,808.2784,713.9927,-0.37481689453125,0.004150390625,0.93231201171875,4.5758056640625,-4.673004150390625,0.64300537109375,1,1.0,1.0,1.0,1.0,50.00
2021-04-13 08:49:55.453,0.57875866,0.3283565,0.24879515,0.69687873,0.3309792,-0.070153765,-0.09948004,0.2659932,0.82091874,0.11814584,0.062998034,0.6426974,0.37436566,-0.1448236,-0.08394335,0.30666232,0.052070726,-0.42595544,-0.41829276,-0.19496657,815.12823,785.31134,807.0696,813.91943,751.06226,-0.3702392578125,0.00146484375,0.931396484375,4.927215576171875,-5.031890869140625,0.70281982421875,1,1.0,1.0,1.0,1.0,50.00
2021-04-13 08:49:55.987,0.84529114,0.7391691,0.44329056,0.704663,0.65037847,0.21247181,0.037512675,0.46582437,0.907737,0.42603958,0.2305462,0.75706977,0.40271255,-0.056998607,-0.036156118,0.34041476,0.045667432,-0.39647588,-0.43009079,-0.19571505,806.26373,798.20514,797.8022,815.12823,670.07324,-0.37237548828125,0.00140380859375,0.9285888671875,4.403839111328125,-4.29168701171875,0.95703125,1,1.0,1.0,1.0,1.0,50.00
2021-04-13 08:49:56.511,0.6867707,0.85227746,0.48903835,0.56230193,0.61147386,0.34391427,0.048692755,0.5113836,0.92741376,0.48957166,0.21605484,0.8852139,0.3639696,0.043842085,-0.07683922,0.35515758,0.059584185,-0.4410212,-0.4981977,-0.20857893,817.1429,798.20514,805.4579,824.3956,742.1978,-0.365478515625,0.00274658203125,0.9342041015625,4.867401123046875,-5.061798095703125,-0.127105712890625,1,1.0,1.0,1.0,1.0,50.00
2021-04-13 08:49:57.013,0.5919751,0.8894804,0.44815674,0.51443696,0.57097244,0.4199954,0.08188159,0.49495533,0.87272763,0.5472978,0.21605484,0.79997486,0.32420266,0.019366901,-0.019014189,0.35992014,0.055307236,-0.45406073,-0.5651808,-0.13226217,805.4579,793.7729,803.0403,828.022,725.6777,-0.37109375,0.0010986328125,0.9283447265625,4.643096923828125,-5.375823974609375,0.874786376953125,1,1.0,1.0,1.0,1.0,50.00
2021-04-13 08:49:57.540,0.15082237,0.59157413,0.20756336,0.44527614,0.37385607,0.19142488,-0.05615092,0.4081729,0.8110548,0.46800873,0.17042743,0.7873344,0.21400282,-0.06817994,-0.035728876,0.3435608,-0.048990782,-0.4891349,-0.6100797,-0.11247765,808.2784,797.8022,804.2491,817.5458,704.7253,-0.3707275390625,0.00396728515625,0.92828369140625,4.725341796875,-4.74029541015625,1.15142822265625,1,1.0,1.0,1.0,1.0,50.00
2021-04-13 08:49:58.045,0.12570617,0.40873092,0.081977,0.37512147,0.20178643,0.047743812,-0.1243514,0.28940883,0.61321867,0.4608725,0.15391791,0.54549587,0.17811972,-0.051206052,-0.031313676,0.30273366,-0.19380307,-0.5065203,-0.57276493,-0.052753896,804.65204,792.5641,809.0842,818.3516,760.7326,-0.37408447265625,0.00531005859375,0.92999267578125,4.867401123046875,-4.344024658203125,1.099090576171875,1,1.0,1.0,1.0,1.0,50.00
2021-04-13 08:49:58.593,0.0653497,-0.096214786,0.031645387,0.31800133,-0.0139371175,-0.29442227,-0.32508048,0.27102858,0.60574657,0.21392451,0.05554617,0.5217468,0.12635309,-0.040336974,-0.106815256,0.2737039,-0.17030595,-0.56252986,-0.55972445,-0.0557864,768.7912,799.011,804.2491,775.64105,840.10986,-0.370361328125,0.0023193359375,0.92822265625,4.97955322265625,-4.942169189453125,0.478515625,1,1.0,1.0,1.0,1.0,50.00
2021-04-13 08:49:59.111,0.005201961,-0.09466608,-0.2028648,0.2720557,-0.1511224,-0.18315949,-0.3700723,0.17875421,0.55887157,0.22313179,0.05106618,0.5072811,0.1465391,-0.027837122,-0.14875695,0.22054744,-0.15617704,-0.52035916,-0.49000233,-0.058977492,805.05493,800.2198,798.60803,813.1135,803.8461,-0.36053466796875,0.0064697265625,0.93743896484375,4.822540283203125,-5.33843994140625,0.381317138671875,1,1.0,1.0,1.0,1.0,50.00
2021-04-13 08:49:59.628,0.38091695,0.20694529,-0.17640379,0.6627732,0.060176026,-0.17309013,-0.5331975,0.29696444,0.6930386,0.05866855,-0.16505963,0.4078312,0.13811696,-0.11439342,-0.1539905,0.2090701,-0.04534717,-0.46436325,-0.42104664,-0.08935959,820.3663,796.1905,807.47253,825.2015,828.022,-0.3648681640625,0.00604248046875,0.93194580078125,4.508514404296875,-5.57769775390625,0.88226318359375,1,1.0,1.0,1.0,1.0,50.00
2021-04-13 08:50:00.135,0.4676787,0.32612154,-0.17001241,0.7812487,0.35119036,-0.20201154,-0.42387298,0.4467192,0.6561399,0.053666472,-0.07651453,0.4549214,0.37865078,-0.054413546,0.016237617,0.33532947,-0.05678618,-0.20314445,-0.34465814,0.34661454,807.47253,817.9487,801.02563,813.1135,675.31134,-0.35986328125,0.00830078125,0.941650390625,5.2935791015625,-3.768310546875,-0.979461669921875,1,1.0,1.0,1.0,1.0,50.00
2021-04-13 08:50:00.656,0.412061,0.5521697,-0.13282831,0.7375471,0.33119988,-0.17089395,-0.37569782,0.370821,0.6655568,0.0842179,0.01877664,0.4549214,0.3950359,0.057307243,0.09609522,0.34253016,0.040855836,-0.16492425,-0.33433202,0.3326051,761.13556,804.65204,785.7143,763.95605,889.2674,-0.37158203125,-0.00299072265625,0.9361572265625,4.164581298828125,0.94207763671875,1.1065673828125,1,1.0,1.0,1.0,1.0,50.00
2021-04-13 08:50:01.177,0.13683093,0.4863392,-0.21053971,0.6282965,0.2618963,-0.17939389,-0.26041505,0.2643871,0.56510544,0.0937751,0.019865615,0.4084114,0.44279218,0.22039253,0.111186706,0.39165223,0.105229355,-0.17204191,-0.36018384,0.4376319,810.293,815.12823,794.9817,794.17584,733.3333,-0.394775390625,0.008056640625,0.8985595703125,4.8150634765625,-4.658050537109375,0.186920166015625,1,1.0,1.0,1.0,1.0,50.00
2021-04-13 08:50:01.724,0.17484868,0.49388474,-0.2956398,0.5881525,0.14882977,-0.1950566,-0.3304551,0.110815905,0.47374925,0.0417105,-0.090162165,0.29267958,0.4079883,0.19334535,0.00439355,0.3863802,0.18900475,-0.34734294,-0.4739983,0.36900032,817.1429,805.8608,801.4286,824.7985,716.8132,-0.3885498046875,0.00244140625,0.91998291015625,4.5758056640625,-4.553375244140625,-0.299072265625,1,1.0,1.0,1.0,1.0,50.00
2021-04-13 08:50:02.228,0.17484868,0.39707333,-0.18279472,0.5881525,0.14882977,-0.17413355,-0.2647918,0.110815905,0.47374925,0.009823127,0.08894869,0.29267958,0.4079883,0.13284297,-0.059946604,0.3863802,0.18900475,-0.4289142,-0.42374957,0.36900032,822.7839,801.02563,793.7729,826.4103,767.98535,-0.36431884765625,0.00201416015625,0.93646240234375,4.687957763671875,-8.022613525390625,2.803802490234375,1,1.0,1.0,1.0,1.0,50.00
2021-04-13 08:50:02.733,1.3367559,0.43780872,0.22910087,0.5881525,0.7287588,-0.002300123,-0.10582104,0.110815905,0.32385328,0.055814747,0.11755569,0.29267958,0.29786703,-0.07028723,-0.06045087,0.3863802,0.0022944133,-0.48601633,-0.35995942,0.36900032,808.68134,802.6374,804.65204,806.26373,660.0,-0.37982177734375,-0.0010986328125,0.92724609375,4.613189697265625,-2.669219970703125,0.4486083984375,1,1.0,1.0,1.0,1.0,50.00
2021-04-13 08:50:03.246,1.1973115,0.46584743,0.34256744,0.9890333,0.61150694,0.0026086576,-0.01743644,0.5442307,0.494083,0.057434663,0.17198871,0.5828594,0.28226796,-0.16177341,-0.10118699,0.36911857,-0.06340316,-0.5698788,-0.323571,-0.15931746,815.5311,810.696,791.75824,812.3077,770.0,-0.381103515625,-0.01080322265625,0.9287109375,5.136566162109375,-5.973968505859375,1.891632080078125,1,1.0,1.0,1.0,1.0,50.00
2021-04-13 08:50:03.767,1.0125786,0.48757333,0.45111978,-0.072035976,0.39736813,0.0030723065,0.04962972,0.09224821,0.5341336,0.1426236,0.21618533,0.540156,0.22080088,-0.1514444,-0.15831533,0.022066751,-0.17280506,-0.55623853,-0.39308774,-0.28507534,793.7729,797.8022,790.9524,809.0842,782.49084,-0.38690185546875,0.001708984375,0.924560546875,4.882354736328125,-4.702911376953125,2.2430419921875,1,1.0,1.0,1.0,1.0,50.00
2021-04-13 08:50:04.281,0.1892064,0.49094257,0.34435633,0.14399785,-0.08708219,-0.12418931,-0.08688647,0.0872753,0.5300574,0.1362145,0.15704966,0.540156,0.25043648,-0.0908983,-0.16458975,0.0014485755,-0.25071543,-0.5942903,-0.520836,-0.13731033,811.0989,794.17584,799.011,812.3077,707.5458,-0.38543701171875,-4.8828125E-4,0.9278564453125,4.448699951171875,-3.820648193359375,0.897216796875,1,1.0,1.0,1.0,1.0,50.00
2021-04-13 08:50:04.824,0.18591909,0.403091,0.32087204,0.2259486,-0.08011697,-0.16055718,-0.18650387,0.0028054337,0.4968021,0.24372686,0.1460642,0.45843476,0.22741362,-0.10971614,-0.14976828,0.0018451874,-0.20588608,-0.63572663,-0.6379305,-0.1650381,811.0989,806.26373,801.8315,816.7399,805.8608,-0.37939453125,-0.00823974609375,0.92138671875,4.717864990234375,-4.80010986328125,0.8673095703125,1,1.0,1.0,1.0,1.0,50.00
2021-04-13 08:50:05.365,0.21832596,0.110914044,0.08335672,0.5219169,0.046244785,-0.34092715,-0.48915672,0.027255379,0.596026,0.23089077,0.007731331,0.021538418,0.30593777,-0.19168934,-0.10938919,0.09474543,-0.14754419,-0.67014307,-0.60123885,-0.19861078,815.12823,802.6374,803.44324,810.696,706.337,-0.384033203125,0.0020751953125,0.92401123046875,4.62066650390625,-5.54779052734375,1.83929443359375,1,1.0,1.0,1.0,1.0,50.00
2021-04-13 08:50:05.882,0.4529821,-0.0983931,-0.017469669,0.57346255,0.18684067,-0.30732208,-0.5063495,0.2845368,0.65977055,0.22227362,-0.031946763,0.57215697,0.39111745,-0.15641786,-0.17024353,0.23391582,-0.030497875,-0.60094696,-0.5843949,-0.37226275,810.696,799.011,803.0403,816.337,749.45056,-0.3779296875,0.001708984375,0.92547607421875,4.762725830078125,-5.360870361328125,0.605621337890625,1,1.0,1.0,1.0,1.0,50.00
2021-04-13 08:50:06.412,0.5112082,0.086977385,-0.06447731,0.57228947,0.24935019,-0.16946843,-0.36749157,0.40621856,0.6737883,0.08602948,0.015824076,0.7602802,0.4482218,-0.0031938336,-0.13791525,0.32999626,0.07228018,-0.6274088,-0.64913267,-0.33954906,790.14655,800.2198,811.9048,808.68134,702.71063,-0.38250732421875,-5.4931640625E-4,0.92608642578125,4.44122314453125,-4.613189697265625,1.099090576171875,1,1.0,1.0,1.0,1.0,50.00
2021-04-13 08:50:06.932,0.55345154,0.23871483,0.13542195,0.5934238,0.21327642,-0.041031223,-0.17252608,0.4063246,0.6661816,0.07429614,0.036291458,0.76413095,0.4306547,-0.019391354,-0.21928453,0.272866,0.1101352,-0.62984544,-0.7417111,-0.26643637,795.38464,793.36993,798.60803,801.02563,672.8938,-0.37823486328125,-1.220703125E-4,0.92413330078125,4.628143310546875,-4.388885498046875,1.024322509765625,1,1.0,1.0,1.0,1.0,50.00
2021-04-13 08:50:07.463,0.5938173,0.6048604,0.2506216,0.6472252,0.27595428,0.11168846,-0.025578907,0.29581043,0.86512196,0.1402722,0.101866275,0.835598,0.37447172,-0.077278815,-0.1727789,0.20886105,0.09739895,-0.6532263,-0.65950584,-0.12647492,815.12823,801.4286,805.05493,808.68134,734.5421,-0.38629150390625,-4.2724609375E-4,0.92633056640625,4.44122314453125,-4.433746337890625,-0.19439697265625,1,1.0,1.0,1.0,1.0,50.00
2021-04-13 08:50:07.968,0.5851788,0.7435718,0.3921991,0.64397633,0.49456492,0.29859614,-0.007688745,0.20241654,0.8644791,0.22621284,0.1093231,0.79393035,0.2865266,-0.17366229,-0.14138554,0.32335925,-0.067109615,-0.54972404,-0.64047885,-0.024094624,813.1135,791.75824,801.4286,814.7253,774.83514,-0.39544677734375,-0.00537109375,0.9202880859375,4.32159423828125,-4.5458984375,1.07666015625,1,1.0,1.0,1.0,1.0,50.00
2021-04-13 08:50:08.527,0.38419688,0.6792884,0.24906166,0.34927103,0.4319824,0.23784885,-0.093543015,0.2715926,0.85017264,0.20947832,0.11536073,0.7892191,0.2344554,-0.13750303,-0.035606753,0.36889663,0.03741207,-0.49341345,-0.6346471,-0.04765085,797.8022,792.96704,804.2491,810.696,765.9707,-0.396240234375,-0.002197265625,0.9202880859375,4.613189697265625,-5.2337646484375,1.2261962890625,1,1.0,1.0,1.0,1.0,50.00
2021-04-13 08:50:09.056,0.17098013,0.4881272,0.13376422,0.19005682,0.35029492,0.15450716,-0.002926024,0.41791487,0.8544392,0.1968226,0.05286245,0.741241,0.21698886,-0.095621794,-0.08244953,0.35659522,0.016587485,-0.48893374,-0.43985492,-0.12939517,801.02563,796.5934,804.2491,818.7546,826.8132,-0.39404296875,-0.0042724609375,0.92144775390625,4.725341796875,-5.375823974609375,1.18133544921875,1,1.0,1.0,1.0,1.0,50.00
2021-04-13 08:50:09.581,0.032416973,0.247265,-0.12268197,-0.05531536,0.34660226,-0.15737167,-0.0229482,0.4545947,0.92852414,0.043264844,0.123496056,0.6008437,0.21156494,-0.12504034,-0.15227476,0.27540538,0.05043906,-0.5149729,-0.3175853,-0.2064604,807.0696,803.44324,805.4579,816.337,711.978,-0.3787841796875,-0.01324462890625,0.910400390625,6.26556396484375,-6.317901611328125,-2.452392578125,1,1.0,1.0,1.0,1.0,50.00
2021-04-13 08:50:10.093,0.06556301,0.31445807,-0.201707,-0.059551958,0.3979197,-0.07786322,-0.11017499,0.4044877,0.93689907,0.03328932,0.12443984,0.67513037,0.2243664,-0.1835145,-0.21573214,0.32484013,-0.11483315,-0.5780781,-0.2608873,-0.17676944,777.25275,792.5641,807.8755,793.36993,860.65936,-0.380126953125,0.032470703125,0.91925048828125,6.69921875,-7.177734375,3.043060302734375,1,1.0,1.0,1.0,1.0,50.00
2021-04-13 08:50:10.596,0.22655347,0.37829453,-0.20161548,0.40019807,0.39657855,-0.08298033,-0.42574817,0.19183774,0.9485811,-0.024854383,0.12443984,0.6127895,0.24566515,-0.24272677,-0.12791955,0.30482763,-0.19832376,-0.59933263,-0.35839698,-0.12813589,819.5604,794.17584,806.26373,819.15753,658.3883,-0.3955078125,0.06329345703125,0.91729736328125,2.97576904296875,1.472930908203125,1.727142333984375,1,1.0,1.0,1.0,1.0,50.00
2021-04-13 08:50:11.137,0.83040506,0.63145804,-0.04321839,0.8122358,0.34350854,0.083338946,-0.348663,0.26200774,0.6404503,-0.16507256,0.10352407,0.77882105,0.3373143,-0.20865548,0.038964707,0.26927888,-0.171014,-0.57309544,-0.29143745,-0.09615196,805.05493,799.81683,810.293,823.1868,779.67035,-0.3802490234375,0.0430908203125,0.9248046875,1.727142333984375,-4.643096923828125,1.143951416015625,1,1.0,1.0,1.0,1.0,50.00
2021-04-13 08:50:11.652,0.9201059,0.7038218,0.085356265,0.8304783,0.5182439,0.23925743,-0.3085478,0.34181407,0.6234805,0.124104746,0.0700704,0.8605619,0.409552,-0.1847765,0.060898636,0.31332016,-0.14388548,-0.537299,-0.2867085,-0.17860296,808.2784,794.17584,799.011,799.81683,784.5055,-0.3680419921875,0.009033203125,0.93359375,4.35150146484375,-6.95343017578125,1.143951416015625,1,1.0,1.0,1.0,1.0,50.00
2021-04-13 08:50:12.164,0.91806394,0.7379935,0.01837053,0.70448047,0.52389526,0.2703687,-0.29641014,0.3691722,0.5690979,0.12945464,0.07954166,0.8606837,0.34679833,-0.13714547,-0.0020184964,0.2815309,-0.19982095,-0.5880093,-0.28372705,-0.24824293,809.0842,805.4579,804.65204,808.2784,715.2015,-0.36114501953125,0.0230712890625,0.93634033203125,3.611297607421875,-5.031890869140625,-0.067291259765625,1,1.0,1.0,1.0,1.0,50.00
2021-04-13 08:50:12.711,0.88107216,0.8185682,-0.050649393,0.6083708,0.44358772,0.30322525,-0.23975843,0.25363705,0.5790563,0.1802854,0.096431665,0.75949705,0.20862053,-0.109569795,-0.12908356,0.27323753,-0.23943804,-0.6290936,-0.43816417,-0.28822723,800.6227,800.2198,792.1612,810.293,790.9524,-0.37481689453125,-0.00244140625,0.9306640625,4.897308349609375,-4.508514404296875,1.099090576171875,1,1.0,1.0,1.0,1.0,50.00
2021-04-13 08:50:13.243,0.87131196,0.778433,-0.022601843,0.6543068,0.4974966,0.22710088,-0.19060239,0.225732,0.7913997,0.22327667,0.14794675,0.732859,0.13493448,-0.06980454,-0.0864372,0.20353884,-0.090358086,-0.6016166,-0.5102357,-0.24417013,811.0989,807.0696,795.78754,807.0696,729.304,-0.37225341796875,0.012451171875,0.927490234375,5.084228515625,-5.435638427734375,1.136474609375,1,1.0,1.0,1.0,1.0,50.00
2021-04-13 08:50:13.788,0.736776,0.70914334,0.026424088,0.603964,0.4213452,0.16379802,-0.20589156,0.24188653,0.7992252,0.22878103,0.13149863,0.6154458,0.31143808,0.010225209,0.038486063,0.33482704,0.17784654,-0.34683013,-0.46388453,0.25335592,826.0073,799.011,797.3993,816.337,763.5531,-0.3687744140625,0.0140380859375,0.9337158203125,5.15899658203125,-3.5888671875,0.37384033203125,1,1.0,1.0,1.0,1.0,50.00
2021-04-13 08:50:14.294,0.5274431,0.4160548,-0.04043123,0.44061646,0.42702273,-0.17684299,-0.36362332,0.280135,0.8108402,0.18484606,0.07092865,0.6191878,0.4592018,0.03295292,0.04671034,0.42038274,0.30446297,-0.2058174,-0.3614787,0.4035632,772.4176,794.57874,796.99634,774.0293,778.0586,-0.3902587890625,0.02825927734375,0.92681884765625,11.79840087890625,-6.44500732421875,0.179443359375,1,1.0,1.0,1.0,1.0,50.00
2021-04-13 08:50:14.815,0.5104654,0.62069994,-0.09293744,0.3468179,0.25610694,0.26135457,-0.06413686,0.3384531,0.41946527,0.025799338,0.11003535,0.27391067,0.532331,0.010355924,0.045173887,0.52655256,0.39089411,-0.19576517,-0.33442584,0.53771055,799.41394,785.7143,796.5934,799.81683,724.0659,-0.357421875,0.04315185546875,0.93280029296875,4.209442138671875,-3.1103515625,4.628143310546875,1,1.0,1.0,1.0,1.0,50.00
2021-04-13 08:50:15.343,0.85866135,0.6259692,-0.075986266,0.47592762,0.31841913,0.27954453,-0.038235165,0.3915467,0.8647937,0.005174808,0.20033774,0.54015696,0.40487412,-0.09879101,-0.073012285,0.4298624,0.35774624,-0.3284082,-0.38680488,0.20291531,815.9341,802.23444,810.696,815.5311,829.2308,-0.39324951171875,-0.00634765625,0.92041015625,2.235565185546875,-1.712188720703125,0.605621337890625,1,1.0,1.0,1.0,1.0,50.00
2021-04-13 08:50:15.854,0.76056486,0.70019823,-0.051873636,0.42617428,0.18014966,0.2918441,-0.02655698,0.4789498,0.93503964,0.08903808,0.41498652,0.9044985,0.53642994,-0.06514417,0.0010003839,0.54857725,0.17409632,-0.43815058,-0.41549444,-0.26251686,813.5165,797.3993,801.8315,822.7839,661.6117,-0.396728515625,9.1552734375E-4,0.91558837890625,5.106658935546875,-4.059906005859375,1.981353759765625,1,1.0,1.0,1.0,1.0,50.00
2021-04-13 08:50:16.363,0.5779239,0.60191965,0.013087457,0.29558158,0.103869535,-0.27107593,-0.22359577,0.35081148,0.93503964,-0.09595927,0.3508824,0.9916988,0.4590631,-0.05971654,-0.038889684,0.4388574,0.08432077,-0.47115973,-0.4622968,-0.1489565,818.7546,811.9048,811.0989,822.381,736.55676,-0.403564453125,0.00616455078125,0.91241455078125,4.553375244140625,-5.330963134765625,0.665435791015625,1,1.0,1.0,1.0,1.0,50.00
2021-04-13 08:50:16.869,0.33920756,0.59371597,0.0074304,0.21162724,0.18130042,-0.23663062,-0.19489296,0.30559647,0.87592864,-0.07073081,0.35766715,1.031613,0.37733284,-0.045827925,-0.09203237,0.37120923,-0.05726135,-0.5893876,-0.44692963,-0.13780375,804.2491,808.2784,797.3993,802.23444,745.0183,-0.39068603515625,0.002197265625,0.92535400390625,5.30853271484375,-4.747772216796875,1.128997802734375,1,1.0,1.0,1.0,1.0,50.00
2021-04-13 08:50:17.378,0.16797048,0.5704243,0.081645735,0.18378097,0.20034894,-0.21374795,-0.24968907,0.15701404,0.7082493,-0.13391748,0.03878145,0.81139034,0.22333391,-0.15114194,-0.18051109,0.21409035,-0.13251162,-0.65364885,-0.42415798,-0.097050525,809.0842,799.011,793.7729,809.89014,701.0989,-0.38385009765625,-0.00299072265625,0.924560546875,4.972076416015625,-5.749664306640625,1.263580322265625,1,1.0,1.0,1.0,1.0,50.00
2021-04-13 08:50:17.921,0.04882421,0.48609704,-0.047993764,0.14978103,0.23046191,-0.25424275,-0.28454477,0.18158777,0.69246835,-0.04525326,-0.1609726,0.79107016,0.1908328,-0.17312802,-0.17623116,0.15878811,-0.087752625,-0.7285489,-0.42341256,-0.14761208,801.02563,806.6667,803.44324,800.6227,826.8132,-0.392333984375,-0.00262451171875,0.92401123046875,4.852447509765625,-4.71038818359375,0.777587890625,1,1.0,1.0,1.0,1.0,50.00
2021-04-13 08:50:18.436,-0.02144951,0.37446424,-0.13169262,0.19173205,0.30501732,-0.14897224,-0.3319515,0.24681139,0.5333315,0.12976608,-0.092903085,0.34382236,0.24331996,-0.011509176,-0.13886125,0.123471,-0.04262951,-0.6358224,-0.45542037,-0.12472,805.4579,798.60803,797.8022,805.8608,738.1685,-0.38690185546875,-0.00469970703125,0.92510986328125,4.687957763671875,-4.7552490234375,0.79254150390625,1,1.0,1.0,1.0,1.0,50.00
2021-04-13 08:50:18.943,0.29354572,0.075442776,-0.3707796,0.46071747,0.37241042,-0.029587282,-0.1878748,0.3888237,0.6390328,0.23003593,0.005457665,0.5619823,0.25413233,0.01735702,-0.07019544,0.18480806,-0.04419649,-0.50942045,-0.4086638,-0.11370823,805.05493,807.8755,797.8022,819.15753,747.4359,-0.39556884765625,-0.00860595703125,0.9259033203125,5.286102294921875,-3.715972900390625,0.919647216796875,1,1.0,1.0,1.0,1.0,50.00
2021-04-13 08:50:19.471,0.348685,0.093106635,-0.31668907,0.5349035,0.6340243,0.16786131,-0.2158656,0.58633554,0.78494287,0.32051963,0.0069345837,0.5879296,0.3138413,0.008970454,-0.14039059,0.33311093,-0.007900467,-0.45328274,-0.4116083,-0.12570985,809.89014,799.011,804.2491,809.0842,789.7436,-0.39117431640625,-0.0015869140625,0.92327880859375,4.478607177734375,-5.084228515625,1.33087158203125,1,1.0,1.0,1.0,1.0,50.00
2021-04-13 08:50:19.982,0.33726558,0.064703286,-0.31695193,0.52319473,0.64134544,0.15940307,-0.29714942,0.70274764,0.78808784,0.3042631,0.023431012,0.8038272,0.37438136,-0.17618965,-0.15247796,0.3961537,0.030145537,-0.5130807,-0.41429964,-0.13304326,815.5311,802.6374,801.4286,810.293,768.7912,-0.38812255859375,-0.00299072265625,0.9200439453125,4.927215576171875,-4.478607177734375,0.859832763671875,1,1.0,1.0,1.0,1.0,50.00
2021-04-13 08:50:20.525,0.19864027,-0.016301583,-0.31656832,0.5446814,0.7160103,0.108987816,-0.3271502,0.76373214,0.8473367,0.15019515,0.030973265,0.8827793,0.33495182,-0.18175767,-0.19302547,0.35442504,0.11756898,-0.6306008,-0.5188973,-0.18844792,807.47253,796.99634,786.1172,792.5641,784.90845,-0.39373779296875,-7.9345703125E-4,0.92474365234375,4.91973876953125,-4.90478515625,0.560760498046875,1,1.0,1.0,1.0,1.0,50.00
2021-04-13 08:50:21.043,0.2691466,-0.03764249,-0.0709949,0.5975036,0.5281867,-0.0889941,-0.24977434,0.6652656,0.81130725,0.11001072,0.0916938,0.90529424,0.30938464,-0.19890346,-0.079794146,0.36424774,0.061753392,-0.65526575,-0.54592997,-0.1765722,821.5751,799.41394,808.2784,823.9927,777.6557,-0.39501953125,-6.103515625E-4,0.91802978515625,4.717864990234375,-4.8748779296875,0.777587890625,1,1.0,1.0,1.0,1.0,50.00
2021-04-13 08:50:21.551,0.31151855,-0.040729675,0.26496944,0.61850053,0.59189516,-0.068523265,-0.1930281,0.65783674,0.99301994,0.25385994,0.10141538,0.9376778,0.2465123,-0.21380325,-0.017677637,0.37184894,0.039872795,-0.627985,-0.5382039,-0.1332956,799.41394,803.8461,807.0696,806.6667,767.5824,-0.396240234375,0.0020751953125,0.917236328125,4.6954345703125,-4.568328857421875,1.099090576171875,1,1.0,1.0,1.0,1.0,50.00
2021-04-13 08:50:22.107,0.05996894,0.08551822,0.46455494,0.31173334,0.5638994,0.024325255,-0.16940562,0.6081701,0.9931923,0.34409457,0.26942202,0.8041285,0.37969586,-0.1895598,9.499975E-4,0.43746424,-0.04154641,-0.62793547,-0.50138336,-0.07103317,813.91943,797.8022,804.65204,801.4286,754.68866,-0.39959716796875,-0.00146484375,0.92108154296875,4.42626953125,-4.239349365234375,0.844879150390625,1,1.0,1.0,1.0,1.0,50.00
2021-04-13 08:50:22.615,-0.13799892,0.030292686,0.4168278,-0.03582454,0.5982774,0.017117707,-0.18055573,0.57664156,1.0037361,0.38541496,0.2652467,0.7996814,0.35139337,-0.1586353,0.028025204,0.32618433,0.026596626,-0.5863547,-0.44995853,-0.04116307,796.5934,794.9817,815.5311,817.1429,834.0659,-0.3968505859375,-0.0013427734375,0.920654296875,4.777679443359375,-4.942169189453125,1.158905029296875,1,1.0,1.0,1.0,1.0,45.00
2021-04-13 08:50:23.155,-0.09391688,0.059081502,0.24425462,-0.28471676,0.405212,-0.090341195,-0.16770683,0.26090643,1.1581769,0.40897867,0.30732492,0.69734347,0.35172993,-0.13745496,0.048163008,0.23841615,0.02815728,-0.5075633,-0.42224,-0.11323383,806.26373,796.5934,802.6374,808.68134,723.2601,-0.39813232421875,-0.00189208984375,0.9168701171875,4.568328857421875,-5.72723388671875,0.814971923828125,1,1.0,1.0,1.0,1.0,45.00
2021-04-13 08:50:23.662,0.17324159,0.27153048,0.047519945,-0.006627753,0.32431436,-0.18024209,-0.26292467,0.076927684,1.1248733,0.22527163,0.18612394,0.6534613,0.30391866,-0.15567592,-0.0020634132,0.16123573,-0.022039559,-0.4953887,-0.4348398,-0.10259634,794.17584,790.9524,786.1172,805.05493,782.0879,-0.3966064453125,-0.00262451171875,0.92010498046875,4.85992431640625,-4.844970703125,0.64300537109375,1,1.0,1.0,1.0,1.0,45.00
2021-04-13 08:50:24.171,0.17219904,0.34889677,0.36813635,-0.0049400334,0.22702721,-0.18306154,-0.17969759,-0.18211395,1.1132338,0.1857703,0.13432282,0.5774389,0.2802572,-0.21103996,-0.039269865,0.10527644,-0.11101389,-0.5694249,-0.50954306,-0.19780459,791.3553,799.011,800.2198,801.8315,772.01465,-0.3905029296875,-2.44140625E-4,0.919189453125,4.5458984375,-4.837493896484375,1.128997802734375,1,1.0,1.0,1.0,1.0,45.00
2021-04-13 08:50:24.677,0.38206306,0.34554172,0.38955295,0.4640495,0.32744938,-0.28333783,-0.24177945,-0.14568888,1.0409617,0.12669738,-0.008405672,0.5742099,0.27574652,-0.20612912,-0.084633924,0.20367144,-0.10528758,-0.59569347,-0.5567187,-0.12657015,807.8755,799.81683,801.8315,803.8461,708.7546,-0.39349365234375,-0.00201416015625,0.92095947265625,4.373931884765625,-4.762725830078125,1.256103515625,1,1.0,1.0,1.0,1.0,45.00
2021-04-13 08:50:25.183,0.43547598,0.066795886,0.35401118,0.5012507,0.31293842,-0.38298583,-0.30346483,-0.08082758,0.78408563,-0.34033304,-0.10459094,0.4753883,0.22648367,-0.23411655,-0.08653022,0.20439564,-0.10652829,-0.55311984,-0.5353197,-0.1544873,807.0696,805.05493,799.41394,805.8608,720.0366,-0.38604736328125,0.0015869140625,0.919677734375,4.628143310546875,-4.972076416015625,1.03179931640625,1,1.0,1.0,1.0,1.0,45.00
2021-04-13 08:50:25.687,0.5432873,0.0018112838,0.11832916,0.7132182,0.32153922,-0.25344503,-0.2550115,0.13412999,0.77595526,0.041030306,0.30907768,0.79346347,0.23954225,-0.18629153,-0.1420794,0.19565523,-0.11129528,-0.460635,-0.49052727,-0.18274228,794.17584,790.54944,794.17584,794.57874,695.8608,-0.38531494140625,-8.544921875E-4,0.922119140625,4.23187255859375,-4.23187255859375,1.6448974609375,1,1.0,1.0,1.0,1.0,45.00
2021-04-13 08:50:26.223,0.5540715,0.21547653,0.28294435,0.7344212,0.37885165,-0.031017503,0.005728287,0.40521058,0.8431711,0.13473162,0.31789133,0.93116176,0.30443597,-0.15844539,-0.13225506,0.19811513,-0.13954586,-0.42988342,-0.497445,-0.2651767,795.38464,793.36993,798.20514,803.44324,680.14655,-0.38641357421875,-0.002197265625,0.9193115234375,4.306640625,-4.59075927734375,0.478515625,1,1.0,1.0,1.0,1.0,45.00
2021-04-13 08:50:26.733,0.6983421,0.2808621,0.394486,0.86220723,0.40384337,-0.0025159854,0.115866,0.4323898,0.84583277,0.13473162,0.34033266,0.93281806,0.289532,-0.13254261,-0.14269854,0.23286636,-0.09172027,-0.4529449,-0.45872822,-0.26251334,819.9634,797.8022,786.1172,824.7985,880.0,-0.3880615234375,2.44140625E-4,0.923583984375,4.83001708984375,-4.9346923828125,0.97198486328125,1,1.0,1.0,1.0,1.0,45.00
2021-04-13 08:50:27.257,0.7985818,0.2586118,0.5480405,0.944134,0.5099007,-0.034387797,0.16750832,0.5238442,0.84583277,0.08896903,0.1902539,0.8924821,0.32053068,-0.17035758,-0.1896247,0.265765,-0.03548936,-0.4443531,-0.37946582,-0.28344294,801.4286,801.4286,801.02563,801.4286,850.18317,-0.39678955078125,-0.00250244140625,0.92095947265625,4.66552734375,-4.56085205078125,1.2860107421875,1,1.0,1.0,1.0,1.0,45.00
2021-04-13 08:50:27.806,0.47199515,0.04757912,0.5342974,0.7915139,0.09609231,-0.28019118,0.092198566,0.37499368,0.4526867,-0.28692073,-0.019665401,0.5210061,0.24559945,-0.1702316,-0.30755872,0.20174764,-0.044300336,-0.49669066,-0.3965471,-0.3262339,808.2784,798.60803,799.011,806.26373,952.9304,-0.3770751953125,-0.005615234375,0.92877197265625,4.71038818359375,-5.36834716796875,0.770111083984375,1,1.0,1.0,1.0,1.0,45.00
2021-04-13 08:50:28.318,0.009518538,-0.16824113,0.44063932,0.51222473,-0.19570217,-0.21322596,-0.011494581,0.1651026,0.09054828,-0.124908574,-0.22315308,0.36050183,0.25351727,-0.20809925,-0.27147862,0.104782745,-0.16160755,-0.47500288,-0.5443066,-0.39497992,813.1135,801.8315,800.2198,807.47253,721.6484,-0.3890380859375,-0.00286865234375,0.92352294921875,4.44122314453125,-4.867401123046875,1.15142822265625,1,1.0,1.0,1.0,1.0,45.00
2021-04-13 08:50:28.859,0.04490959,-0.22858179,-0.038584083,0.022995213,-0.025581188,-0.21143535,-0.30419335,-0.18250927,0.3551915,-0.10607524,0.020693934,0.29365078,0.26206815,-0.22931415,-0.17230684,0.061561096,-0.13142207,-0.52065134,-0.59438187,-0.33959866,802.23444,794.17584,792.5641,799.81683,697.0696,-0.3756103515625,0.003662109375,0.92974853515625,4.94964599609375,-4.373931884765625,0.95703125,1,1.0,1.0,1.0,1.0,45.00
2021-04-13 08:50:29.373,0.17644426,-0.1510497,-0.32744914,0.041014645,0.28796867,-0.084553346,-0.51446164,-0.00604149,0.5099971,0.018646337,0.09951541,0.21223418,0.18205528,-0.31956676,-0.12786257,0.03661387,-0.070192225,-0.54442376,-0.44993818,-0.4139551,799.81683,798.20514,801.02563,792.5641,817.1429,-0.37744140625,-0.00177001953125,0.93231201171875,5.151519775390625,-4.508514404296875,1.652374267578125,1,1.0,1.0,1.0,1.0,45.00
2021-04-13 08:50:29.908,0.16618425,-0.15327103,-0.015045799,0.07853783,0.4636743,-0.07355683,-0.525543,0.22800462,0.80094355,0.0630935,0.10089516,0.71689564,0.16806246,-0.32556456,-0.19307092,0.08632176,-0.023861026,-0.61958086,-0.4450353,-0.44271094,777.6557,799.81683,790.54944,773.22345,807.8755,-0.3837890625,-9.765625E-4,0.929931640625,4.702911376953125,-5.106658935546875,0.575714111328125,1,1.0,1.0,1.0,1.0,45.00
2021-04-13 08:50:30.448,0.42423728,-0.15901864,0.03087113,0.5980516,0.4982467,-0.07531093,-0.5101593,0.3404729,1.0151695,0.12422102,0.029149368,0.81943315,0.10372262,-0.25220197,-0.2576359,0.19894744,-0.0276955,-0.66203773,-0.48636258,-0.46367455,817.1429,793.7729,797.8022,808.2784,681.3553,-0.37646484375,-0.0018310546875,0.93035888671875,4.942169189453125,-4.209442138671875,1.592559814453125,1,1.0,1.0,1.0,1.0,45.00
2021-04-13 08:50:30.959,0.5379626,-0.2283428,0.23270814,0.9174847,0.38844538,-0.17985527,-0.2851552,0.23128931,0.99917877,0.16726288,0.17508905,0.80850506,0.14117157,-0.2493176,-0.23550433,0.27271175,-0.097113505,-0.6256204,-0.49181244,-0.26071167,819.5604,798.60803,802.23444,806.6667,798.60803,-0.3878173828125,-6.103515625E-4,0.923583984375,4.508514404296875,-3.895416259765625,1.158905029296875,1,1.0,1.0,1.0,1.0,45.00
2021-04-13 08:50:31.513,0.49799317,-0.22153106,0.18257998,0.9060554,0.2057066,-0.30842644,-0.29852974,0.07776088,0.99351966,0.12999922,0.17596841,0.8045568,0.09185705,-0.23222126,-0.20387694,0.27462026,-0.040086288,-0.597491,-0.43822318,-0.18481351,832.0513,809.89014,805.4579,819.9634,714.7985,-0.3946533203125,-0.00140380859375,0.92083740234375,4.68048095703125,-4.42626953125,0.7476806640625,1,1.0,1.0,1.0,1.0,45.00
2021-04-13 08:50:32.037,-0.22199361,-0.33005846,0.23168501,0.65591526,0.039045915,-0.5248332,-0.19864938,-0.02232148,0.39181218,0.10578651,0.17596841,0.44647932,0.3114409,-0.20898376,-0.2543352,0.19899532,-0.02084051,-0.6377412,-0.51787055,-0.14505617,804.2491,798.20514,800.2198,814.7253,1079.4506,-0.392333984375,-0.0015869140625,0.92236328125,4.987030029296875,-4.388885498046875,0.58319091796875,1,1.0,1.0,1.0,1.0,45.00
2021-04-13 08:50:32.567,-0.2897752,-0.36191013,0.0013182741,0.14318392,-0.044468552,-0.7487651,-0.28185433,0.006816529,0.446829,-0.062328875,0.09025236,0.4278337,0.32124403,-0.18034463,-0.23843068,0.20490041,-0.057045706,-0.6666422,-0.55406004,-0.12763691,812.71063,800.2198,806.26373,808.68134,639.0476,-0.40093994140625,0.004638671875,0.9228515625,4.478607177734375,-4.269256591796875,2.295379638671875,1,1.0,1.0,1.0,1.0,45.00
2021-04-13 08:50:33.083,-0.27787182,-0.28083885,-0.10908333,0.2014808,-0.10600479,-0.7217138,-0.24961011,0.042599566,0.32955715,-0.010716901,0.14729598,0.38737693,0.33606076,-0.13810794,-0.18073565,0.22158496,-0.14239247,-0.6627208,-0.5450707,-0.15153009,805.05493,799.011,811.50183,807.47253,772.01465,-0.39910888671875,0.00213623046875,0.916748046875,4.299163818359375,-4.725341796875,0.0299072265625,1,1.0,1.0,1.0,1.0,45.00
2021-04-13 08:50:33.590,-0.16912797,-0.2628112,-0.2765942,0.066313505,0.19912307,-0.5522592,-0.27697057,-0.008888341,0.5123625,-0.002448798,0.28767225,0.3183869,0.2794445,-0.10033743,-0.10145913,0.20197849,-0.09944104,-0.6561538,-0.44139597,-0.15020543,799.41394,796.5934,803.44324,803.8461,720.4396,-0.40753173828125,-2.44140625E-4,0.9178466796875,4.613189697265625,-5.15899658203125,1.15142822265625,1,1.0,1.0,1.0,1.0,45.00
2021-04-13 08:50:34.135,-0.14845914,-0.31652722,-0.20037669,0.08052067,0.24852793,-0.57669103,-0.286826,0.09203013,0.6042842,-0.008537132,0.2735659,0.36346573,0.3266048,-0.06169423,-0.13119635,0.11863076,-0.13372882,-0.61215705,-0.40734893,-0.17357244,815.9341,809.89014,801.8315,808.2784,722.4542,-0.40643310546875,-0.00164794921875,0.91278076171875,4.777679443359375,-4.77020263671875,1.62994384765625,1,1.0,1.0,1.0,1.0,45.00
2021-04-13 08:50:34.638,-0.19319747,-0.21334104,-0.245546,0.08256683,0.2813343,-0.55183893,-0.4143014,0.1256217,0.6307177,-0.06551053,0.13253883,0.36377966,0.32246718,-0.07571583,-0.12583743,0.07987067,-0.0925312,-0.6092272,-0.28910014,-0.10212895,787.72894,798.60803,800.2198,793.7729,769.59705,-0.4083251953125,-0.00372314453125,0.91448974609375,4.83001708984375,-4.306640625,1.1663818359375,1,1.0,1.0,1.0,1.0,45.00
2021-04-13 08:50:35.166,0.36646646,0.09823935,-0.16366711,0.48917055,0.11779376,-0.5535326,-0.50389785,0.15699558,0.66613746,0.0108608175,0.07262747,0.7020143,0.26154062,-0.14117967,-0.104213685,0.16195898,-0.16159758,-0.54424894,-0.3154729,-0.14015596,819.9634,802.6374,802.23444,817.9487,707.1429,-0.40594482421875,-0.00299072265625,0.9171142578125,4.94964599609375,-5.779571533203125,1.1663818359375,1,1.0,1.0,1.0,1.0,45.00
2021-04-13 08:50:35.682,0.4961322,0.34251544,-0.2539238,0.58846384,0.2539681,-0.11832425,-0.5278187,0.21727836,0.69226766,0.034351364,0.04425637,0.731929,0.165871,-0.11369931,-0.0783143,0.2790916,-0.13165547,-0.53821254,-0.40810707,-0.2065849,820.3663,792.5641,802.23444,810.696,645.89746,-0.39886474609375,3.0517578125E-4,0.91741943359375,4.62066650390625,-5.9814453125,0.605621337890625,1,1.0,1.0,1.0,1.0,45.00
2021-04-13 08:50:36.211,0.57451737,0.34986925,-0.24130148,0.6158353,0.35818374,-0.04404445,-0.42341095,0.2390161,0.6648817,-0.053111095,0.012867689,0.731929,0.41610456,0.029332602,-0.0880035,0.44676587,0.08386379,-0.18281852,-0.37759167,0.18851751,803.8461,804.65204,808.68134,802.6374,706.7399,-0.39056396484375,-8.544921875E-4,0.92169189453125,4.7552490234375,-5.301055908203125,0.770111083984375,1,1.0,1.0,1.0,1.0,45.00
2021-04-13 08:50:36.726,0.6212667,0.48092297,-0.12714373,0.45230478,0.66444993,0.06588725,-0.45048666,0.31428826,0.5755826,0.07976458,0.14194244,0.6868661,0.46250635,0.19651876,-0.13542087,0.46785963,0.3536426,0.08794145,-0.22691625,0.46799716,813.5165,817.9487,807.0696,816.337,697.8755,-0.4056396484375,0.00567626953125,0.91009521484375,5.959014892578125,-3.87298583984375,2.026214599609375,1,1.0,1.0,1.0,1.0,45.00
2021-04-13 08:50:37.254,0.74123496,0.8788832,0.4354025,0.48961756,0.5741938,0.11935898,-0.19378996,0.27996427,0.83898205,0.36127293,0.1527835,0.45657754,0.4271171,0.23436408,-0.05301217,0.4654888,0.3763023,0.124576256,-0.1551378,0.5960617,800.6227,813.91943,788.5348,794.57874,758.315,-0.40167236328125,0.00323486328125,0.91229248046875,4.5159912109375,-5.72723388671875,0.381317138671875,1,1.0,1.0,1.0,1.0,45.00
2021-04-13 08:50:37.776,0.9347897,1.0319138,0.629014,0.67930144,0.5356076,0.28941593,-0.096958436,0.2821853,0.85156643,0.39785588,0.18831776,0.60725915,0.26527134,0.09252987,-0.016499959,0.36827475,0.2886752,-0.081379935,-0.3042775,0.48655903,811.9048,809.89014,799.41394,819.9634,735.7509,-0.420654296875,0.01513671875,0.90948486328125,4.74029541015625,-4.867401123046875,1.143951416015625,1,1.0,1.0,1.0,1.0,45.00
2021-04-13 08:50:38.301,0.9510979,0.97425556,0.63544697,0.74434394,0.19359714,0.27441078,-0.04512807,0.22756281,0.8053491,0.40282884,0.16586046,0.68961257,0.22553009,-0.13807921,0.0059707384,0.32015473,0.13817036,-0.5677002,-0.372355,0.32475957,795.78754,793.7729,809.89014,805.05493,809.0842,-0.409912109375,0.0052490234375,0.91583251953125,5.016937255859375,-4.448699951171875,1.846771240234375,1,1.0,1.0,1.0,1.0,45.00
2021-04-13 08:50:38.819,0.81582075,0.593925,0.4550249,0.69643676,0.2393687,0.13997313,-0.18152691,0.20422512,0.7964159,0.33437687,0.2074725,0.6884863,0.2093596,-0.27547398,-0.059837554,0.25318593,0.085971706,-0.5025333,-0.5248304,-0.019644018,814.3223,810.696,805.05493,812.3077,850.989,-0.41522216796875,0.00311279296875,0.9139404296875,4.605712890625,-6.676788330078125,1.682281494140625,1,1.0,1.0,1.0,1.0,45.00
2021-04-13 08:50:39.343,0.55447924,0.52891654,0.18086728,0.5122584,0.14196482,-0.037450712,-0.26769423,0.20001404,0.47034886,0.17785,0.0902298,0.5932701,0.17806418,-0.25568888,-0.10736333,0.20526096,0.033850763,-0.5365458,-0.553661,-0.22391915,809.4872,804.65204,805.8608,803.8461,756.30035,-0.4171142578125,0.0052490234375,0.91162109375,4.5458984375,-3.768310546875,1.099090576171875,1,1.0,1.0,1.0,1.0,45.00
2021-04-13 08:50:39.853,0.34332192,0.4641852,0.03095563,0.30736864,0.105336316,-0.13448894,-0.26091802,0.2971061,0.40955266,0.017810792,0.0060765524,0.41013098,0.21957701,-0.22576901,-0.13077675,0.12808138,-0.03882422,-0.5856458,-0.63799435,-0.18907246,803.0403,793.36993,799.41394,805.8608,784.5055,-0.40924072265625,1.8310546875E-4,0.91314697265625,5.241241455078125,-5.24871826171875,1.428070068359375,1,1.0,1.0,1.0,1.0,45.00
2021-04-13 08:50:40.364,0.2577581,0.2971316,-0.16178343,0.27529258,0.15912262,-0.29712728,-0.31872922,0.32614884,0.7893384,0.16168258,-0.066184506,0.6645994,0.21505348,-0.26225775,-0.10663035,0.18748711,-0.16772611,-0.67960286,-0.5740983,-0.2434303,808.68134,808.68134,803.8461,812.3077,809.89014,-0.41412353515625,0.0015869140625,0.90936279296875,4.74029541015625,-5.704803466796875,0.919647216796875,1,1.0,1.0,1.0,1.0,45.00
2021-04-13 08:50:40.868,-0.14407235,-0.036037933,-0.17793572,0.13846157,0.2104512,-0.3218666,-0.34066513,0.33730045,0.8857302,0.13740431,-0.036987666,0.74989307,0.20321715,-0.19675614,-0.14147843,0.22312671,-0.219139,-0.6529538,-0.5592824,-0.32850635,796.99634,800.6227,793.7729,800.6227,690.2198,-0.40704345703125,4.2724609375E-4,0.91680908203125,4.508514404296875,-5.562744140625,1.31591796875,1,1.0,1.0,1.0,1.0,45.00
2021-04-13 08:50:41.389,-0.03650278,-0.075153366,0.079943314,0.27070326,0.23481962,-0.31163535,-0.117146134,0.49258623,0.9021446,0.1971579,0.047454864,0.8025194,0.2551412,-0.099226065,-0.15373997,0.32451388,-0.17837471,-0.6396945,-0.540654,-0.42471024,810.696,792.96704,813.1135,809.0842,744.21246,-0.4056396484375,-0.00177001953125,0.91558837890625,4.7552490234375,-4.867401123046875,1.831817626953125,1,1.0,1.0,1.0,1.0,45.00
2021-04-13 08:50:41.934,0.19763052,0.06828809,0.17866232,0.28256154,0.20835476,-0.034755792,0.11881769,0.46994802,0.88387245,0.36485437,0.09374189,0.80186725,0.29212528,5.102202E-4,-0.2172065,0.27392718,-0.07978933,-0.63587856,-0.64694816,-0.35259643,800.2198,803.0403,803.0403,813.5165,748.6447,-0.40899658203125,-8.544921875E-4,0.9105224609375,5.166473388671875,-3.760833740234375,0.64300537109375,1,1.0,1.0,1.0,1.0,45.00
2021-04-13 08:50:42.454,0.49457967,0.22391902,0.23001876,0.54141617,0.39720443,0.079113916,0.19197771,0.44616342,0.89725363,0.36688235,0.076321185,0.8131145,0.27580598,-0.025823893,-0.15485685,0.24504131,-0.0772248,-0.68627614,-0.6772496,-0.29195836,823.5897,798.60803,809.0842,824.7985,738.5714,-0.40789794921875,-0.00164794921875,0.912109375,4.7552490234375,-4.074859619140625,1.517791748046875,1,1.0,1.0,1.0,1.0,45.00
2021-04-13 08:50:42.972,0.5542406,0.22003873,0.047455013,0.5300089,0.38600147,0.006146721,0.04057228,0.2524234,0.6988298,0.25499263,-0.1555077,0.8292095,0.21443754,-0.108259924,-0.11201555,0.20060219,-0.06346007,-0.65769607,-0.51349217,-0.17331867,802.6374,799.41394,801.4286,820.3663,757.9121,-0.4088134765625,0.001220703125,0.91485595703125,4.7552490234375,-4.194488525390625,0.770111083984375,1,1.0,1.0,1.0,1.0,45.00
2021-04-13 08:50:43.514,0.45890325,0.04891921,-0.123683505,0.5128769,0.3601287,-0.17864746,-0.22850186,0.3442469,0.7303676,0.14969927,-0.04965408,0.82841706,0.20193224,-0.228748,-0.011556791,0.3011509,-0.0045901923,-0.65980935,-0.42111325,-0.11592422,815.12823,809.0842,805.05493,804.65204,654.35895,-0.4208984375,-9.1552734375E-4,0.901123046875,4.5458984375,-4.41131591796875,0.55328369140625,1,1.0,1.0,1.0,1.0,45.00
2021-04-13 08:50:44.034,0.08893009,-0.030588355,-0.20711023,0.30534053,0.33863753,-0.21281745,-0.57608664,0.43773437,0.70383507,-0.09618352,0.025041515,0.82937247,0.25082687,-0.35156026,-0.014232276,0.33970773,-0.011167379,-0.6840102,-0.46528706,-0.17092966,812.71063,807.47253,801.4286,805.8608,776.8498,-0.4188232421875,0.0010986328125,0.90985107421875,4.747772216796875,-4.852447509765625,0.85235595703125,1,1.0,1.0,1.0,1.0,45.00
2021-04-13 08:50:44.568,-0.097828746,0.029433573,-0.22227915,0.20765638,0.31440547,-0.14639348,-0.49275538,0.40114394,0.61999124,-0.088734046,0.05354661,0.7124565,0.2016379,-0.3832593,-0.032105286,0.32347798,-0.08727743,-0.70883703,-0.59151715,-0.31708285,813.91943,803.8461,803.44324,818.3516,765.9707,-0.41900634765625,0.00445556640625,0.90802001953125,4.882354736328125,-4.747772216796875,0.829925537109375,1,1.0,1.0,1.0,1.0,45.00
2021-04-13 08:50:45.082,-0.11939152,-0.016329776,-0.20036349,0.21278915,0.25384146,-0.24379547,-0.42261586,0.3725964,0.5760322,-0.101455614,0.030793242,0.43474185,0.18696313,-0.17988184,-0.03379425,0.21882719,-0.15191492,-0.70287585,-0.6652343,-0.35692015,803.8461,799.81683,802.6374,809.4872,737.3626,-0.4154052734375,0.00836181640625,0.9154052734375,5.09918212890625,-5.181427001953125,-0.0897216796875,1,1.0,1.0,1.0,1.0,45.00
2021-04-13 08:50:45.617,-0.25067934,-0.06422676,-0.3505239,-0.0021321934,-0.05967038,-0.46814182,-0.37110186,0.27309287,0.51384395,-0.3892499,0.016981697,0.44606653,0.20509443,-0.07121955,-0.11791608,0.20789388,-0.084686846,-0.6155996,-0.58182526,-0.17505832,803.0403,801.8315,801.4286,805.05493,723.2601,-0.42364501953125,-6.103515625E-4,0.9068603515625,4.42626953125,-4.702911376953125,0.246734619140625,1,1.0,1.0,1.0,1.0,45.00
2021-04-13 08:50:46.134,-0.11945226,-0.1341162,-0.24935436,-0.004544235,0.11006241,-0.35661578,-0.35659266,0.29761153,0.519276,-0.14552997,-0.050951052,0.5620228,0.2935257,-0.025889149,-0.11545399,0.22753866,-0.019941833,-0.5745167,-0.64124656,-0.15092382,808.2784,798.20514,797.8022,797.8022,772.4176,-0.42608642578125,-0.00262451171875,0.911376953125,4.5458984375,-4.702911376953125,0.560760498046875,1,1.0,1.0,1.0,1.0,45.00
2021-04-13 08:50:46.647,0.010633695,-0.10255424,-0.20223498,-0.020063158,0.09017998,-0.18414819,-0.41361493,0.2910044,0.62188685,-0.12423259,-0.0025103611,0.69435054,0.33070874,-0.046128232,-0.1470577,0.27228794,-0.022999125,-0.5773522,-0.62574583,-0.1743996,798.20514,800.2198,799.81683,796.99634,762.74725,-0.4232177734375,-0.0050048828125,0.9130859375,4.673004150390625,-4.269256591796875,1.338348388671875,1,1.0,1.0,1.0,1.0,45.00
2021-04-13 08:50:47.164,0.86444265,-0.073582575,-0.022328174,0.6972268,0.15662332,-0.18450372,-0.47698548,0.33355114,0.6243493,-0.060738202,0.14058718,0.7109647,0.4496458,-0.101055324,-0.06862514,0.3597513,0.011000701,-0.6287688,-0.6380355,-0.30445695,807.8755,804.2491,808.68134,808.2784,780.4762,-0.417236328125,-0.00506591796875,0.908203125,4.433746337890625,-4.583282470703125,1.173858642578125,1,1.0,1.0,1.0,1.0,45.00
2021-04-13 08:50:47.674,1.0298077,0.18827878,0.09387575,0.9191491,0.05654552,-0.25358933,-0.32808718,0.36841533,0.6049584,0.03722095,0.08869417,0.73905325,0.49665228,-0.10426766,-0.08957383,0.36623424,0.025346443,-0.6617258,-0.50708514,-0.19118345,803.0403,794.9817,804.2491,813.1135,786.52014,-0.41290283203125,1.220703125E-4,0.9144287109375,5.091705322265625,-5.719757080078125,-0.082244873046875,1,1.0,1.0,1.0,1.0,45.00
2021-04-13 08:50:48.199,1.0718143,0.4532044,0.19214785,1.0310075,0.26848915,-0.35367626,-0.13310933,0.5090262,0.5577651,0.07937121,0.08770294,0.75236064,0.44881287,-0.09271557,-0.10328898,0.30297923,0.040253695,-0.5231714,-0.4938566,-0.041929647,813.1135,815.5311,788.93774,805.05493,666.8498,-0.4178466796875,-0.00335693359375,0.9102783203125,4.74029541015625,-5.00946044921875,0.740203857421875,1,1.0,1.0,1.0,1.0,45.00
2021-04-13 08:50:48.740,0.6098248,0.536495,0.20064996,0.9350138,0.41770926,-0.19615698,0.07424501,0.5937121,0.43613717,0.10095268,0.2051311,0.6463052,0.1880767,-0.09198184,-0.12551506,0.23472792,-0.034621637,-0.4941593,-0.5282577,-0.08248851,809.4872,803.0403,801.02563,807.47253,737.76556,-0.41900634765625,-0.00543212890625,0.9039306640625,4.224395751953125,-6.56463623046875,0.059814453125,1,1.0,1.0,1.0,1.0,45.00
2021-04-13 08:50:49.263,0.6098248,0.5286697,0.22828159,1.1303371,0.41770926,-0.083999336,0.1286731,0.49440792,0.43613717,0.08934167,0.24326442,0.6987807,0.1880767,-0.16221756,-0.08885867,0.30187324,-0.034621637,-0.4903313,-0.691511,-0.2690968,803.8461,799.81683,796.99634,801.4286,689.81683,-0.4139404296875,-3.662109375E-4,0.915771484375,6.287994384765625,-4.53094482421875,1.375732421875,1,1.0,1.0,1.0,1.0,45.00
2021-04-13 08:50:49.787,0.49029166,0.437279,0.14659365,1.0704992,0.24567448,-0.083728194,0.12314997,0.32862192,0.48565945,-0.15111083,0.24423909,0.7011105,0.15169708,-0.05532542,-0.12961885,0.24913016,-0.20438685,-0.61331797,-0.69815254,-0.4613718,805.8608,800.2198,794.57874,805.8608,742.1978,-0.40960693359375,-8.544921875E-4,0.91290283203125,4.373931884765625,-4.306640625,0.55328369140625,1,1.0,1.0,1.0,1.0,45.00
2021-04-13 08:50:50.317,0.11564224,0.22161649,-0.06855738,0.84902227,0.113930136,-0.16068475,-0.10118838,0.037175044,0.5067597,-0.15515767,0.1397869,0.5847448,0.09986681,-0.055105053,-0.12804136,0.23263404,-0.24435806,-0.6337281,-0.64106596,-0.39366353,806.6667,803.0403,806.6667,811.0989,751.06226,-0.41558837890625,-0.00531005859375,0.9130859375,4.358978271484375,-4.732818603515625,0.95703125,1,1.0,1.0,1.0,1.0,45.00
2021-04-13 08:50:50.829,0.2136854,0.14387083,-0.270076,0.20078684,0.17453533,-0.27133188,-0.29462343,0.23891558,0.5791132,-0.18126065,-0.07350445,0.5985307,0.09844099,-0.083348855,-0.21520151,0.1059245,-0.30845785,-0.63364196,-0.5517918,-0.38851812,804.65204,800.2198,803.44324,805.4579,722.0513,-0.40325927734375,-0.00732421875,0.912841796875,4.605712890625,-5.084228515625,0.800018310546875,1,1.0,1.0,1.0,1.0,45.00
2021-04-13 08:50:51.342,0.22253755,0.06859218,-0.16708854,0.37587225,0.2739699,-0.17019948,-0.52092713,0.36947596,0.7468008,-0.07546244,-0.16632748,0.6955049,0.034254476,-0.29384446,-0.09364988,0.07819277,-0.2044595,-0.61926365,-0.5056602,-0.33407256,815.5311,801.02563,800.6227,807.47253,853.8095,-0.39990234375,-0.00244140625,0.9163818359375,4.964599609375,-4.6954345703125,0.964508056640625,1,1.0,1.0,1.0,1.0,45.00
2021-04-13 08:50:51.875,0.1501178,0.1376939,-0.14263266,0.41897953,0.2948427,-0.19229567,-0.57276076,0.26788616,0.73108375,-0.07599469,-0.20268464,0.6860768,0.12509495,-0.3245583,-0.12697338,-0.018321432,-0.2151483,-0.5865076,-0.49693123,-0.3862667,805.4579,795.38464,799.011,797.3993,723.2601,-0.39752197265625,-0.00250244140625,0.918701171875,4.583282470703125,-5.93658447265625,1.577606201171875,1,1.0,1.0,1.0,1.0,45.00
2021-04-13 08:50:52.405,0.17916237,-0.06124091,-0.18720904,0.3161406,0.32974693,-0.22990994,-0.48213637,0.044655822,0.76368594,-0.12435595,-0.19985414,0.64995974,0.18469855,-0.25272748,-0.0836008,0.1258237,-0.12312353,-0.57294416,-0.49563083,-0.2624378,801.4286,792.96704,794.9817,799.011,775.2381,-0.40509033203125,-0.004638671875,0.9200439453125,4.3365478515625,-4.433746337890625,1.4654541015625,1,1.0,1.0,1.0,1.0,45.00
2021-04-13 08:50:52.948,0.30163652,-0.08184089,-0.28445098,0.44799405,0.40764156,-0.27376604,-0.29119304,0.019022139,0.7107356,-0.19102554,0.068210356,0.712777,0.30085933,-0.198565,-0.147683,0.23121397,-0.12162077,-0.52960986,-0.53257996,-0.2688783,805.05493,799.41394,804.65204,815.12823,717.2161,-0.39593505859375,-0.00115966796875,0.92059326171875,4.53094482421875,-4.14215087890625,1.697235107421875,1,1.0,1.0,1.0,1.0,45.00
2021-04-13 08:50:53.455,0.45392242,-0.18306619,-0.27690914,0.5495322,0.42821133,-0.22891173,-0.22973816,0.13144808,0.7401019,-0.26058367,0.15281346,0.712777,0.36954662,-0.10307394,-0.08184432,0.3405393,-0.14185818,-0.58329254,-0.6484472,-0.23008148,811.0989,800.6227,797.8022,804.2491,733.73627,-0.405517578125,-0.00537109375,0.9193115234375,4.762725830078125,-4.508514404296875,1.51031494140625,1,1.0,1.0,1.0,1.0,45.00
2021-04-13 08:50:54.001,0.34388816,-0.20765948,-0.24676317,0.47067642,0.38972044,-0.26824653,-0.26085922,0.08905838,0.7397346,-0.08485283,0.23508006,0.7573113,0.31877828,-0.11307939,-0.10231776,0.30169797,-0.14641449,-0.5944865,-0.70167255,-0.33760568,801.8315,793.36993,813.1135,809.89014,724.0659,-0.40887451171875,-0.0040283203125,0.9146728515625,4.568328857421875,-4.059906005859375,0.897216796875,1,1.0,1.0,1.0,1.0,45.00
2021-04-13 08:50:54.512,0.21564303,0.013069925,0.14960317,-0.07714622,0.3082471,-0.17187533,-0.26743588,0.040135074,0.67228395,0.19845745,0.23370136,0.6638504,0.16725135,-0.20974076,-0.10532307,0.2565237,-0.13258988,-0.6011005,-0.67104006,-0.31888214,810.293,802.6374,801.02563,808.68134,695.8608,-0.40576171875,-0.0050048828125,0.91864013671875,4.5159912109375,-4.358978271484375,0.979461669921875,1,1.0,1.0,1.0,1.0,45.00
2021-04-13 08:50:55.014,0.12542175,0.16023709,0.5368052,-0.335621,0.19508815,-0.13800636,-0.032000724,0.039967958,0.5371879,0.2281008,0.20960523,0.6651874,0.044657942,-0.20124464,-0.11383763,0.18704942,-0.14604935,-0.51881766,-0.46867275,-0.28936926,809.0842,803.8461,795.38464,808.68134,774.0293,-0.41455078125,-0.0040283203125,0.90899658203125,4.74029541015625,-3.69354248046875,0.366363525390625,1,1.0,1.0,1.0,1.0,45.00
2021-04-13 08:50:55.540,0.28563368,0.23397002,0.8135807,0.31804958,0.06750583,-0.03301807,0.16201696,0.26118156,0.5442896,0.2252366,0.11245273,0.67011076,0.19296254,-0.19717556,-0.044366308,0.12905717,-0.12819758,-0.50251645,-0.4199526,-0.19217071,770.80585,788.5348,789.34064,766.3736,731.31866,-0.4071044921875,-0.0074462890625,0.908935546875,4.493560791015625,-4.687957763671875,0.874786376953125,1,1.0,1.0,1.0,1.0,45.00
2021-04-13 08:50:56.082,0.461139,0.25762403,0.7894334,0.5645409,-0.0088542225,-0.12962322,0.14547344,0.32347357,0.49216,0.090476744,0.015720233,0.55382806,0.22686191,-0.21110377,-0.07943326,0.059604686,-0.1156834,-0.5167897,-0.39957735,-0.18703116,801.02563,801.4286,792.1612,805.8608,683.36993,-0.4195556640625,-0.00689697265625,0.90704345703125,4.83001708984375,-4.78515625,1.18133544921875,1,1.0,1.0,1.0,1.0,45.00
2021-04-13 08:50:56.622,0.5866597,0.25555483,0.61345035,0.78979737,-9.1981085E-4,-0.3105266,-0.06361547,0.46434623,0.9364959,-0.113849185,-0.006255469,0.7426912,0.36600867,-0.28238317,-0.14045592,0.15574266,-0.09366126,-0.64564914,-0.46817937,-0.18717843,809.0842,794.57874,799.011,812.3077,764.35895,-0.407470703125,-0.00189208984375,0.918212890625,4.306640625,-4.822540283203125,0.411224365234375,1,1.0,1.0,1.0,1.0,45.00
2021-04-13 08:50:57.129,0.51507705,0.18555628,0.056439504,0.60086197,0.18402891,-0.4135454,-0.41341093,0.21993928,0.91559947,-0.18987274,-0.019909788,0.7182414,0.30912894,-0.2837938,-0.2487,0.38244158,0.100690834,-0.57973695,-0.4609891,-0.32250667,804.2491,796.1905,800.2198,803.8461,591.50183,-0.4149169921875,-0.0067138671875,0.91064453125,4.598236083984375,-5.256195068359375,0.95703125,1,1.0,1.0,1.0,1.0,45.00
2021-04-13 08:50:57.644,0.06821314,-0.029829273,-0.031949062,0.29637125,0.37270388,-0.41873258,-0.58256686,0.15530932,0.91462487,-0.20859209,-0.21081321,0.758959,0.26091656,-0.290035,-0.24782623,0.3326184,9.165771E-4,-0.6168336,-0.45807818,-0.35902542,807.8755,798.60803,804.65204,805.4579,809.4872,-0.43646240234375,-0.010986328125,0.9052734375,-7.753448486328125,2.64678955078125,-4.127197265625,1,1.0,1.0,1.0,1.0,45.00
2021-04-13 08:50:58.179,0.028998645,-0.25255245,0.03357282,0.5639622,0.3584375,-0.36632684,-0.58173615,0.3062857,0.8988654,-0.13569583,-0.2942249,0.7975633,0.26651263,-0.26191604,-0.1879702,0.33947387,-0.049757116,-0.5545512,-0.5124003,-0.30661204,801.02563,811.0989,796.5934,797.3993,812.3077,-0.466552734375,-0.1336669921875,0.86981201171875,11.43951416015625,-9.94415283203125,2.429962158203125,1,1.0,1.0,1.0,1.0,45.00
2021-04-13 08:50:58.696,-0.025388777,-0.06486306,0.26236862,1.0663323,0.45953485,-0.20684138,-0.16048583,0.5821108,0.6349507,0.08225346,0.28190297,0.8781711,0.26465774,-0.34313655,-0.11360703,0.31353197,-0.24838443,-0.5932983,-0.49927077,-0.26021418,811.9048,797.8022,797.3993,802.6374,683.36993,-0.43682861328125,-0.02099609375,0.89739990234375,12.658233642578125,-17.473297119140625,8.949737548828125,1,1.0,1.0,1.0,1.0,45.00
2021-04-13 08:50:59.216,0.18583232,0.12411138,0.49645564,1.2502465,0.6765349,-0.0583309,0.05532029,0.7612445,0.6827027,0.1465258,0.29133952,0.8781711,0.4845934,-0.1259944,-0.058695152,0.34301195,0.06988984,-0.47410375,-0.45037085,-0.17019144,819.9634,774.83514,787.72894,803.8461,815.9341,-0.30926513671875,0.06475830078125,0.96051025390625,6.77398681640625,-15.71624755859375,16.07513427734375,1,1.0,1.0,1.0,1.0,45.00
2021-04-13 08:50:59.705,,,,,,,,,,,,,,,,,,,,,,,,,,,,,,,,,,,,,,/muse/elements/blink
2021-04-13 08:50:59.730,0.20873286,0.2817667,0.5701333,1.4448628,0.73104894,-0.031867087,0.15402022,0.9033652,0.69651544,0.1465258,0.29356483,0.8781711,0.86507225,-0.06824974,-0.063812815,0.31190383,0.36072835,-0.37082914,-0.3367889,-0.15468371,766.77655,745.0183,738.5714,762.74725,898.1319,-0.31646728515625,0.0223388671875,0.9466552734375,3.925323486328125,1.906585693359375,-3.7982177734375,1,1.0,1.0,1.0,1.0,45.00
2021-04-13 08:51:00.264,0.20873286,0.36646464,0.6024186,1.4448628,0.73104894,-0.001275871,0.1144388,0.9033652,0.69651544,0.058710113,0.22548285,0.8781711,0.86507225,0.055737235,-0.07102376,0.31190383,0.36072835,-0.27165234,-0.3102564,-0.15468371,823.9927,788.93774,807.47253,830.84247,825.6044,-0.41351318359375,0.0,0.9171142578125,5.809478759765625,5.585174560546875,-2.75146484375,1,1.0,1.0,1.0,1.0,45.00
2021-04-13 08:51:00.783,0.20873286,0.44927102,0.31337336,1.4448628,0.73104894,-0.11742639,-0.09844426,0.9033652,0.69651544,-0.065781,-0.01914957,0.8781711,0.86507225,0.014980939,-0.19123395,0.31190383,0.36072835,-0.17068443,-0.26256964,-0.15468371,807.8755,780.4762,827.2161,805.8608,694.65204,-0.4158935546875,0.0252685546875,0.91058349609375,5.6524658203125,-6.527252197265625,2.459869384765625,1,1.0,1.0,1.0,1.0,45.00
2021-04-13 08:51:01.291,0.7081318,0.44927102,0.75723743,0.7145898,0.27948815,-0.11742639,0.24548982,0.27139542,0.320495,-0.065781,0.03605462,0.1934557,0.5003915,0.014980939,-0.07077501,0.4820862,0.5020411,-0.17068443,-0.35874337,0.29078445,802.6374,823.5897,798.60803,806.6667,703.91943,-0.4366455078125,-0.00396728515625,0.88616943359375,4.3963623046875,-6.497344970703125,-2.325286865234375,1,1.0,1.0,1.0,1.0,45.00
2021-04-13 08:51:01.804,0.74758124,1.2367498,0.73753154,0.8054776,0.39583927,0.2800796,0.2028754,0.5110269,0.47888651,0.18584894,0.08027561,0.4654519,0.3803587,-0.11297217,0.06090898,0.35654122,0.28850058,-0.89548266,-0.26984966,0.13687038,824.3956,795.38464,805.05493,819.9634,764.35895,-0.41314697265625,0.00860595703125,0.91082763671875,4.687957763671875,-6.6693115234375,0.575714111328125,1,1.0,1.0,1.0,1.0,45.00
2021-04-13 08:51:02.334,0.85527617,1.291405,0.8015801,0.9075189,0.3261467,0.38482937,0.3735911,0.5273101,0.6721641,0.34559503,0.23543464,0.4680367,0.32898402,-0.07853915,0.022664234,0.33303475,0.15396662,-0.7011769,-0.3754102,0.08889562,811.0989,795.78754,799.81683,808.2784,760.7326,-0.3865966796875,0.012451171875,0.9228515625,4.844970703125,-6.736602783203125,1.188812255859375,1,1.0,1.0,1.0,1.0,45.00
2021-04-13 08:51:02.841,0.7926948,1.1641709,0.7007555,0.8776159,0.22255465,0.2595634,0.29048717,0.5275344,0.66815776,0.34559503,0.25650233,0.47356826,0.20825505,-0.072076,-0.012638586,0.25432426,-0.07095181,-0.5933915,-0.4183968,-0.1448705,828.022,806.6667,803.0403,817.5458,721.6484,-0.38861083984375,0.00616455078125,0.92523193359375,3.84307861328125,-5.12908935546875,0.059814453125,1,1.0,1.0,1.0,1.0,45.00
2021-04-13 08:51:03.362,0.60411686,0.91329366,0.48323503,0.60369533,0.093475044,0.1174293,0.16871999,0.30728486,0.80487615,0.3525617,0.24348147,0.5957411,0.19440793,-0.06651113,-0.14123204,0.24822158,-0.136686,-0.5463807,-0.55035394,-0.2645143,809.0842,801.02563,804.65204,801.8315,722.8571,-0.390869140625,-0.00616455078125,0.9171142578125,4.987030029296875,-4.23187255859375,0.79254150390625,1,1.0,1.0,1.0,1.0,45.00
2021-04-13 08:51:03.870,0.24355675,0.2847717,0.08386922,0.51305103,0.13382006,-0.28142095,-0.4154463,0.2544959,0.80487615,0.11766398,0.036691148,0.5608105,0.28839958,-0.12451244,-0.13152431,0.25950643,-0.12745818,-0.5124375,-0.4351651,-0.26384762,811.50183,800.2198,805.8608,802.23444,743.8095,-0.383544921875,0.0023193359375,0.9273681640625,4.91973876953125,-5.203857421875,1.09161376953125,1,1.0,1.0,1.0,1.0,40.00
2021-04-13 08:51:04.390,0.24019998,-0.0709503,0.02719997,0.44346428,0.36663935,-0.37474433,-0.49805728,0.3964206,0.81354487,0.11285732,-0.08084238,0.6039455,0.30765375,-0.14469668,-0.0930933,0.25862864,-0.15486942,-0.469296,-0.44059664,-0.27214226,794.17584,808.68134,792.96704,778.86444,708.7546,-0.39471435546875,-1.220703125E-4,0.918701171875,4.717864990234375,-4.0673828125,0.55328369140625,1,1.0,1.0,1.0,1.0,40.00
2021-04-13 08:51:04.896,0.46894598,0.19935432,0.1867657,0.67165905,0.44517094,-0.160005,-0.39050177,0.46179283,0.6634487,0.1496254,-0.25874093,0.6675888,0.3054822,-0.20816703,-0.034887355,0.33334646,-0.09925763,-0.39135155,-0.4548035,-0.2565725,817.9487,805.05493,804.2491,813.1135,754.2857,-0.394775390625,-0.0037841796875,0.92010498046875,4.493560791015625,-3.820648193359375,0.755157470703125,1,1.0,1.0,1.0,1.0,40.00
2021-04-13 08:51:05.399,0.41046038,0.36039272,0.23204026,0.70288813,0.42734745,-0.10228557,-0.34175906,0.40313724,0.79914856,0.08609976,-0.080844134,0.757802,0.2186716,-0.1749577,0.032383177,0.34681234,-0.07861363,-0.4427274,-0.48549518,-0.14195693,811.50183,801.02563,799.41394,804.2491,853.00366,-0.38958740234375,-0.00396728515625,0.92431640625,5.443115234375,-4.314117431640625,-0.037384033203125,1,1.0,1.0,1.0,1.0,40.00
2021-04-13 08:51:05.911,0.34856224,0.35620606,0.1919393,0.69779694,0.23998399,-0.06561164,-0.18424137,0.22429076,0.8079456,0.23490901,-0.06963309,0.7293721,0.24662645,-0.1313649,0.005657339,0.36225975,-0.119016014,-0.5889622,-0.5255653,-0.13366826,828.022,812.3077,792.5641,827.2161,697.47253,-0.404296875,-0.00482177734375,0.91241455078125,6.796417236328125,-4.3365478515625,-1.203765869140625,1,1.0,1.0,1.0,1.0,40.00
2021-04-13 08:51:06.454,0.52132994,0.4966365,0.07258107,0.7082003,0.19248325,-0.039901327,-0.119606785,0.090211645,0.7532065,0.22065397,-0.06891036,0.7657644,0.2640972,-0.09234409,0.007488885,0.29720291,-0.101127595,-0.5575358,-0.48067123,-0.16415645,807.0696,802.6374,804.65204,805.4579,675.7143,-0.38720703125,0.0068359375,0.92694091796875,5.3533935546875,-5.330963134765625,1.0467529296875,1,1.0,1.0,1.0,1.0,40.00
2021-04-13 08:51:06.962,0.59667516,0.4759782,-0.22936043,0.658457,0.2186196,-0.05162487,-0.1751159,0.212537,0.7481639,0.22414127,-0.073039845,0.78798276,0.21055874,-0.102532424,-0.0477233,0.29386437,-0.11736892,-0.4931311,-0.5470251,-0.31179267,760.7326,789.34064,815.12823,774.43225,770.80585,-0.412109375,0.01190185546875,0.9132080078125,4.5458984375,-2.6019287109375,1.33087158203125,1,1.0,1.0,1.0,1.0,40.00
2021-04-13 08:51:07.474,0.7265275,0.5718346,0.19045708,0.7539802,0.32234553,0.03656173,-0.17522484,0.25395873,0.7147209,0.14814149,0.025985738,0.73859054,0.19427837,-0.09568299,-0.039865617,0.25861746,-0.12520863,-0.39021784,-0.49662152,-0.35329205,799.011,809.0842,801.4286,799.81683,685.78754,-0.44757080078125,-0.0108642578125,0.89630126953125,4.792633056640625,-2.34771728515625,2.31781005859375,1,1.0,1.0,1.0,1.0,40.00
2021-04-13 08:51:07.979,0.52804184,0.49924928,0.45384732,0.58710235,0.20725341,-0.10297654,-0.12736885,0.27354774,0.61336356,0.08091639,0.15689838,0.7207827,0.12582585,-0.13445243,-0.07256799,0.2899952,-0.21035065,-0.43856925,-0.5103192,-0.34273404,824.7985,809.4872,791.3553,811.0989,799.011,-0.43695068359375,-4.8828125E-4,0.89898681640625,4.59075927734375,-6.4599609375,0.94207763671875,1,1.0,1.0,1.0,1.0,40.00
2021-04-13 08:51:08.484,1.0158901,0.6963081,0.7591569,0.7662223,0.8241784,0.31276876,0.16500096,0.5498265,0.67206186,0.30204013,0.27629933,0.34214878,0.23098022,-0.11531826,-0.06185375,0.3315628,-0.073569015,-0.45422652,-0.5108925,-0.04923868,807.8755,804.65204,804.65204,814.7253,724.4689,-0.4425048828125,-0.00439453125,0.89752197265625,4.852447509765625,-5.0543212890625,0.605621337890625,1,1.0,1.0,1.0,1.0,40.00
2021-04-13 08:51:08.988,0.8640235,0.6978467,0.79053783,0.6369349,0.6521904,0.31641182,0.15991408,0.400963,0.7184954,0.32943782,0.300162,0.28603342,0.22653078,-0.073265396,-0.07498099,0.35412306,-0.16280901,-0.5315497,-0.5292488,-0.070193835,803.44324,798.20514,804.65204,807.0696,719.6337,-0.442626953125,-0.001953125,0.8988037109375,4.5159912109375,-4.762725830078125,0.635528564453125,1,1.0,1.0,1.0,1.0,40.00
2021-04-13 08:51:09.496,0.7068169,0.58298814,0.6927499,0.55355936,0.50908357,0.29732656,0.13061514,0.25927052,0.7184954,0.32528713,0.2919125,0.4039946,0.20664425,0.029032588,-0.10186083,0.26619837,-0.20658758,-0.5674539,-0.5421545,-0.10046208,806.6667,802.6374,810.696,813.5165,847.3626,-0.43023681640625,-0.00250244140625,0.90338134765625,4.807586669921875,-5.7720947265625,1.697235107421875,1,1.0,1.0,1.0,1.0,40.00
2021-04-13 08:51:10.044,0.39670187,0.3254877,0.4315219,0.67287314,0.34476566,0.0776174,0.029836794,0.06875399,0.7727273,0.2436292,0.3129457,0.6499228,0.21655747,0.032399893,-0.17699745,0.22749203,-0.33127156,-0.55342656,-0.48539674,-0.17180677,772.8205,793.36993,809.0842,761.9414,802.6374,-0.4114990234375,0.02154541015625,0.91912841796875,14.54986572265625,-6.35528564453125,-6.160888671875,1,1.0,1.0,1.0,1.0,40.00
2021-04-13 08:51:10.588,0.853584,0.23833174,0.1866764,0.76924574,0.4695597,0.0024835728,0.029129114,0.08005839,0.81703156,0.1962304,0.25999457,0.6392376,0.2741395,-0.006414026,-0.1294294,0.15042585,-0.31255224,-0.49089968,-0.4542053,-0.18799752,807.47253,805.8608,803.8461,796.99634,734.5421,-0.442138671875,-0.00189208984375,0.9031982421875,3.84307861328125,-1.936492919921875,3.701019287109375,1,1.0,1.0,1.0,1.0,40.00
2021-04-13 08:51:11.115,1.0426787,0.45799652,0.14902711,0.9241111,0.6070975,-0.035207905,-0.085233465,0.27896118,0.81703156,0.18911864,0.31210995,0.65962374,0.32134402,-0.1314281,-0.18060505,0.23081568,-0.30532682,-0.4442597,-0.5146277,-0.23053327,819.15753,802.6374,805.8608,819.5604,704.7253,-0.4561767578125,4.8828125E-4,0.89739990234375,3.416900634765625,-4.11224365234375,1.89910888671875,1,1.0,1.0,1.0,1.0,40.00
2021-04-13 08:51:11.632,0.95647055,0.46326122,0.07223561,0.41469654,0.3945504,-0.17202006,-0.09070728,0.041790605,0.86201036,0.06504736,0.15423024,0.7162879,0.23506686,-0.19725855,-0.1466519,0.06993291,-0.25637174,-0.46420917,-0.5298959,-0.46128556,822.381,801.02563,802.6374,812.71063,713.1868,-0.447998046875,-0.0128173828125,0.8936767578125,4.127197265625,-5.39825439453125,0.70281982421875,1,1.0,1.0,1.0,1.0,40.00
2021-04-13 08:51:12.134,0.12162876,0.3745576,-0.0017570817,0.35132638,0.17569971,-0.19608173,-0.10922863,0.060005784,0.7537072,-0.08988479,0.17760567,0.71758944,0.23197669,-0.31507912,-0.09030404,0.18582326,-0.18116425,-0.53057027,-0.5252932,-0.35107937,829.2308,819.9634,795.78754,819.9634,829.2308,-0.4451904296875,-0.00811767578125,0.89764404296875,4.65057373046875,-3.94775390625,0.7476806640625,1,1.0,1.0,1.0,1.0,40.00
2021-04-13 08:51:12.648,0.36911258,0.25038993,0.0076454096,0.26056916,0.19001907,-0.16966017,-0.010032713,0.03748944,0.9164185,0.12933415,0.18568003,0.85226345,0.30693382,-0.18477988,0.011972317,0.24952453,-0.24904376,-0.649327,-0.5039025,-0.22240795,803.0403,809.89014,801.8315,800.2198,708.7546,-0.44390869140625,-0.00445556640625,0.8983154296875,4.762725830078125,-4.6356201171875,1.487884521484375,1,1.0,1.0,1.0,1.0,40.00
2021-04-13 08:51:13.188,0.56521845,0.35476202,-0.11489442,0.23111229,0.12719524,-0.27248347,-0.113536075,0.05714663,0.90005505,0.13290639,0.07622247,0.9241346,0.315512,-0.096563704,0.010556227,0.26401103,-0.21500173,-0.67976433,-0.5347532,-0.15434414,806.6667,799.011,798.60803,799.41394,696.26373,-0.447021484375,-0.01251220703125,0.8983154296875,4.8748779296875,-4.568328857421875,0.889739990234375,1,1.0,1.0,1.0,1.0,40.00
