TimeStamp,Delta_TP9,Delta_AF7,Delta_AF8,Delta_TP10,Theta_TP9,Theta_AF7,Theta_AF8,Theta_TP10,Alpha_TP9,Alpha_AF7,Alpha_AF8,Alpha_TP10,Beta_TP9,Beta_AF7,Beta_AF8,Beta_TP10,Gamma_TP9,Gamma_AF7,Gamma_AF8,Gamma_TP10,RAW_TP9,RAW_AF7,RAW_AF8,RAW_TP10,AUX_RIGHT,Accelerometer_X,Accelerometer_Y,Accelerometer_Z,Gyro_X,Gyro_Y,Gyro_Z,HeadBandOn,HSI_TP9,HSI_AF7,HSI_AF8,HSI_TP10,Battery,Elements
2021-04-08 09:59:30.075,1.4037161,0.3685216,0.19202103,1.7177211,1.1739534,-0.06394994,0.3032474,1.6138936,1.0941536,0.43600202,0.36495793,1.1076974,0.83944964,1.2621143,0.5607678,1.0114088,0.20015766,0.4774489,0.32932612,0.5140557,827.619,822.7839,804.65204,827.2161,798.20514,-0.1951904296875,-0.03839111328125,0.98046875,5.1739501953125,-4.762725830078125,0.07476806640625,1,2.0,1.0,1.0,2.0,55.00
2021-04-08 09:59:30.102,1.4037161,0.3685216,0.2211475150000,1.7177211,1.1739534,-0.06394994,0.26088777,1.6138936,1.0941536,0.43600202,0.3734983349999,1.1076974,0.83944964,1.2621143,0.5603875650000,1.0114088,0.20015766,0.4774489,0.29586741,0.5140557,786.92305,807.0696,807.27109,,,,,,,,,,,,,,,/muse/elements/blink
2021-04-08 09:59:30.584,1.4037161,0.3685216,0.250274,1.7177211,1.1739534,-0.06394994,0.21852814,1.6138936,1.0941536,0.43600202,0.38203874,1.1076974,0.83944964,1.2621143,0.56000733,1.0114088,0.20015766,0.4774489,0.2624087,0.5140557,746.2271,791.3553,809.89014,753.47986,789.34064,-0.18817138671875,-0.0377197265625,0.9766845703125,5.869293212890625,-4.91973876953125,0.456085205078125,1,2.0,1.0,1.0,2.0,55.00
2021-04-08 09:59:30.815,1.4037161,0.3685216,0.3868888,1.7177211,1.1739534,-0.06394994,0.19123555,1.6138936,1.0941536,0.43600202,0.383597685,1.1076974,0.83944964,1.2621143,0.559021965,1.0114088,0.20015766,0.4774489,0.21717775,0.5140557,769.39560000000,820.164835,801.42859,,,,,,,,,,,,,,,/muse/elements/blink
2021-04-08 09:59:31.093,1.4037161,0.3685216,0.5235036,1.7177211,1.1739534,-0.06394994,0.16394296,1.6138936,1.0941536,0.43600202,0.38515663,1.1076974,0.83944964,1.2621143,0.5580366,1.0114088,0.20015766,0.4774489,0.1719468,0.5140557,792.5641,848.97437,792.96704,784.10254,718.4249,-0.1907958984375,-0.0069580078125,0.9754638671875,8.792724609375,-14.99847412109375,-22.35565185546875,1,2.0,1.0,1.0,2.0,55.00
2021-04-08 09:59:31.243,1.4037161,0.3685216,0.62891645,1.7177211,1.1739534,-0.06394994,0.15965667,1.6138936,1.0941536,0.43600202,0.394613365,1.1076974,0.83944964,1.2621143,0.5524785999999,1.0114088,0.20015766,0.4774489,0.163155275,0.5140557,751.26375000000,834.468885,793.16848499999,,,,,,,,,,,,,,,/muse/elements/blink
2021-04-08 09:59:31.595,1.4037161,0.3685216,0.7343293,1.7177211,1.1739534,-0.06394994,0.15537038,1.6138936,1.0941536,0.43600202,0.4040701,1.1076974,0.83944964,1.2621143,0.5469206,1.0114088,0.20015766,0.4774489,0.15436375,0.5140557,709.9634,819.9634,793.36993,721.6484,753.8828,-0.09967041015625,0.0115966796875,1.00335693359375,9.151611328125,-4.88983154296875,-6.646881103515625,1,2.0,1.0,1.0,2.0,55.00
2021-04-08 09:59:31.861,1.4037161,0.3685216,0.761039535,1.7177211,1.1739534,-0.06394994,0.18496129,1.6138936,1.0941536,0.43600202,0.40434634,1.1076974,0.83944964,1.2621143,0.5503607500000,1.0114088,0.20015766,0.4774489,0.135338375,0.5140557,719.230785,857.63736999999,776.24539,,,,,,,,,,,,,,,/muse/elements/blink
2021-04-08 09:59:32.104,1.4037161,0.3685216,0.78774977,1.7177211,1.1739534,-0.06394994,0.2145522,1.6138936,1.0941536,0.43600202,0.40462258,1.1076974,0.83944964,1.2621143,0.5538009,1.0114088,0.20015766,0.4774489,0.116313,0.5140557,728.49817,895.31134,759.12085,686.5934,788.5348,-0.1497802734375,0.042724609375,0.97869873046875,14.482574462890625,-2.100982666015625,-44.105682373046875,1,2.0,1.0,1.0,2.0,55.00
2021-04-08 09:59:32.122,1.4037161,0.3685216,0.782965285,1.7177211,1.1739534,-0.06394994,0.2332703500000,1.6138936,1.0941536,0.43600202,0.4030994,1.1076974,0.83944964,1.2621143,0.555555,1.0114088,0.20015766,0.4774489,0.1134449650000,0.5140557,761.941405,873.95602,777.252745,,,,,,,,,,,,,,,/muse/elements/jaw_clench
2021-04-08 09:59:32.612,1.4037161,0.3685216,0.7781808,1.7177211,1.1739534,-0.06394994,0.2519885,1.6138936,1.0941536,0.43600202,0.40157622,1.1076974,0.83944964,1.2621143,0.5573091,1.0114088,0.20015766,0.4774489,0.11057693,0.5140557,795.38464,852.6007,795.38464,795.38464,712.7839,-0.15704345703125,0.0245361328125,0.97723388671875,-0.418701171875,-8.411407470703125,-5.57769775390625,1,2.0,1.0,1.0,2.0,55.00
2021-04-08 09:59:33.129,1.4037161,0.3685216,0.6938438,1.7177211,1.1739534,-0.06394994,0.21019202,1.6138936,1.0941536,0.43600202,0.051281873,1.1076974,0.83944964,1.2621143,0.5863702,1.0114088,0.20015766,0.4774489,-0.10534527,0.5140557,826.8132,802.6374,808.68134,815.5311,783.2967,-0.08233642578125,-0.00347900390625,0.99346923828125,1.1663818359375,-7.514190673828125,0.10467529296875,1,2.0,1.0,1.0,2.0,55.00
2021-04-08 09:59:33.652,1.4037161,0.3685216,0.75412226,1.7177211,1.1739534,-0.06394994,0.23981301,1.6138936,1.0941536,0.43600202,0.03575802,1.1076974,0.83944964,1.2621143,0.58462155,1.0114088,0.20015766,0.4774489,-0.1252054,0.5140557,809.4872,812.71063,813.1135,812.3077,670.07324,-0.0423583984375,-0.02960205078125,1.00689697265625,8.5833740234375,-1.248626708984375,2.8411865234375,1,2.0,1.0,1.0,2.0,55.00
2021-04-08 09:59:33.947,1.4037161,0.3685216,0.7281790800000,1.7177211,1.1739534,-0.06394994,0.04647361,1.6138936,1.0941536,0.43600202,0.0415945550000,1.1076974,0.83944964,1.2621143,0.545962425,1.0114088,0.20015766,0.4774489,0.0739011899999,0.5140557,789.7436,811.50181500000,807.87545,,,,,,,,,,,,,,,/muse/elements/blink
2021-04-08 09:59:34.155,1.4037161,0.3685216,0.7022359,1.7177211,1.1739534,-0.06394994,-0.14686579,1.6138936,1.0941536,0.43600202,0.04743109,1.1076974,0.83944964,1.2621143,0.5073033,1.0114088,0.20015766,0.4774489,0.27300778,0.5140557,770.0,810.293,802.6374,781.28204,837.28937,-0.19268798828125,0.01708984375,0.96978759765625,-1.136474609375,0.8074951171875,31.051177978515625,1,2.0,1.0,1.0,2.0,55.00
2021-04-08 09:59:34.666,1.4037161,0.3685216,0.7022359,1.7177211,1.1739534,-0.06394994,-0.14686579,1.6138936,1.0941536,0.43600202,0.04743109,1.1076974,0.83944964,1.2621143,0.5073033,1.0114088,0.20015766,0.4774489,0.27300778,0.5140557,823.1868,797.3993,791.3553,817.9487,962.6007,-0.29296875,0.03558349609375,0.951171875,-3.327178955078125,7.230072021484375,26.490325927734375,1,2.0,1.0,1.0,2.0,55.00
2021-04-08 09:59:34.800,1.4037161,0.3685216,0.7114576800000,1.7177211,1.1739534,-0.06394994,-0.136487045,1.6138936,1.0941536,0.43600202,0.04743109,1.1076974,0.83944964,1.2621143,0.4999861300000,1.0114088,0.20015766,0.4774489,0.25648421,0.5140557,828.4249,833.86447500000,794.57875,,,,,,,,,,,,,,,/muse/elements/jaw_clench
2021-04-08 09:59:35.175,1.4037161,0.3685216,0.72067946,1.7177211,1.1739534,-0.06394994,-0.1261083,1.6138936,1.0941536,0.43600202,0.04743109,1.1076974,0.83944964,1.2621143,0.49266896,1.0114088,0.20015766,0.4774489,0.23996064,0.5140557,833.663,870.32965,797.8022,825.2015,853.8095,-0.4075927734375,0.04913330078125,0.91644287109375,6.0113525390625,10.594635009765625,-5.644989013671875,1,2.0,1.0,1.0,2.0,55.00
2021-04-08 09:59:35.613,1.4037161,0.3685216,0.72067946,1.7177211,1.1739534,-0.06394994,-0.1261083,1.6138936,1.0941536,0.43600202,0.04743109,1.1076974,0.83944964,1.2621143,0.49266896,1.0114088,0.20015766,0.4774489,0.23996064,0.5140557,869.52382,868.113555,825.20145,,,,,,,,,,,,,,,/muse/elements/blink
2021-04-08 09:59:35.688,1.4037161,0.3685216,0.72067946,1.7177211,1.1739534,-0.06394994,-0.1261083,1.6138936,1.0941536,0.43600202,0.04743109,1.1076974,0.83944964,1.2621143,0.49266896,1.0114088,0.20015766,0.4774489,0.23996064,0.5140557,905.38464,865.89746,852.6007,887.25275,902.1612,-0.4617919921875,-0.1451416015625,0.868896484375,21.45843505859375,-3.401947021484375,5.600128173828125,1,2.0,1.0,1.0,2.0,55.00
2021-04-08 09:59:36.009,1.4037161,0.3685216,0.72067946,1.7177211,1.1739534,-0.06394994,-0.1261083,1.6138936,1.0941536,0.43600202,0.04743109,1.1076974,0.83944964,1.2621143,0.49266896,1.0114088,0.20015766,0.4774489,0.23996064,0.5140557,836.080595,834.46888,834.46885,,,,,,,,,,,,,,,/muse/elements/jaw_clench
2021-04-08 09:59:36.201,1.4037161,0.3685216,0.72067946,1.7177211,1.1739534,-0.06394994,-0.1261083,1.6138936,1.0941536,0.43600202,0.04743109,1.1076974,0.83944964,1.2621143,0.49266896,1.0114088,0.20015766,0.4774489,0.23996064,0.5140557,766.77655,803.0403,816.337,747.4359,956.9597,-0.40985107421875,-0.01470947265625,0.96630859375,10.0787353515625,-16.336822509765625,8.501129150390625,1,2.0,1.0,1.0,2.0,55.00
2021-04-08 09:59:36.204,1.4037161,0.3685216,0.72067946,1.7177211,1.1739534,-0.06394994,-0.1261083,1.6138936,1.0941536,0.43600202,0.04743109,1.1076974,0.83944964,1.2621143,0.49266896,1.0114088,0.20015766,0.4774489,0.23996064,0.5140557,787.12454,820.56774999999,806.86815,,,,,,,,,,,,,,,/muse/elements/blink
2021-04-08 09:59:36.728,1.4037161,0.3685216,0.72067946,1.7177211,1.1739534,-0.06394994,-0.1261083,1.6138936,1.0941536,0.43600202,0.04743109,1.1076974,0.83944964,1.2621143,0.49266896,1.0114088,0.20015766,0.4774489,0.23996064,0.5140557,807.47253,838.0952,797.3993,801.02563,815.5311,-0.4305419921875,0.01611328125,0.90643310546875,1.3458251953125,2.444915771484375,11.94793701171875,1,2.0,1.0,1.0,2.0,55.00
2021-04-08 09:59:37.127,1.4037161,0.3685216,0.72067946,1.7177211,1.1739534,-0.06394994,-0.1261083,1.6138936,1.0941536,0.43600202,0.04743109,1.1076974,0.83944964,1.2621143,0.49266896,1.0114088,0.20015766,0.4774489,0.23996064,0.5140557,882.820515,873.75457000000,805.8608,,,,,,,,,,,,,,,/muse/elements/blink
2021-04-08 09:59:37.245,1.4037161,0.3685216,0.72067946,1.7177211,1.1739534,-0.06394994,-0.1261083,1.6138936,1.0941536,0.43600202,0.04743109,1.1076974,0.83944964,1.2621143,0.49266896,1.0114088,0.20015766,0.4774489,0.23996064,0.5140557,958.1685,909.41394,814.3223,923.5165,831.2454,-0.35980224609375,0.02520751953125,0.929443359375,12.628326416015625,-14.527435302734375,-29.675445556640625,1,2.0,1.0,1.0,2.0,55.00
2021-04-08 09:59:37.769,1.4037161,0.3685216,0.72067946,1.7177211,1.1739534,-0.06394994,-0.1261083,1.6138936,1.0941536,0.43600202,0.04743109,1.1076974,0.83944964,1.2621143,0.49266896,1.0114088,0.20015766,0.4774489,0.23996064,0.5140557,822.381,842.1245,825.2015,821.1722,783.69965,-0.25885009765625,0.03057861328125,0.98236083984375,8.2244873046875,-3.99261474609375,-12.703094482421875,1,2.0,1.0,1.0,2.0,55.00
2021-04-08 09:59:38.286,1.4037161,0.3685216,0.72067946,1.7177211,1.1739534,-0.06394994,-0.1261083,1.6138936,1.0941536,0.43600202,0.04743109,1.1076974,0.83944964,1.2621143,0.49266896,1.0114088,0.20015766,0.4774489,0.23996064,0.5140557,845.34796,838.49817,826.0073,857.4359,850.989,-0.26593017578125,0.00543212890625,0.9639892578125,4.68048095703125,-6.17584228515625,-6.781463623046875,1,2.0,1.0,1.0,2.0,50.00
2021-04-08 09:59:38.530,1.4037161,0.3685216,0.4285310650000,1.7177211,1.1739534,-0.06394994,-0.23807765,1.6138936,1.0941536,0.43600202,-0.045544864999,1.1076974,0.83944964,1.2621143,0.4296670999999,1.0114088,0.20015766,0.4774489,0.170790295,0.5140557,805.65933,824.597085,815.531115,,,,,,,,,,,,,,,/muse/elements/jaw_clench
2021-04-08 09:59:38.794,1.4037161,0.3685216,0.13638267,1.7177211,1.1739534,-0.06394994,-0.350047,1.6138936,1.0941536,0.43600202,-0.13852082,1.1076974,0.83944964,1.2621143,0.36666524,1.0114088,0.20015766,0.4774489,0.10161995,0.5140557,765.9707,810.696,805.05493,769.59705,741.79486,-0.25225830078125,0.018798828125,0.9658203125,4.0374755859375,-4.05242919921875,3.289794921875,1,2.0,1.0,1.0,2.0,50.00
2021-04-08 09:59:39.307,1.4037161,0.3991184,0.2989268,1.7177211,1.1739534,0.43231955,-0.11761083,1.6138936,1.0941536,0.8248693,0.3753632,1.1076974,0.83944964,1.1198,0.3962801,1.0114088,0.20015766,0.64203346,0.060193535,0.5140557,812.3077,838.49817,813.91943,822.7839,756.30035,-0.2496337890625,0.0244140625,0.96807861328125,5.360870361328125,-6.287994384765625,1.084136962890625,1,2.0,1.0,1.0,2.0,50.00
2021-04-08 09:59:39.701,1.4037161,0.3991184,0.3078949749999,1.7177211,1.1739534,0.43231955,-0.10096621,1.6138936,1.0941536,0.8248693,0.39029,1.1076974,0.83944964,1.1198,0.40990048,1.0114088,0.20015766,0.64203346,0.0589582124999,0.5140557,813.5165,818.5531,809.285735,,,,,,,,,,,,,,,/muse/elements/jaw_clench
2021-04-08 09:59:39.833,1.4037161,0.3991184,0.31686315,1.7177211,1.1739534,0.43231955,-0.08432159,1.6138936,1.0941536,0.8248693,0.4052168,1.1076974,0.83944964,1.1198,0.42352086,1.0114088,0.20015766,0.64203346,0.05772289,0.5140557,814.7253,798.60803,804.65204,811.0989,738.5714,-0.24261474609375,0.02099609375,0.97528076171875,4.844970703125,-4.83001708984375,1.278533935546875,1,2.0,1.0,1.0,2.0,50.00
2021-04-08 09:59:39.868,1.0021427,0.3991184,0.339255735,1.2398234499999,0.738851285,0.43231955,-0.0660843765,1.0734751999999,0.889047275,0.8248693,0.4052168,0.91390135,0.79766447,1.1198,0.41797453,0.9370291500000,0.3142754299999,0.64203346,0.053613382,0.49834484,813.31504999999,808.88277999999,804.04764,,,,,,,,,,,,,,,/muse/elements/jaw_clench
2021-04-08 09:59:40.342,0.6005693,0.3991184,0.36164832,0.7619258,0.30374917,0.43231955,-0.047847163,0.5330568,0.68394095,0.8248693,0.4052168,0.7201053,0.7558793,1.1198,0.4124282,0.8626495,0.4283932,0.64203346,0.049503874,0.48263398,811.9048,819.15753,803.44324,812.71063,728.0952,-0.24053955078125,0.0211181640625,0.97467041015625,5.21881103515625,-4.658050537109375,1.09161376953125,1,1.0,1.0,1.0,1.0,50.00
2021-04-08 09:59:40.769,0.4725576,0.3991184,0.32382316,0.6578013,0.351846755,0.43231955,-0.034750878,0.5218466500000,0.6908777749999,0.8248693,0.35815976,0.7201053,0.71646555,1.1198,0.41164969,0.8334146499999,0.4205000599999,0.64203346,0.0704994120000,0.4848678250000,802.83885000000,823.388265,803.84617,,,,,,,,,,,,,,,/muse/elements/jaw_clench
2021-04-08 09:59:40.847,0.3445459,0.3991184,0.285998,0.5536768,0.39994434,0.43231955,-0.021654593,0.5106365,0.6978146,0.8248693,0.31110272,0.7201053,0.6770518,1.1198,0.41087118,0.8041798,0.41260692,0.64203346,0.09149495,0.48710167,793.7729,827.619,804.2491,790.9524,766.77655,-0.24078369140625,0.0186767578125,0.97137451171875,4.388885498046875,-4.792633056640625,1.1065673828125,1,1.0,1.0,1.0,1.0,50.00
2021-04-08 09:59:41.361,0.080565795,0.3991184,0.19662578,0.27621707,0.5898761,0.43231955,-0.020775635,0.5602634,0.52456814,0.8248693,0.18658434,0.39189532,0.61452806,1.1198,0.34354368,0.7383139,0.35758552,0.64203346,0.053608887,0.41902462,624.1392,708.7546,871.53845,658.3883,971.8681,-0.23565673828125,0.02178955078125,0.9759521484375,3.267364501953125,-3.7384033203125,10.460052490234375,1,1.0,1.0,1.0,1.0,50.00
2021-04-08 09:59:41.510,0.1538165825,0.3991184,0.161588935,0.25002586,0.672539735,0.43231955,0.0151814205,0.603686635,0.50474737,0.8248693,0.0565769649999,0.3346668,0.5877721300000,1.1198,0.34726969,0.7116103,0.32997051,0.64203346,0.0441095235,0.39632979,712.98534999999,775.8425,837.692275,,,,,,,,,,,,,,,/muse/elements/blink
2021-04-08 09:59:41.869,0.22706737,0.3991184,0.12655209,0.22383465,0.75520337,0.43231955,0.051138476,0.64710987,0.4849266,0.8248693,-0.07343041,0.27743828,0.5610162,1.1198,0.3509957,0.6849067,0.3023555,0.64203346,0.03461016,0.37363496,801.8315,842.9304,803.8461,811.9048,716.0073,-0.27764892578125,-0.0048828125,0.95684814453125,-2.056121826171875,2.0037841796875,22.01171875,1,1.0,1.0,1.0,1.0,50.00
2021-04-08 09:59:42.309,0.34667965,0.3991184,0.1371492750000,0.2197871450000,0.821596585,0.43231955,0.0219614303,0.6980781549999,0.4538664,0.8248693,-0.251731605,0.087823695,0.5563326749999,1.1198,0.309856315,0.653929285,0.242130375,0.64203346,-0.02032316,0.299878765,802.03297,846.9597,803.64466999999,,,,,,,,,,,,,,,/muse/elements/jaw_clench
2021-04-08 09:59:42.377,0.46629193,0.3991184,0.14774646,0.21573964,0.8879898,0.43231955,-0.0072156154,0.74904644,0.4228062,0.8248693,-0.4300328,-0.10179089,0.55164915,1.1198,0.26871693,0.62295187,0.18190525,0.64203346,-0.07525648,0.22612257,802.23444,850.989,803.44324,792.1612,711.978,-0.333740234375,2.44140625E-4,0.95068359375,1.502838134765625,-3.028106689453125,7.9254150390625,1,1.0,1.0,1.0,1.0,50.00
2021-04-08 09:59:42.727,0.46629193,0.3991184,0.047265426,0.21573964,0.8879898,0.43231955,0.0643287472999,0.74904644,0.4228062,0.8248693,-0.08957309,-0.10179089,0.55164915,1.1198,0.3549533150000,0.62295187,0.18190525,0.64203346,-0.001384929999,0.22612257,821.17215,816.73992,812.10621999999,,,,,,,,,,,,,,,/muse/elements/jaw_clench
2021-04-08 09:59:42.889,0.46629193,0.3991184,-0.053215608,0.21573964,0.8879898,0.43231955,0.13587311,0.74904644,0.4228062,0.8248693,0.25088662,-0.10179089,0.55164915,1.1198,0.4411897,0.62295187,0.18190525,0.64203346,0.07248662,0.22612257,840.10986,782.49084,820.7692,826.0073,1009.7436,-0.3441162109375,0.01483154296875,0.9461669921875,6.0711669921875,-5.973968505859375,5.562744140625,1,1.0,1.0,1.0,1.0,50.00
2021-04-08 09:59:43.397,0.26959768,0.3991184,0.32839152,0.28477213,0.18860598,0.43231955,0.16781725,0.41750163,0.7199631,0.8248693,0.28095847,0.44758174,0.6928651,1.1198,0.41323984,0.79012656,0.2917613,0.64203346,0.047862496,0.3647341,794.57874,832.4542,790.54944,790.14655,777.25275,-0.34228515625,0.00628662109375,0.93792724609375,5.226287841796875,-4.9945068359375,1.592559814453125,1,1.0,1.0,1.0,1.0,50.00
2021-04-08 09:59:43.901,0.4994072,0.4470093,0.2767448,0.41171396,0.24353713,0.5462883,0.18546435,0.3922405,0.73688823,0.33534604,0.28095847,0.53845465,0.7547103,1.1500229,0.42874286,0.8177867,0.2346353,0.64684796,0.047083396,0.32093978,786.52014,828.022,782.0879,801.4286,726.8865,-0.3433837890625,0.01800537109375,0.9404296875,3.96270751953125,-5.016937255859375,1.921539306640625,1,1.0,1.0,1.0,1.0,50.00
2021-04-08 09:59:44.122,0.73234505,0.539177,0.4595666,0.50843388,0.267768915,0.51536628,0.2129726049999,0.37586269,0.755717865,0.3747996799999,0.26023334,0.577296225,0.7576247,1.14016995,0.42977558,0.8270868499999,0.20523541,0.62274688,0.0370843845,0.2926269900000,784.10257,828.22345,779.8718,,,,,,,,,,,,,,,/muse/elements/jaw_clench
2021-04-08 09:59:44.408,0.9652829,0.6313447,0.6423884,0.6051538,0.2920007,0.48444426,0.24048086,0.35948488,0.7745475,0.41425332,0.23950821,0.6161378,0.7605391,1.130317,0.4308083,0.836387,0.17583552,0.5986458,0.027085373,0.2643142,781.685,828.4249,777.6557,784.90845,840.10986,-0.36151123046875,0.004150390625,0.93560791015625,4.20196533203125,-3.102874755859375,1.79443359375,1,1.0,1.0,1.0,1.0,50.00
2021-04-08 09:59:44.920,1.0257194,0.6772767,0.78921205,0.7601267,0.3412747,0.50421935,0.33662203,0.41859052,0.6610525,0.37887892,0.26212215,0.75774366,0.76043844,1.1326442,0.4279477,0.8315199,0.25364807,0.57260495,0.010961704,0.31452367,768.3883,841.31866,792.96704,776.04395,745.0183,-0.3865966796875,-0.00701904296875,0.91949462890625,4.5758056640625,-5.301055908203125,0.70281982421875,1,1.0,1.0,1.0,1.0,50.00
2021-04-08 09:59:45.431,1.1355104,0.82676363,0.92638093,0.9525607,0.41065225,0.43706122,0.37969586,0.50881153,0.7036649,0.35208786,0.26049462,0.7323956,0.72595286,1.1008086,0.40308222,0.79210657,0.28221437,0.504486,0.008567504,0.34577924,810.293,832.8571,801.4286,812.3077,730.10986,-0.381103515625,0.00396728515625,0.92181396484375,5.615081787109375,-3.46923828125,0.725250244140625,1,1.0,1.0,1.0,1.0,50.00
2021-04-08 09:59:45.636,1.092089,0.82676363,0.8850519649999,0.9755789500000,0.441796095,0.43706122,0.33796027,0.467034385,0.66679915,0.35208786,0.2821495400000,0.7020604,0.6988609299999,1.1008086,0.33277252,0.73537615,0.268400985,0.504486,-0.039163763,0.3591391200000,812.106215,834.87179999999,815.53115,,,,,,,,,,,,,,,/muse/elements/jaw_clench
2021-04-08 09:59:45.947,1.0486676,0.82676363,0.843723,0.9985972,0.47293994,0.43706122,0.29622468,0.42525724,0.6299334,0.35208786,0.30380446,0.6717252,0.671769,1.1008086,0.26246282,0.67864573,0.2545876,0.504486,-0.08689503,0.372499,813.91943,836.8865,829.6337,815.9341,801.02563,-0.368896484375,-0.00390625,0.927490234375,5.375823974609375,-5.12908935546875,-0.7177734375,1,1.0,1.0,1.0,1.0,50.00
2021-04-08 09:59:46.461,1.060262,0.82676363,0.813943,0.8973394,0.4421873,0.43706122,0.14628197,0.12626547,0.7894673,0.35208786,0.33877924,0.49255538,0.6008379,1.1008086,0.22385238,0.6415443,0.09627926,0.504486,-0.11293976,0.3663535,800.2198,832.4542,805.05493,803.8461,711.978,-0.38726806640625,-0.0174560546875,0.92022705078125,3.93280029296875,-3.431854248046875,0.530853271484375,1,1.0,1.0,1.0,1.0,50.00
2021-04-08 09:59:46.562,0.98219173,0.82676363,0.7734284499999,0.8469976,0.34990304,0.43706122,0.179699935,0.044967095,0.793500825,0.35208786,0.36148552,0.47612527,0.6075809000000,1.1008086,0.26844401,0.664637425,0.1256860100000,0.504486,-0.030205812500,0.3711108800000,806.465215,819.358965,808.076915,,,,,,,,,,,,,,,/muse/elements/jaw_clench
2021-04-08 09:59:46.967,0.90412146,0.82676363,0.7329139,0.7966558,0.25761878,0.43706122,0.2131179,-0.03633128,0.79753435,0.35208786,0.3841918,0.45969516,0.6143239,1.1008086,0.31303564,0.68773055,0.15509276,0.504486,0.052528135,0.37586826,812.71063,806.26373,811.0989,822.7839,710.7692,-0.39068603515625,-0.01690673828125,0.91973876953125,5.21881103515625,-5.51788330078125,0.478515625,1,1.0,1.0,1.0,1.0,50.00
2021-04-08 09:59:47.474,0.7732399,0.5906175,0.7234101,0.78233254,0.45323068,0.19704767,0.34849867,0.47175533,0.82018596,0.42655075,0.4863518,0.587269,0.63774127,1.0016911,0.35248467,0.6324798,0.25645256,0.5647858,0.115027584,0.37857658,795.38464,815.9341,806.6667,803.44324,841.7216,-0.38671875,-0.0045166015625,0.92376708984375,5.30853271484375,-5.14404296875,0.777587890625,1,1.0,1.0,1.0,1.0,50.00
2021-04-08 09:59:48.006,0.77278507,0.5906175,0.49085134,0.8497015,0.554372,0.19704767,0.24085236,0.63339007,0.72553563,0.42655075,0.46921533,0.57344157,0.6663352,1.0016911,0.35277689,0.6080064,0.25677073,0.5647858,0.23802787,0.28366637,796.1905,848.5714,806.6667,793.36993,765.16486,-0.39007568359375,-0.01556396484375,0.921875,4.942169189453125,-5.001983642578125,0.396270751953125,1,1.0,1.0,1.0,1.0,50.00
2021-04-08 09:59:48.512,0.9801873,0.5906175,0.5338543,0.9452837,0.6347075,0.19704767,0.21854824,0.62939036,0.8221473,0.42655075,0.47102976,0.7129803,0.6505791,1.0016911,0.33389807,0.6368043,0.37217996,0.5647858,0.18442708,0.35490495,808.2784,823.5897,807.0696,811.9048,786.9231,-0.40142822265625,-0.01910400390625,0.917724609375,4.02252197265625,-4.403839111328125,0.904693603515625,1,1.0,1.0,1.0,1.0,50.00
2021-04-08 09:59:49.020,0.78952074,0.5906175,0.40662292,0.67512125,0.46196398,0.19704767,0.042057242,0.27258605,0.8936074,0.42655075,0.22996214,0.8012218,0.6353173,1.0016911,0.3372781,0.747836,0.33637983,0.5647858,0.121972494,0.235812,790.14655,853.8095,782.8938,786.1172,770.0,-0.403564453125,-0.020751953125,0.9122314453125,4.164581298828125,-5.884246826171875,1.18133544921875,1,1.0,1.0,1.0,1.0,45.00
2021-04-08 09:59:49.536,0.9071528,0.5906175,0.29724306,0.6443675,0.4967703,0.19704767,0.11741109,0.24343823,0.8951941,0.42655075,0.3394042,0.8135013,0.66465825,1.0016911,0.38752794,0.75541455,0.29706728,0.5647858,-0.052211847,0.16756992,787.326,844.5421,796.1905,802.23444,704.7253,-0.39654541015625,-0.021728515625,0.91851806640625,4.605712890625,-4.508514404296875,0.5682373046875,1,1.0,1.0,1.0,1.0,45.00
2021-04-08 09:59:50.059,0.7429121,0.5906175,-0.016592886,0.44814563,0.5930498,0.19704767,-0.017809734,0.26691386,0.8573059,0.42655075,0.5095498,0.85471845,0.7357637,1.0016911,0.40907082,0.77018696,0.23032786,0.5647858,-0.14391606,0.16732097,800.6227,833.663,795.78754,806.6667,724.0659,-0.39923095703125,-0.02264404296875,0.91845703125,4.403839111328125,-5.33843994140625,0.97198486328125,1,1.0,1.0,1.0,1.0,45.00
2021-04-08 09:59:50.569,0.8883021,0.5906175,0.1456129,0.71615773,0.5580282,0.19704767,0.017025976,0.29773247,0.81627935,0.42655075,0.5309235,0.8354917,0.7668246,1.0016911,0.3189615,0.7834788,0.34491146,0.5647858,0.044339824,0.32959425,788.5348,835.6777,787.72894,790.54944,752.27106,-0.39996337890625,-0.02215576171875,0.91973876953125,4.74029541015625,-4.972076416015625,0.8074951171875,1,1.0,1.0,1.0,1.0,45.00
2021-04-08 09:59:51.100,0.8225852,0.5906175,0.22361362,0.8137467,0.5865242,0.19704767,-0.07490274,0.32981804,0.941912,0.42655075,0.52689576,0.77077913,0.74195266,1.0016911,0.3715398,0.7942914,0.31586775,0.5647858,0.063373536,0.4755604,833.663,837.28937,803.44324,834.0659,716.8132,-0.40478515625,-0.02252197265625,0.91424560546875,4.897308349609375,-4.388885498046875,0.471038818359375,1,1.0,1.0,1.0,1.0,45.00
2021-04-08 09:59:51.608,1.0337716,0.5906175,0.25313148,1.0087471,0.5370457,0.19704767,-0.034008473,0.31338212,0.7439073,0.42655075,0.2879052,0.5489068,0.7328206,1.0016911,0.4453245,0.7783749,0.2837376,0.5647858,0.012904018,0.59460634,824.3956,836.08057,800.2198,826.8132,757.1062,-0.39544677734375,-0.024169921875,0.918701171875,5.076751708984375,-6.4599609375,0.91217041015625,1,1.0,1.0,1.0,1.0,45.00
2021-04-08 09:59:52.135,0.96950907,0.5906175,0.2708433,0.7221209,0.5165623,0.19704767,-0.01866371,0.46723956,0.80683374,0.42655075,0.19643036,0.46192503,0.6971386,1.0016911,0.47870973,0.5594654,0.22689864,0.5647858,-0.066408895,0.40236327,806.6667,850.58606,796.99634,800.2198,758.315,-0.39678955078125,-0.0245361328125,0.92034912109375,5.06927490234375,-5.3533935546875,1.203765869140625,1,1.0,1.0,1.0,1.0,45.00
2021-04-08 09:59:52.662,1.0070494,0.5906175,0.18162805,0.80309,0.52172333,0.19704767,-0.019630678,0.5134722,0.8009553,0.42655075,0.074122205,0.641247,0.68384075,1.0016911,0.38234094,0.56380135,0.22637717,0.5647858,-0.062049463,0.33091792,780.87915,766.77655,826.8132,801.02563,1019.41394,-0.3865966796875,-0.02362060546875,0.93206787109375,4.628143310546875,-6.093597412109375,1.15142822265625,1,1.0,1.0,1.0,1.0,45.00
2021-04-08 09:59:53.166,0.9261049,0.5906175,0.31050727,0.8036829,0.51747,0.19704767,-0.0073298938,0.5204307,0.70392364,0.42655075,0.09684137,0.6407495,0.5792794,1.0016911,0.28856447,0.5768101,0.25588053,0.5647858,-0.11032342,0.3106551,780.87915,822.381,796.1905,797.8022,916.6667,-0.37982177734375,-0.02447509765625,0.92333984375,5.181427001953125,-4.957122802734375,1.54022216796875,1,1.0,1.0,1.0,1.0,45.00
2021-04-08 09:59:53.673,1.0104373,0.5906175,0.3549829,0.8781833,0.62190115,0.19704767,0.04061001,0.5624186,0.6390059,0.42655075,0.12151539,0.51782167,0.6014374,1.0016911,0.26874113,0.60721034,0.11288165,0.5647858,-0.19263314,0.21251,804.2491,812.71063,791.75824,812.71063,719.2308,-0.37591552734375,-0.0216064453125,0.92901611328125,5.14404296875,-5.0543212890625,1.039276123046875,1,1.0,1.0,1.0,1.0,45.00
2021-04-08 09:59:54.182,1.0104373,0.5906175,0.58774835,0.90388644,0.62190115,0.19704767,0.20038173,0.5988955,0.6390059,0.42655075,0.20526585,0.4989713,0.6014374,1.0016911,0.21153663,0.64298135,0.11288165,0.5647858,-0.04657115,0.23617998,830.4396,786.9231,806.26373,826.4103,925.5311,-0.38446044921875,-0.02032470703125,0.92193603515625,4.366455078125,-4.59075927734375,1.435546875,1,1.0,1.0,1.0,1.0,45.00
2021-04-08 09:59:54.694,0.83978236,0.5906175,0.62792426,0.42045644,0.7702131,0.19704767,0.16954374,0.60399675,0.8639872,0.42655075,0.23845623,0.68879616,0.58116174,1.0016911,0.12339955,0.7388292,0.1822631,0.5647858,-0.037871618,0.29055747,825.6044,855.0183,787.72894,810.293,819.15753,-0.3922119140625,-0.01239013671875,0.9273681640625,5.151519775390625,-3.66363525390625,2.37762451171875,1,1.0,1.0,1.0,1.0,45.00
2021-04-08 09:59:55.206,0.9416784,0.5906175,0.6887463,0.48881218,0.7639665,0.19704767,0.15841556,0.59216624,0.8639872,0.42655075,0.24693584,0.7117644,0.58848214,1.0016911,0.1599879,0.73790586,0.1613916,0.5647858,-0.049622875,0.27730128,826.0073,806.26373,802.23444,822.7839,764.35895,-0.4029541015625,-0.01226806640625,0.91876220703125,4.418792724609375,-4.687957763671875,1.846771240234375,1,1.0,1.0,1.0,1.0,45.00
2021-04-08 09:59:55.709,0.89435816,0.5906175,0.50275785,0.53089714,0.9270193,0.19704767,-0.007824948,0.74904984,0.86355066,0.42655075,0.24602047,0.73460054,0.5597318,1.0016911,0.24534379,0.7820416,0.003597631,0.5647858,-0.23685601,0.1875211,762.3443,831.6484,804.2491,770.80585,860.2564,-0.40032958984375,-0.01409912109375,0.92181396484375,5.09918212890625,-4.50103759765625,1.2860107421875,1,1.0,1.0,1.0,1.0,45.00
2021-04-08 09:59:56.232,0.9421842,0.5906175,0.31793863,0.5863325,1.070646,0.19704767,0.012464486,0.758187,0.6958521,0.42655075,0.16629572,0.7241844,0.5686866,1.0016911,0.34583873,0.802555,0.034318242,0.5647858,-0.19680305,0.2474275,794.57874,834.4689,788.93774,783.2967,724.0659,-0.41375732421875,-0.018310546875,0.9085693359375,4.8748779296875,-4.18701171875,1.203765869140625,1,1.0,1.0,1.0,1.0,45.00
2021-04-08 09:59:56.754,0.65412253,0.5906175,0.44328508,0.51508087,1.182395,0.19704767,0.08469793,0.7892496,0.6958521,0.42655075,0.20315251,0.6893069,0.53166634,1.0016911,0.33601955,0.8107623,0.079665,0.5647858,-0.18036658,0.25507724,811.9048,816.7399,806.26373,817.1429,777.25275,-0.42010498046875,-0.02166748046875,0.9071044921875,4.41131591796875,-5.802001953125,0.829925537109375,1,1.0,1.0,1.0,1.0,45.00
2021-04-08 09:59:57.280,0.65412253,0.5906175,0.674021,0.36923924,1.182395,0.19704767,0.12842257,0.8907861,0.6958521,0.42655075,0.34088355,0.6039163,0.53166634,1.0016911,0.32393906,0.8490884,0.079665,0.5647858,-0.15142472,0.28099945,805.8608,799.011,809.0842,814.7253,1154.7986,-0.41943359375,-0.02960205078125,0.9095458984375,5.14404296875,-4.852447509765625,0.4486083984375,1,1.0,1.0,1.0,1.0,45.00
2021-04-08 09:59:57.786,0.65412253,0.5906175,0.8464584,0.36923924,1.182395,0.19704767,0.1587229,0.8907861,0.6958521,0.42655075,0.33621502,0.6039163,0.53166634,1.0016911,0.17011379,0.8490884,0.079665,0.5647858,-0.11771287,0.28099945,806.26373,854.21246,783.2967,802.6374,706.7399,-0.4190673828125,-0.0269775390625,0.9073486328125,4.5159912109375,-4.65057373046875,0.844879150390625,1,1.0,1.0,1.0,1.0,45.00
2021-04-08 09:59:58.300,1.209301,0.5906175,0.875209,0.36923924,0.5636293,0.19704767,0.15567654,0.8907861,0.7994214,0.42655075,0.34408107,0.6039163,0.5116181,1.0016911,0.11728851,0.8490884,0.26367924,0.5647858,0.0033283166,0.28099945,827.619,841.31866,809.89014,828.022,775.64105,-0.41815185546875,-0.03216552734375,0.91131591796875,4.56085205078125,-4.643096923828125,1.099090576171875,1,1.0,1.0,1.0,1.0,45.00
2021-04-08 09:59:58.826,0.7674379,0.24545926,0.74569964,0.43908015,0.57009995,0.08718394,0.18186118,0.5022112,0.8422546,0.25061888,0.30898726,0.5863135,0.50715566,1.0122749,0.14796472,0.66010743,0.35089564,0.9637283,-0.0068765725,0.33965144,788.93774,845.7509,800.6227,792.96704,767.5824,-0.42242431640625,-0.02996826171875,0.90435791015625,4.65057373046875,-4.927215576171875,1.36077880859375,1,1.0,1.0,1.0,1.0,45.00
2021-04-08 09:59:59.352,0.74184597,0.24545926,0.54230917,0.5502491,0.49069715,0.08718394,0.08552697,0.5002599,0.8589453,0.25061888,0.29612714,0.7060472,0.583295,1.0122749,0.1966243,0.65981436,0.31121725,0.9637283,-0.036972232,0.3494342,806.6667,831.6484,804.65204,811.50183,729.304,-0.42230224609375,-0.0279541015625,0.90496826171875,5.001983642578125,-5.21881103515625,0.46356201171875,1,1.0,1.0,1.0,1.0,50.00
2021-04-08 09:59:59.878,0.7484604,0.24545926,0.41673636,0.7473123,0.48612443,0.08718394,0.101435006,0.47302255,0.83540714,0.25061888,0.18667032,0.7116193,0.57860273,1.0122749,0.20075673,0.66870594,0.30114052,0.9637283,-0.12244737,0.36015558,823.5897,828.4249,801.8315,813.91943,765.56775,-0.42926025390625,-0.02972412109375,0.9066162109375,5.06927490234375,-4.90478515625,0.64300537109375,1,1.0,1.0,1.0,1.0,50.00
2021-04-08 10:00:00.403,0.8514247,0.24545926,0.34916005,0.8285208,0.2888601,0.08718394,0.041787207,0.363897,0.6237797,0.25061888,0.18985029,0.71290493,0.6377373,1.0122749,0.29099047,0.6494398,0.11945214,0.9637283,-0.21493591,0.35343134,770.80585,846.55676,816.7399,778.86444,724.0659,-0.42681884765625,-0.019287109375,0.90264892578125,6.998291015625,-3.2000732421875,1.21124267578125,1,1.0,1.0,1.0,1.0,50.00
2021-04-08 10:00:00.906,0.76778847,0.5455898,0.55123025,0.84745234,0.28277266,0.51611423,0.09241849,0.32977188,0.35628211,0.53770775,0.15132123,0.4346768,0.60122633,1.0034364,0.30623034,0.6082793,-0.09097093,0.668589,-0.257969,0.3353106,811.9048,821.978,801.8315,801.8315,776.04395,-0.4395751953125,-0.02960205078125,0.90008544921875,4.77020263671875,-7.3870849609375,2.041168212890625,1,1.0,1.0,1.0,1.0,50.00
2021-04-08 10:00:01.417,0.76778847,0.6068037,0.6207,0.637795,0.28277266,0.54285514,-0.0012604492,0.37104225,0.35628211,0.535024,0.15211275,0.34494323,0.60122633,1.0147421,0.2935846,0.57864195,-0.09097093,0.64301336,-0.38870558,0.29380038,798.60803,863.8828,780.87915,788.1319,770.40295,-0.39764404296875,-0.02691650390625,0.9093017578125,5.136566162109375,-12.21710205078125,-1.233673095703125,1,1.0,1.0,1.0,1.0,50.00
2021-04-08 10:00:01.922,0.8898133,0.64349383,0.71344626,0.91405475,0.2841979,0.56799716,0.10648871,0.57589924,0.26351535,0.53121954,0.59841365,0.67319447,0.6454769,1.0271305,0.20813736,0.8117844,0.07087033,0.62844735,-0.45154047,0.33354646,809.0842,828.022,810.696,813.91943,715.6044,-0.37457275390625,0.00439453125,0.9371337890625,8.673095703125,-4.486083984375,2.220611572265625,1,1.0,1.0,1.0,1.0,50.00
2021-04-08 10:00:02.444,1.2246476,0.64349383,0.7430714,0.80603635,0.65773696,0.56799716,0.19301625,0.4837794,0.7940272,0.53121954,0.5970012,0.97025234,0.851526,1.0271305,0.17100272,0.8992906,0.7930383,0.62844735,-0.4575309,0.53039515,832.4542,813.91943,792.1612,825.6044,728.0952,-0.38836669921875,-0.00897216796875,0.92376708984375,4.2767333984375,-3.970184326171875,-1.1065673828125,1,1.0,1.0,1.0,1.0,50.00
2021-04-08 10:00:02.951,1.2246476,0.64349383,0.760612,0.80603635,0.65773696,0.56799716,0.22450489,0.4837794,0.7940272,0.53121954,0.58869755,0.97025234,0.851526,1.0271305,0.16590458,0.8992906,0.7930383,0.62844735,-0.13202654,0.53039515,778.46155,827.2161,798.20514,792.5641,710.3663,-0.4300537109375,-0.0179443359375,0.90325927734375,4.239349365234375,0.97198486328125,5.345916748046875,1,1.0,1.0,1.0,1.0,50.00
2021-04-08 10:00:03.473,1.2212807,0.64349383,0.6787269,0.6613458,0.7525819,0.56799716,0.10930409,0.41049466,0.7831028,0.53121954,0.5310339,0.96478546,0.8259841,1.0271305,0.11956153,0.9351656,0.7689956,0.62844735,0.019095402,0.6821298,804.2491,833.663,808.2784,808.2784,740.989,-0.42144775390625,-0.02252197265625,0.907958984375,4.88983154296875,-6.29547119140625,-1.398162841796875,1,1.0,1.0,1.0,1.0,50.00
2021-04-08 10:00:03.981,1.2212807,0.64349383,0.6825488,0.6613458,0.7525819,0.56799716,-0.0774037,0.41049466,0.7831028,0.53121954,0.4781688,0.96478546,0.8259841,1.0271305,0.1307893,0.9351656,0.7689956,0.62844735,0.04593892,0.6821298,839.304,792.5641,819.5604,841.7216,1048.4249,-0.407958984375,-0.02587890625,0.914306640625,4.90478515625,-5.203857421875,1.89910888671875,1,1.0,1.0,1.0,1.0,50.00
2021-04-08 10:00:04.491,0.9369985,0.64349383,0.40697277,0.6219119,0.60963947,0.56799716,-0.24754544,0.52552646,0.9970345,0.53121954,0.38136885,0.99233925,0.47323084,1.0271305,0.122201726,0.47069404,0.2636298,0.62844735,-0.031059789,0.42278385,805.8608,846.1539,794.57874,809.4872,713.5897,-0.404296875,-0.02740478515625,0.91937255859375,5.540313720703125,-4.987030029296875,1.757049560546875,1,1.0,1.0,1.0,1.0,50.00
2021-04-08 10:00:04.993,0.826224,0.16655882,0.44767496,0.50622797,0.56424826,0.3984221,-0.18874602,0.68944776,0.99759007,0.22486556,0.37727043,1.0443032,0.5233473,1.0041875,0.18954945,0.57573074,0.27687016,0.69591707,-0.09355423,0.376887,815.12823,818.7546,809.0842,817.9487,809.89014,-0.40020751953125,-0.01141357421875,0.92138671875,5.03936767578125,-4.044952392578125,1.24114990234375,1,1.0,1.0,1.0,1.0,50.00
2021-04-08 10:00:05.517,0.78665406,0.13858509,0.17046145,0.5343068,0.59059554,0.38504842,-0.015804047,0.60680276,0.9720871,0.44478714,0.4664858,1.0439256,0.5061708,1.0138783,0.28587487,0.57373357,0.27005813,0.75915307,-0.10594156,0.34242487,785.31134,813.1135,808.68134,805.8608,735.34796,-0.39764404296875,-0.01849365234375,0.9151611328125,4.964599609375,-5.091705322265625,0.6280517578125,1,1.0,1.0,1.0,1.0,50.00
2021-04-08 10:00:06.044,0.7530323,0.30536664,0.23067914,0.44345418,0.42653093,0.34529713,0.03608355,0.5316546,0.79909647,0.6208946,0.42878348,1.011035,0.60997397,1.0278671,0.27711594,0.5530471,0.18603879,0.74887025,-0.09230108,0.28709367,799.011,839.707,794.57874,796.1905,693.0403,-0.399658203125,-0.01995849609375,0.9122314453125,4.538421630859375,-4.8150634765625,0.844879150390625,1,1.0,1.0,1.0,1.0,50.00
2021-04-08 10:00:06.570,0.6993406,0.53753966,0.19104536,0.50387704,0.37983727,0.3524445,0.09345059,0.30299687,0.68183243,0.79770327,0.3911671,0.8251506,0.5309548,1.070714,0.16397291,0.47517765,0.26152033,0.8212452,-0.10982335,0.35802066,783.69965,815.9341,801.02563,782.0879,821.978,-0.4061279296875,-0.01800537109375,0.91619873046875,4.658050537109375,-4.089813232421875,1.07666015625,1,1.0,1.0,1.0,1.0,50.00
2021-04-08 10:00:07.072,0.67156094,0.7202119,0.47975263,0.42940974,0.40664893,0.33612645,0.085418604,0.3389983,0.68183243,0.7666598,0.3388969,0.8251506,0.54232806,1.1065795,0.04530507,0.4188138,0.260486,0.82691604,-0.15219772,0.38898534,799.81683,815.5311,802.6374,806.26373,774.43225,-0.4144287109375,-0.03033447265625,0.91351318359375,4.08233642578125,-3.327178955078125,0.441131591796875,1,1.0,1.0,1.0,1.0,50.00
2021-04-08 10:00:07.586,0.5069278,0.78545105,0.7314924,0.4940263,0.47870442,0.42871252,0.1422672,0.45834243,0.6700371,0.7666598,0.10268877,0.8251506,0.4679206,1.1269962,0.083150804,0.4961941,0.35826027,0.88575697,-0.16125892,0.48846626,811.0989,831.2454,803.0403,803.44324,693.8461,-0.41717529296875,-0.03173828125,0.91448974609375,4.47113037109375,-3.887939453125,0.8074951171875,1,1.0,1.0,1.0,1.0,50.00
2021-04-08 10:00:08.090,0.5069278,0.78545105,0.84790725,0.4940263,0.47870442,0.42871252,0.25922385,0.45834243,0.6700371,0.7666598,0.34232157,0.8251506,0.4679206,1.1269962,0.13267422,0.4961941,0.35826027,0.88575697,-0.111631855,0.48846626,810.696,813.1135,805.4579,817.1429,878.7912,-0.42333984375,-0.02996826171875,0.90728759765625,4.62066650390625,-3.8580322265625,-0.01495361328125,1,1.0,1.0,1.0,1.0,50.00
2021-04-08 10:00:08.607,0.5069278,0.78545105,0.8085586,0.7518821,0.47870442,0.42871252,0.25569004,0.57819295,0.6700371,0.7666598,0.31079048,0.55237705,0.4679206,1.1269962,0.10868779,0.58145815,0.35826027,0.88575697,-0.15504532,0.05248624,786.9231,853.4066,788.93774,809.89014,780.07324,-0.42193603515625,-0.03411865234375,0.9085693359375,4.478607177734375,-6.02630615234375,0.43365478515625,1,1.0,1.0,1.0,1.0,50.00
2021-04-08 10:00:09.135,0.85927683,0.78545105,0.6611074,0.73468834,0.52767384,0.42871252,0.23495889,0.5189383,0.58277464,0.7666598,0.29395303,0.5687014,0.5867265,1.1269962,0.13684483,0.61089206,0.069994435,0.88575697,-0.16742904,0.04969859,801.8315,831.6484,802.6374,796.99634,747.4359,-0.4259033203125,-0.03338623046875,0.9036865234375,4.957122802734375,-4.568328857421875,0.246734619140625,1,1.0,1.0,1.0,1.0,50.00
2021-04-08 10:00:09.638,0.9794501,0.78545105,0.6334047,0.91738576,0.5229462,0.42871252,0.10932621,0.5022103,0.73059165,0.7666598,0.32979476,0.8600721,0.58349866,1.1269962,0.12510905,0.5739494,0.1060914,0.88575697,-0.2722924,0.049567234,810.696,808.68134,815.9341,818.3516,901.75824,-0.426025390625,-0.04345703125,0.902099609375,4.344024658203125,-4.957122802734375,0.67291259765625,1,1.0,1.0,1.0,1.0,50.00
2021-04-08 10:00:10.156,1.0654866,0.78545105,0.6960149,0.993093,0.5501638,0.42871252,0.19148633,0.46104142,1.099916,0.7666598,0.3246643,0.8945294,0.6077238,1.1269962,0.19429186,0.56919175,0.18071137,0.88575697,-0.31856105,0.07410967,792.1612,818.7546,806.26373,798.20514,703.91943,-0.428466796875,-0.04229736328125,0.9007568359375,4.47113037109375,-4.65057373046875,0.471038818359375,1,1.0,1.0,1.0,1.0,50.00
2021-04-08 10:00:10.663,1.3007804,0.78545105,0.82052916,1.1846232,0.69316506,0.42871252,0.3498294,0.6106293,1.1276096,0.7666598,0.4291809,0.92867666,0.54205906,1.1269962,0.21951579,0.5095165,0.28460318,0.88575697,-0.21057072,0.18495807,810.293,833.663,794.17584,802.23444,786.52014,-0.432373046875,-0.04083251953125,0.90350341796875,4.59075927734375,-4.104766845703125,0.85235595703125,1,1.0,1.0,1.0,1.0,50.00
2021-04-08 10:00:11.189,1.2134292,0.78545105,0.77753264,1.1193893,0.61659175,0.42871252,0.3170108,0.60866463,1.1276096,0.7666598,0.4278713,0.9095647,0.49735606,1.1269962,0.18660991,0.51821125,0.37623772,0.88575697,-0.032359697,0.43487716,798.60803,833.2601,794.9817,805.05493,705.9341,-0.44580078125,-0.0447998046875,0.8994140625,4.972076416015625,-5.824432373046875,1.173858642578125,1,1.0,1.0,1.0,1.0,50.00
2021-04-08 10:00:11.717,1.1025994,0.78545105,0.71586376,1.161899,0.42665696,0.42871252,0.33717692,0.5689944,1.0908595,0.7666598,0.37336326,0.8984285,0.49813944,1.1269962,0.1598981,0.4916601,0.26894,0.88575697,0.040249795,0.4275795,809.4872,829.2308,811.50183,812.3077,738.97437,-0.4393310546875,-0.04833984375,0.89520263671875,4.643096923828125,-6.497344970703125,1.742095947265625,1,1.0,1.0,1.0,1.0,50.00
2021-04-08 10:00:12.242,0.943703,0.079854995,0.5593921,0.9755295,0.2892844,-0.07951205,0.27652338,0.35833183,0.61070865,0.627313,0.24200088,0.67679626,0.53573287,1.0136291,0.13735202,0.5602151,0.18506876,0.4331149,-0.029938256,0.3718673,786.1172,803.0403,821.978,802.6374,763.95605,-0.44476318359375,-0.03802490234375,0.90057373046875,4.97955322265625,-6.41510009765625,0.52337646484375,1,1.0,1.0,1.0,1.0,50.00
2021-04-08 10:00:12.767,0.9279688,0.3258235,0.46504143,0.90867,0.2570962,0.29457045,0.3738613,0.26893702,0.35141826,0.6825191,0.23829365,0.6659793,0.55883867,0.99301916,0.22434849,0.5933829,0.092808515,0.64986116,-0.1764828,0.21900634,808.68134,857.4359,807.8755,819.15753,743.00366,-0.44024658203125,-0.03741455078125,0.89886474609375,4.673004150390625,-3.940277099609375,0.785064697265625,1,1.0,1.0,1.0,1.0,50.00
2021-04-08 10:00:13.278,0.8844296,0.35030925,0.39876878,0.66433096,0.25676242,0.31400904,0.31637874,0.21390353,0.2924976,0.68163764,0.23817083,0.5671374,0.604968,0.9864191,0.21861662,0.6469019,0.054672528,0.6619284,-0.21160911,0.17370486,812.71063,820.7692,812.3077,827.2161,790.9524,-0.44219970703125,-0.04132080078125,0.896484375,4.179534912109375,-5.794525146484375,1.4056396484375,1,1.0,1.0,1.0,1.0,50.00
2021-04-08 10:00:13.804,0.82511395,0.5073519,0.53693044,0.4775422,0.25190592,0.5232002,0.35805884,0.38820305,0.2924976,0.61574614,0.34899586,0.7680765,0.59831035,0.9669225,0.16346732,0.57925844,0.021045806,0.8176187,-0.16192082,0.25806254,820.3663,819.9634,802.23444,817.1429,717.2161,-0.43536376953125,-0.0396728515625,0.90142822265625,4.867401123046875,-5.076751708984375,-0.515899658203125,1,1.0,1.0,1.0,1.0,50.00
2021-04-08 10:00:14.314,0.7266793,0.5119483,0.55116737,0.5974605,0.56347,0.54121995,0.2566722,0.4029394,0.91689503,0.5913819,0.34245682,0.7917029,0.35960802,0.95228595,-0.019164538,0.47285846,0.16175568,0.8665363,-0.07791288,0.28248212,802.6374,822.7839,799.41394,807.0696,743.00366,-0.4219970703125,-0.0426025390625,0.90155029296875,4.6356201171875,-5.1141357421875,0.530853271484375,1,1.0,1.0,1.0,1.0,50.00
2021-04-08 10:00:14.823,0.70044243,0.5119483,0.44898665,0.5631212,0.69587374,0.54121995,0.28621417,0.44271484,0.91689503,0.5913819,0.33870265,0.797881,0.32750857,0.95228595,-0.042801265,0.43386787,0.10960006,0.8665363,-0.06330696,0.2681011,823.1868,817.9487,809.89014,821.5751,911.8315,-0.42559814453125,-0.045654296875,0.90789794921875,4.777679443359375,-4.605712890625,1.233673095703125,1,1.0,1.0,1.0,1.0,50.00
2021-04-08 10:00:15.352,0.7054883,0.24157283,0.26374704,0.52150315,0.6386214,0.34492165,0.15843767,0.40359893,0.84772843,0.7675027,0.28814548,0.7633379,0.37491032,0.9594836,-0.11162786,0.4333581,0.010911206,0.3448924,-0.13563964,0.16688603,800.6227,836.8865,802.6374,801.4286,801.02563,-0.42041015625,-0.044189453125,0.9072265625,5.2337646484375,-4.867401123046875,1.09161376953125,1,1.0,1.0,1.0,1.0,50.00
2021-04-08 10:00:15.859,0.6153019,0.20120527,0.00149587,0.8055172,0.5461457,0.31818753,0.11543502,0.35836354,0.91040057,0.79115623,0.26246753,0.85962385,0.41002622,0.9614412,-0.089676134,0.5071432,-0.09657022,0.30866525,-0.31370163,0.0663188,814.7253,803.8461,808.2784,823.1868,882.4176,-0.4068603515625,-0.0382080078125,0.907470703125,5.016937255859375,-5.256195068359375,0.874786376953125,1,1.0,1.0,1.0,1.0,50.00
2021-04-08 10:00:16.366,0.49352765,0.15293424,-0.0595249,0.8413598,0.29650283,0.25808242,0.022806099,0.28872612,0.82459176,0.79115623,0.115279235,0.8953795,0.4577322,1.004494,0.008019714,0.5633264,-0.1294827,0.4192997,-0.39605856,-0.055705998,809.0842,819.15753,815.12823,819.5604,846.1539,-0.4276123046875,-0.037353515625,0.906982421875,4.762725830078125,-3.252410888671875,2.474822998046875,1,1.0,1.0,1.0,1.0,50.00
2021-04-08 10:00:16.869,0.5553111,0.101514414,-0.0035078055,0.8952615,0.35191104,0.16979013,0.025451776,0.28554472,0.83086926,0.51445645,0.26439384,0.8953795,0.43954277,0.9626264,0.07463259,0.5508376,-0.037937112,0.4553788,-0.42843282,-0.003301237,799.41394,846.55676,796.5934,796.99634,718.8278,-0.44158935546875,-0.02911376953125,0.89422607421875,4.127197265625,-5.12908935546875,0.8673095703125,1,1.0,1.0,1.0,1.0,50.00
2021-04-08 10:00:17.374,0.8888017,0.3993493,0.29682,0.76018703,0.616986,0.17092858,0.105502,0.26322457,0.79644233,0.18550071,0.35219255,0.80127174,0.45574108,0.95773923,0.12841302,0.5102653,0.14994788,0.60800767,-0.3919784,0.18886383,810.696,829.6337,803.44324,813.5165,711.5751,-0.430419921875,-0.03619384765625,0.9039306640625,4.32159423828125,-5.0543212890625,1.256103515625,1,1.0,1.0,1.0,1.0,50.00
2021-04-08 10:00:17.883,1.0374585,0.5263759,0.59063846,1.0088159,0.72464955,0.19007885,0.25487253,0.36184758,0.7379411,0.18129346,0.3506741,0.66257566,0.45501453,0.8952207,0.16720983,0.4512375,0.2094031,0.62225395,-0.3208184,0.28671387,806.26373,805.05493,806.6667,812.3077,834.0659,-0.43194580078125,-0.0379638671875,0.9033203125,4.9346923828125,-4.568328857421875,0.657958984375,1,1.0,1.0,1.0,1.0,50.00
2021-04-08 10:00:18.387,1.1613085,0.7601726,0.7657363,1.4374758,0.84761846,0.3039627,0.319258,0.70696574,0.66825545,0.06900552,0.3469312,0.66630256,0.4702249,0.9472786,0.18378541,0.26210818,0.30074593,0.7579168,-0.30140358,0.34937993,804.2491,853.8095,783.69965,805.8608,757.9121,-0.43121337890625,-0.04571533203125,0.89874267578125,4.897308349609375,-5.27862548828125,0.755157470703125,1,1.0,1.0,1.0,1.0,50.00
2021-04-08 10:00:18.894,1.1692246,0.7601726,0.73009056,1.3928103,0.877938,0.3039627,0.2657898,0.7108669,0.6107196,0.06900552,0.27003586,0.7350142,0.49081317,0.9472786,0.13648885,0.29629,0.29764798,0.7579168,-0.18325816,0.15603252,811.0989,821.1722,789.7436,809.4872,738.97437,-0.4368896484375,-0.0469970703125,0.90032958984375,5.06927490234375,-4.837493896484375,1.18133544921875,1,1.0,1.0,1.0,1.0,50.00
2021-04-08 10:00:19.412,0.8444018,0.7601726,0.5667201,1.1301546,0.48160163,0.3039627,0.0077439724,0.5072654,0.577738,0.06900552,0.14966537,0.7721464,0.47192818,0.9472786,0.07843716,0.4072259,0.028056914,0.7579168,-0.27565777,0.17790471,799.41394,815.12823,806.26373,818.3516,719.6337,-0.42572021484375,-0.039794921875,0.9056396484375,4.658050537109375,-4.5458984375,1.143951416015625,1,1.0,1.0,1.0,1.0,50.00
2021-04-08 10:00:19.920,0.8596501,0.7601726,0.4605733,0.7042623,0.5337162,0.3039627,-0.019388437,0.15197134,0.65219235,0.06900552,0.13956237,0.5466071,0.5109254,0.9472786,0.09850723,0.46818542,0.13252635,0.7579168,-0.20459193,0.22829103,809.4872,829.6337,794.9817,808.68134,731.7216,-0.432861328125,-0.04583740234375,0.902587890625,4.47113037109375,-3.828125,1.00189208984375,1,1.0,1.0,1.0,1.0,50.00
2021-04-08 10:00:20.427,0.9267926,-0.057172365,0.46616536,0.83331585,0.5100448,-0.07985715,-0.07294065,0.14097449,0.6323193,0.32522637,0.09989562,0.4702777,0.5307176,1.046185,0.061511587,0.45336428,0.17252608,0.5537655,-0.2235817,0.2099521,817.1429,801.8315,804.65204,836.08057,946.4835,-0.439697265625,-0.041259765625,0.89739990234375,5.301055908203125,-5.316009521484375,1.099090576171875,1,1.0,1.0,1.0,1.0,50.00
2021-04-08 10:00:20.935,0.7705459,-0.20766564,0.28705892,0.90842634,0.47902364,0.1133431,-0.044017486,0.18915957,0.660242,0.3509428,0.14711347,0.4201778,0.53994423,1.0830623,0.042155724,0.41677165,0.13728759,0.4772384,-0.15494575,0.13559422,812.71063,804.2491,811.0989,832.0513,1085.0916,-0.4378662109375,-0.038818359375,0.89739990234375,4.987030029296875,-5.48797607421875,1.128997802734375,1,1.0,1.0,1.0,1.0,50.00
2021-04-08 10:00:21.447,0.48682374,0.09436152,0.15945241,0.69095594,0.2687257,0.11596662,-0.123821415,0.23194209,0.45105493,0.3509428,0.11190487,0.3176624,0.43650988,1.0810314,0.066889256,0.41722995,-0.06084022,0.42737633,-0.19764511,-0.01960707,770.80585,842.9304,804.65204,787.72894,700.293,-0.4488525390625,-0.0496826171875,0.89697265625,4.77020263671875,-4.957122802734375,1.218719482421875,1,1.0,1.0,1.0,1.0,50.00
2021-04-08 10:00:21.950,0.30451587,0.20556334,0.023523102,0.5208178,0.23529448,0.16341299,-0.22670166,0.26495448,0.38747022,0.28021812,0.13043883,0.39001966,0.41987574,1.0930693,0.09328011,0.445171,-0.13351291,0.4027729,-0.21819451,-0.0010869844,805.4579,803.0403,805.05493,810.696,820.3663,-0.44073486328125,-0.037841796875,0.899169921875,5.061798095703125,-4.78515625,1.323394775390625,1,1.0,1.0,1.0,1.0,50.00
2021-04-08 10:00:22.464,0.10973237,0.45525613,0.28264517,0.21617505,0.16082168,-0.031342912,-0.3740261,0.26749095,0.081602246,-0.00829944,-0.010716434,0.38802204,0.30340222,1.076511,0.10341696,0.4717251,-0.15347664,0.5006955,-0.25642404,0.026197733,807.8755,825.2015,799.81683,804.65204,666.4469,-0.44061279296875,-0.042724609375,0.89483642578125,4.77020263671875,-4.673004150390625,1.457977294921875,1,1.0,1.0,1.0,1.0,50.00
2021-04-08 10:00:22.969,0.39924672,0.45525613,0.3338239,0.36623257,0.3213892,-0.031342912,-0.23449656,0.3891889,0.74604654,-0.00829944,0.20425296,0.65011656,0.47610235,1.076511,0.09176995,0.58156335,0.16863242,0.5006955,-0.24950518,0.18018259,809.4872,830.0366,804.65204,822.7839,691.02563,-0.43817138671875,-0.0418701171875,0.89642333984375,5.031890869140625,-5.682373046875,0.6280517578125,1,1.0,1.0,1.0,1.0,50.00
2021-04-08 10:00:23.473,0.8253793,0.45525613,0.7330751,0.55681676,0.7456748,-0.031342912,0.012079985,0.6270499,0.88597244,-0.00829944,0.34424073,0.61747324,0.40198785,1.076511,0.12036847,0.54149866,0.18026792,0.5006955,-0.25782198,0.16227858,805.4579,813.91943,805.4579,822.7839,757.9121,-0.43817138671875,-0.04156494140625,0.89923095703125,4.844970703125,-5.345916748046875,0.710296630859375,1,1.0,1.0,1.0,1.0,50.00
2021-04-08 10:00:24.000,0.7510797,0.45525613,0.8249398,0.61630946,0.80256146,-0.031342912,0.22323379,0.5931755,0.91118747,-0.00829944,0.3539623,0.7472896,0.4621455,1.076511,0.07510518,0.52667946,0.111156985,0.5006955,-0.2655113,0.13398606,798.60803,822.381,820.3663,814.7253,726.8865,-0.44036865234375,-0.04583740234375,0.900146484375,4.94964599609375,-4.254302978515625,0.5682373046875,1,1.0,1.0,1.0,1.0,50.00
2021-04-08 10:00:24.513,0.8073875,0.45525613,0.94365066,0.5561708,0.84944075,-0.031342912,0.31061047,0.5462756,0.88172495,-0.00829944,0.43188524,0.7029058,0.45959228,1.076511,0.154129,0.48282877,0.09137156,0.5006955,-0.29817948,0.07742308,802.6374,834.0659,811.9048,809.4872,729.707,-0.43505859375,-0.0469970703125,0.8961181640625,5.076751708984375,-4.306640625,0.351409912109375,1,1.0,1.0,1.0,1.0,50.00
2021-04-08 10:00:25.038,0.77649885,0.45525613,0.8600333,0.38460124,0.74970454,-0.031342912,0.3153644,0.48575377,0.943025,-0.00829944,0.3511176,0.9348255,0.50197417,1.076511,0.21358787,0.5264405,0.09339185,0.5006955,-0.2684863,0.043651037,828.022,820.3663,807.0696,838.49817,798.20514,-0.43402099609375,-0.041259765625,0.90460205078125,5.330963134765625,-5.031890869140625,1.009368896484375,1,1.0,1.0,1.0,1.0,50.00
2021-04-08 10:00:25.559,0.87134194,0.45525613,0.72538114,0.509226,0.6721428,-0.031342912,0.2684793,0.47826722,0.9327371,-0.00829944,0.45628485,0.9498438,0.47893792,1.076511,0.29958063,0.5627922,0.06838714,0.5006955,-0.31582013,-0.007948647,794.9817,825.6044,801.02563,812.71063,780.87915,-0.431884765625,-0.0499267578125,0.89495849609375,6.033782958984375,-4.3963623046875,2.22808837890625,1,1.0,1.0,1.0,1.0,50.00
2021-04-08 10:00:26.088,0.93054724,0.45525613,0.466169,0.69415367,0.5433369,-0.031342912,0.22452289,0.4973495,0.85086036,-0.00829944,0.4724051,0.911594,0.46662793,1.076511,0.26024017,0.5685998,-0.05869016,0.5006955,-0.42222968,-0.12354973,804.65204,790.54944,814.3223,801.02563,886.04395,-0.40374755859375,-0.03851318359375,0.91705322265625,4.732818603515625,-7.76092529296875,0.0299072265625,1,1.0,1.0,1.0,1.0,50.00
2021-04-08 10:00:26.597,0.9417138,0.45525613,0.27915558,0.9091657,0.47245827,-0.031342912,0.19983386,0.4752112,0.926218,-0.00829944,0.46872735,0.78619206,0.41968393,1.076511,0.24664836,0.5212461,-0.08633624,0.5006955,-0.49612573,-0.09324414,800.6227,837.6923,792.1612,796.99634,720.0366,-0.39105224609375,-0.045654296875,0.92059326171875,4.1571044921875,-3.880462646484375,0.635528564453125,1,1.0,1.0,1.0,1.0,50.00
2021-04-08 10:00:27.100,0.9999352,0.45525613,0.32428876,0.99402565,0.47752008,-0.031342912,0.07974917,0.50377274,0.9359439,-0.00829944,0.3578167,0.70040536,0.40354005,1.076511,0.17775524,0.50460476,0.013188487,0.5006955,-0.32477534,-0.011063934,796.99634,804.2491,798.60803,814.3223,785.31134,-0.38873291015625,-0.0377197265625,0.91802978515625,4.5458984375,-4.42626953125,0.6878662109375,1,1.0,1.0,1.0,1.0,50.00
2021-04-08 10:00:27.610,1.0258605,0.2367083,0.36936063,0.94886786,0.49896997,0.15053353,0.06408942,0.47103104,0.9462181,0.16782984,0.3145762,0.671656,0.36973763,1.0324743,0.14238572,0.46151376,0.105208896,0.4765572,-0.19632447,0.08373903,803.0403,799.011,791.75824,805.4579,801.4286,-0.392333984375,-0.03204345703125,0.9215087890625,4.762725830078125,-3.84307861328125,0.8074951171875,1,1.0,1.0,1.0,1.0,50.00
2021-04-08 10:00:28.115,0.9277544,0.2367083,0.1981695,0.77267736,0.3954899,0.15053353,-0.024551122,0.40628147,0.9416063,0.16782984,0.3032125,0.665521,0.5107209,1.0324743,0.1416257,0.490739,0.10135651,0.4765572,-0.20420878,0.05155687,780.4762,847.3626,784.10254,781.28204,783.69965,-0.395263671875,-0.04461669921875,0.9134521484375,5.106658935546875,-4.2169189453125,0.904693603515625,1,1.0,1.0,1.0,1.0,50.00
2021-04-08 10:00:28.637,0.8603761,0.2745522,0.4417857,0.54669327,0.48049298,0.15064554,0.079000086,0.4782913,1.2388713,0.13993502,0.4685373,0.8597172,0.5465482,1.0429782,0.22295113,0.47316656,0.10212695,0.4713723,-0.24932495,0.05131545,792.1612,828.4249,797.3993,808.2784,661.2088,-0.4248046875,-0.03680419921875,0.90667724609375,4.658050537109375,-3.013153076171875,1.876678466796875,1,1.0,1.0,1.0,1.0,50.00
2021-04-08 10:00:29.148,0.7226482,0.38467142,0.8524226,0.7064848,0.58886683,0.10852506,0.3839124,0.82281005,1.2870634,0.12196649,0.7450038,1.1753353,0.51963395,1.0686874,0.3134292,0.55588454,0.10069914,0.51044875,-0.309033,0.08348498,802.23444,817.9487,805.05493,818.3516,770.0,-0.41387939453125,-0.0369873046875,0.9110107421875,4.53094482421875,-5.630035400390625,1.1663818359375,1,1.0,1.0,1.0,1.0,50.00
2021-04-08 10:00:29.657,0.6144455,0.8226311,0.97216314,0.78026533,0.6049375,0.714963,0.50696146,0.8725637,1.2870634,0.6535318,0.7478341,1.1753353,0.55229217,1.0752513,0.30453524,0.55106485,0.032669116,0.6714613,-0.3235035,0.13008146,803.44324,822.381,799.41394,802.23444,596.337,-0.42926025390625,-0.0413818359375,0.90301513671875,4.418792724609375,-4.306640625,1.12152099609375,1,1.0,1.0,1.0,1.0,50.00
2021-04-08 10:00:30.181,0.5360861,0.668817,0.88060194,0.75119245,0.48000896,0.60183936,0.45947042,0.8445536,1.20379,0.6708204,0.74530894,1.1706682,0.58997905,1.054257,0.24601015,0.57657206,0.08426425,0.6787456,-0.2387316,0.14489031,816.337,800.2198,813.91943,831.6484,798.20514,-0.43524169921875,-0.03924560546875,0.9033203125,4.53094482421875,-4.583282470703125,1.069183349609375,1,1.0,1.0,1.0,1.0,50.00
2021-04-08 10:00:30.707,0.62196374,0.62433136,0.80594486,0.6776843,0.5705,0.53435713,0.21993668,0.6001035,1.0839394,0.65074915,0.456983,0.82146966,0.60235894,1.0550289,0.1545235,0.58489114,0.10112762,0.6976494,-0.18108,0.17269927,809.4872,821.1722,804.2491,811.0989,759.5238,-0.4300537109375,-0.03955078125,0.9041748046875,4.42626953125,-4.762725830078125,0.64300537109375,1,1.0,1.0,1.0,1.0,50.00
2021-04-08 10:00:31.234,0.61650574,0.37896746,0.6583189,0.61034644,0.70278096,0.38619605,0.02437201,0.5451329,1.0860875,0.62581784,0.22309726,0.73941815,0.56071633,1.0033109,0.070902586,0.58667934,0.15232278,0.69230586,-0.1447518,0.19355275,752.674,835.6777,796.5934,770.0,724.4689,-0.423583984375,-0.03851318359375,0.90673828125,4.628143310546875,-4.88983154296875,0.844879150390625,1,1.0,1.0,1.0,1.0,50.00
2021-04-08 10:00:31.760,0.5236922,0.28981346,0.66653395,0.727641,0.76925856,0.2581902,0.11240947,0.6159168,1.0376332,0.56991285,0.18914792,0.8500934,0.53052133,0.9554408,0.003155902,0.56401837,0.09778202,0.6939374,-0.21245246,0.2277755,817.5458,817.5458,808.68134,837.6923,778.0586,-0.42340087890625,-0.0390625,0.90863037109375,4.80010986328125,-5.390777587890625,0.456085205078125,1,1.0,1.0,1.0,1.0,50.00
2021-04-08 10:00:32.266,0.9028578,0.38328558,0.43788087,0.77651405,0.7978588,0.28367564,0.19414175,0.69343406,0.9659792,0.6187833,0.17825454,0.84916216,0.59556687,0.9505871,0.09789792,0.5133568,0.04443399,0.6402466,-0.26342678,0.23522621,791.3553,815.9341,809.4872,794.9817,761.13556,-0.4246826171875,-0.04498291015625,0.90521240234375,4.85992431640625,-4.50103759765625,0.456085205078125,1,1.0,1.0,1.0,1.0,50.00
2021-04-08 10:00:32.779,1.223107,0.43962455,0.4706374,1.099975,0.92073774,0.27525124,0.27319553,0.82338065,0.8933372,0.53822416,0.17292494,0.8679564,0.4869326,0.9656471,0.12121064,0.43492043,0.042826004,0.6331531,-0.26261234,0.20171866,805.4579,821.5751,808.2784,806.6667,772.01465,-0.42755126953125,-0.044189453125,0.9013671875,4.42626953125,-4.3365478515625,0.814971923828125,1,1.0,1.0,1.0,1.0,50.00
2021-04-08 10:00:33.296,1.2780367,0.6040535,0.36047694,1.1464775,0.8279217,0.42255965,0.14828861,0.5617251,0.87989944,0.5593214,0.22239327,0.7843071,0.47674757,1.0403657,0.1622054,0.49975312,0.0076509453,0.39199898,-0.2947971,0.07173217,814.3223,808.2784,803.8461,815.9341,869.12085,-0.42852783203125,-0.0469970703125,0.90289306640625,4.47113037109375,-4.867401123046875,0.755157470703125,1,1.0,1.0,1.0,1.0,50.00
2021-04-08 10:00:33.800,1.0466806,0.07991163,0.11352893,1.0271814,0.6243223,0.17403671,-0.09868228,0.40721723,0.88707095,0.33104157,0.16152093,0.7843071,0.41466138,0.9719082,0.02910837,0.48723114,0.030491615,0.4008673,-0.2848825,0.049788054,805.8608,856.2271,808.2784,804.65204,782.0879,-0.42919921875,-0.0455322265625,0.9019775390625,4.673004150390625,-4.66552734375,1.039276123046875,1,1.0,1.0,1.0,1.0,50.00
2021-04-08 10:00:34.325,0.7691298,0.10405143,0.25923657,0.8148318,0.25563475,0.12714794,-0.3263887,0.06800302,0.49570426,0.44876325,0.067563124,0.5393296,0.39490852,1.0170476,0.039163772,0.5324505,-0.004447887,0.50027794,-0.27530167,0.04262515,799.81683,789.7436,809.4872,812.71063,848.5714,-0.424560546875,-0.04595947265625,0.90679931640625,4.38140869140625,-5.54779052734375,1.143951416015625,1,1.0,1.0,1.0,1.0,50.00
2021-04-08 10:00:34.853,0.8204913,0.21617621,0.33903366,0.8478007,0.33619514,0.1251118,-0.22993699,0.20186377,0.89594865,0.6163905,0.22018996,0.77614677,0.28070417,1.0568281,0.02260825,0.4860386,0.020050144,0.5028944,-0.31521899,-0.001816926,804.65204,807.0696,804.2491,807.47253,788.5348,-0.42694091796875,-0.04498291015625,0.90728759765625,4.4561767578125,-4.366455078125,0.5084228515625,1,1.0,1.0,1.0,1.0,50.00
2021-04-08 10:00:35.361,1.0374722,0.28984708,0.48601198,0.9624423,0.5490416,0.17415965,-0.13794719,0.327799,0.93176407,0.657243,0.31716698,0.7831821,0.2453826,1.1083843,-0.0051640673,0.49932662,-0.016439488,0.65249586,-0.39973363,-0.017185492,779.67035,827.619,794.9817,799.011,711.5751,-0.4266357421875,-0.046142578125,0.9072265625,5.48797607421875,-4.852447509765625,1.592559814453125,1,1.0,1.0,1.0,1.0,50.00
2021-04-08 10:00:35.866,1.1586072,0.34896868,0.7425575,1.1596484,0.7562879,0.22844613,-0.009159559,0.47600287,0.9414472,0.657243,0.31716698,0.80078864,0.26767945,1.1215746,-0.018480703,0.40966502,-0.061089348,0.66640604,-0.4978696,-0.14636098,812.71063,797.3993,794.9817,803.0403,923.5165,-0.423828125,-0.03973388671875,0.9117431640625,4.747772216796875,-5.2935791015625,1.353302001953125,1,1.0,1.0,1.0,1.0,50.00
2021-04-08 10:00:36.386,1.0064152,0.2753874,0.913846,1.0508821,0.67944247,0.24509284,0.10115238,0.5175696,0.9018947,0.5854204,0.22446513,0.74975276,0.43874252,1.1050912,-0.06600562,0.89381474,0.1552918,0.8293813,-0.47441003,0.6514478,804.2491,808.2784,807.0696,820.7692,699.89014,-0.42901611328125,-0.0389404296875,0.9007568359375,6.05621337890625,-3.42437744140625,2.2430419921875,1,1.0,1.0,1.0,1.0,50.00
2021-04-08 10:00:36.886,0.8655914,0.21225321,1.0795403,0.8695974,0.5605186,0.24990784,0.12315072,0.46128383,0.65939385,0.5575788,0.2273811,0.66275173,0.5076363,1.0997626,0.16368073,0.81762385,0.26794302,0.83958435,-0.29664576,0.56252694,790.54944,838.49817,793.7729,789.7436,716.8132,-0.418701171875,-0.02880859375,0.9058837890625,4.78515625,-6.736602783203125,-0.8673095703125,1,1.0,1.0,1.0,1.0,50.00
2021-04-08 10:00:37.404,0.8943339,0.21225321,1.0221204,0.87759733,0.29898015,0.24990784,0.106044486,0.4959053,0.62184376,0.5575788,0.28856754,0.8242629,0.5952468,1.0997626,0.21401276,0.7566197,0.37655163,0.83958435,-0.27827978,0.5004552,812.3077,823.1868,800.6227,810.293,801.4286,-0.39166259765625,-0.0263671875,0.91680908203125,4.53094482421875,-3.828125,0.635528564453125,1,1.0,1.0,1.0,1.0,50.00
2021-04-08 10:00:37.929,0.86460567,0.21225321,0.97254795,0.98156613,0.37581226,0.24990784,0.1905103,0.55185556,0.87149704,0.5575788,0.6027681,0.9644863,0.5067546,1.0997626,0.19621265,0.5731695,0.26588917,0.83958435,-0.34340572,0.21988472,808.2784,852.6007,809.89014,809.89014,784.5055,-0.4017333984375,-0.0302734375,0.9139404296875,4.059906005859375,-3.2598876953125,0.471038818359375,1,1.0,1.0,1.0,1.0,50.00
2021-04-08 10:00:38.433,0.85448134,0.21225321,1.0005778,1.1153677,0.42534643,0.24990784,0.5168977,0.6271966,0.87161475,0.5575788,0.64783996,0.96784955,0.4969573,1.0997626,0.14851612,0.54955214,0.20387469,0.83958435,-0.44385734,0.13829836,831.2454,832.4542,800.6227,824.7985,726.08057,-0.4078369140625,-0.0389404296875,0.91162109375,3.970184326171875,-4.194488525390625,-0.052337646484375,1,1.0,1.0,1.0,1.0,50.00
2021-04-08 10:00:38.940,0.8115674,0.21225321,0.94319963,1.153896,0.5237605,0.24990784,0.70688176,0.6434097,0.9018344,0.5575788,0.68079835,0.9422933,0.45130873,1.0997626,0.10481947,0.5813863,-0.0011315092,0.83958435,-0.38583308,-0.037821602,813.91943,821.5751,800.6227,821.978,743.4066,-0.40716552734375,-0.0361328125,0.914306640625,5.12908935546875,-3.701019287109375,1.069183349609375,1,1.0,1.0,1.0,1.0,50.00
2021-04-08 10:00:39.450,0.96978706,0.21225321,0.9891432,0.9498545,0.47808436,0.24990784,0.714695,0.4711522,0.9023011,0.5575788,0.57647943,0.7721722,0.45544082,1.0997626,0.11562521,0.50131494,-0.04559589,0.83958435,-0.2660445,-0.05136709,795.38464,820.3663,811.9048,806.26373,745.82416,-0.4071044921875,-0.03765869140625,0.917236328125,4.837493896484375,-5.884246826171875,1.71966552734375,1,1.0,1.0,1.0,1.0,50.00
2021-04-08 10:00:39.960,0.94172204,0.21225321,0.8521268,0.6906858,0.448905,0.24990784,0.5530607,0.34989887,0.9199682,0.5575788,0.48611987,0.74059093,0.4472386,1.0997626,0.14615662,0.49243835,-0.040808048,0.83958435,-0.14500618,0.06175611,810.293,811.0989,798.20514,810.696,850.18317,-0.4022216796875,-0.03192138671875,0.91510009765625,5.256195068359375,-5.091705322265625,2.2430419921875,1,1.0,1.0,1.0,1.0,50.00
2021-04-08 10:00:40.469,0.79559076,0.29092538,0.8339046,0.29410353,0.5634059,0.20425665,0.2919343,0.5622984,1.1211107,0.5179849,0.35320535,0.9468933,0.40974206,0.98254037,0.20895733,0.45273992,-0.049854357,0.24480917,-0.1865442,0.03904846,814.7253,778.0586,804.2491,822.7839,1038.7546,-0.40106201171875,-0.03277587890625,0.9149169921875,5.1739501953125,-4.807586669921875,1.039276123046875,1,1.0,1.0,1.0,1.0,50.00
2021-04-08 10:00:40.985,0.4259694,0.2842259,0.59806395,0.33300406,0.57059807,0.16242357,0.14127687,0.6602837,1.0396129,0.5438286,0.37976792,0.8216295,0.37724334,0.9882506,0.14631341,0.42794332,-0.12132063,0.23359083,-0.24974939,-0.029756948,786.9231,834.87177,801.8315,802.23444,675.31134,-0.40008544921875,-0.0347900390625,0.91229248046875,5.106658935546875,-5.525360107421875,0.58319091796875,1,1.0,1.0,1.0,1.0,50.00
2021-04-08 10:00:41.488,0.44463247,0.2842259,0.5633856,0.32393888,0.66323376,0.16242357,0.07335971,0.777622,1.0396129,0.5438286,0.35663852,0.8160615,0.35225964,0.9882506,0.113566585,0.3623347,-0.28307024,0.23359083,-0.32883322,-0.23780502,795.38464,814.7253,799.41394,808.68134,797.3993,-0.4044189453125,-0.035400390625,0.91375732421875,4.792633056640625,-4.762725830078125,0.859832763671875,1,1.0,1.0,1.0,1.0,50.00
2021-04-08 10:00:41.991,0.63924754,0.09695336,0.25459772,0.46489808,0.3791393,0.4176278,-0.095961206,0.6262623,0.6998278,0.63401985,0.35044587,0.56324774,0.2528563,1.0237442,0.00747193,0.17233293,-0.43450108,0.36048895,-0.2664451,-0.20327766,802.23444,816.337,806.6667,810.696,756.7033,-0.401611328125,-0.0323486328125,0.92108154296875,4.88983154296875,-4.852447509765625,1.016845703125,1,1.0,1.0,1.0,1.0,50.00
2021-04-08 10:00:42.517,0.475171,0.47709945,0.5921608,0.38949957,-0.1059151,0.5407341,0.13299781,0.18025148,0.33091807,0.6693765,0.29958096,0.6225443,0.28377235,1.0619223,0.03298881,0.52080125,-0.23140809,0.40158677,-0.2650822,-0.12969826,809.0842,831.6484,802.6374,822.381,728.0952,-0.4110107421875,-0.03515625,0.91571044921875,4.91973876953125,-4.007568359375,0.657958984375,1,1.0,1.0,1.0,1.0,50.00
2021-04-08 10:00:43.025,0.50431895,0.4268892,0.6678956,0.61441463,-0.15142408,0.46855378,0.15182413,0.07501355,0.45590773,0.88338804,0.21310255,0.7368215,0.39249384,1.0222478,0.046140853,0.612512,-0.17209479,0.35533687,-0.25633228,-0.10055274,801.8315,804.65204,805.4579,804.65204,770.0,-0.4097900390625,-0.033447265625,0.9134521484375,4.90478515625,-4.14215087890625,1.188812255859375,1,1.0,1.0,1.0,1.0,50.00
2021-04-08 10:00:43.525,0.64900404,0.40931267,0.68752366,0.6404158,0.30486873,0.32356334,0.07414589,0.1601445,0.61555445,0.882116,0.14665473,0.7443316,0.47108975,0.9645953,0.12114451,0.6103143,-0.04199024,0.39008448,-0.23532765,-0.06681147,788.5348,830.4396,801.02563,792.96704,727.6923,-0.41790771484375,-0.03717041015625,0.9093017578125,4.463653564453125,-4.224395751953125,0.635528564453125,1,1.0,1.0,1.0,1.0,50.00
2021-04-08 10:00:44.026,0.650368,0.24746983,0.55960226,0.6533955,0.38325247,0.21463871,-0.10587766,0.23177579,0.7301968,0.847544,0.16079523,0.79815346,0.5639958,0.91583365,0.1269822,0.60530466,0.015754422,0.40475193,-0.265559,-0.02776399,787.72894,805.8608,811.9048,804.65204,729.304,-0.42083740234375,-0.0361328125,0.9141845703125,4.964599609375,-5.644989013671875,0.91217041015625,1,1.0,1.0,1.0,1.0,50.00
2021-04-08 10:00:44.555,0.72614473,0.31893614,0.6508358,0.65881336,0.5380287,0.25686908,0.07074631,0.31227362,0.77203727,0.44897306,0.24958168,0.79708755,0.53444266,0.91450787,0.12126458,0.5140287,0.002486935,0.45463726,-0.3253631,-0.009073277,805.4579,809.89014,811.50183,815.5311,816.337,-0.41522216796875,-0.035400390625,0.90985107421875,4.538421630859375,-4.5159912109375,0.40374755859375,1,1.0,1.0,1.0,1.0,50.00
2021-04-08 10:00:45.060,0.82757694,0.50552005,0.65220886,0.62435627,0.5187276,0.3828833,0.26580107,0.25735834,0.73504883,0.43168446,0.32757676,0.7156353,0.47603044,0.9511645,0.07150936,0.42454916,-0.08313467,0.4090627,-0.4105949,-3.5445578E-4,791.75824,828.8278,796.99634,805.05493,734.94507,-0.42401123046875,-0.03570556640625,0.905517578125,4.50103759765625,-4.2169189453125,1.09161376953125,1,1.0,1.0,1.0,1.0,50.00
2021-04-08 10:00:45.573,0.8266684,0.44100186,0.5957153,0.6831812,0.4622514,0.5374061,0.34700355,0.27391014,0.72864944,0.3977932,0.32757676,0.7556346,0.3664486,1.0631486,0.06307366,0.34640077,-0.096309386,0.34657153,-0.4117929,-0.015739359,816.7399,826.8132,799.41394,816.7399,730.5128,-0.42327880859375,-0.0379638671875,0.906494140625,4.403839111328125,-4.687957763671875,1.1962890625,1,1.0,1.0,1.0,1.0,50.00
2021-04-08 10:00:46.097,0.7859414,0.29814976,0.41935864,0.70449305,0.31259745,0.46649438,0.29137853,0.37021434,0.6848148,0.3987692,0.2550809,0.76276547,0.29315075,1.0809332,0.071500264,0.42870376,-0.06313193,0.41324085,-0.33010334,-0.049670205,811.0989,773.22345,809.89014,823.1868,1094.359,-0.41571044921875,-0.03570556640625,0.909423828125,4.844970703125,-4.77020263671875,1.18133544921875,1,1.0,1.0,1.0,1.0,50.00
2021-04-08 10:00:46.625,0.6013153,0.30255276,0.6605893,0.80202395,0.31018674,0.5771164,0.081371136,0.52384216,0.6283956,0.46853295,0.32166708,0.8376822,0.27587995,1.0852693,0.11811902,0.45528477,-0.046690803,0.4912507,-0.3688646,-0.1198239,792.96704,821.978,808.68134,813.5165,714.3956,-0.42633056640625,-0.0408935546875,0.904541015625,4.284210205078125,-4.822540283203125,1.517791748046875,1,1.0,1.0,1.0,1.0,50.00
2021-04-08 10:00:47.130,0.5450613,0.3136736,0.69498754,0.7712726,0.33359346,0.5603883,-0.0055314507,0.6044653,0.59602904,0.50373083,0.37437522,0.8396132,0.32338732,1.0522271,0.12738305,0.46798193,-0.03044037,0.5662096,-0.41604218,-0.011481085,803.0403,811.50183,801.4286,813.1135,809.0842,-0.4208984375,-0.03668212890625,0.90606689453125,5.061798095703125,-4.65057373046875,0.650482177734375,1,1.0,1.0,1.0,1.0,50.00
2021-04-08 10:00:47.638,0.5682425,0.38406822,0.70156854,0.78448033,0.333645,0.5715421,0.012671829,0.60599583,0.53900015,0.5452252,0.37901166,0.6752053,0.37826097,0.96112597,0.10602199,0.37949798,0.08439646,0.63956827,-0.36796835,0.07016478,809.4872,826.8132,808.2784,815.5311,685.38464,-0.42462158203125,-0.03759765625,0.9031982421875,4.792633056640625,-4.53094482421875,0.994415283203125,1,1.0,1.0,1.0,1.0,50.00
2021-04-08 10:00:48.153,0.40854317,0.3037567,0.43886897,0.55616814,0.43515584,0.3114132,0.09611832,0.5826938,0.69436914,0.5275253,0.3766651,0.61847687,0.34643415,0.88991535,0.050894376,0.36835748,0.12661937,0.68697107,-0.21028195,0.2349223,801.02563,842.52747,798.20514,804.65204,720.4396,-0.43414306640625,-0.0345458984375,0.90521240234375,4.246826171875,-3.66363525390625,1.517791748046875,1,1.0,1.0,1.0,1.0,50.00
2021-04-08 10:00:48.681,0.3493095,0.38765916,0.36092535,0.37499532,0.52480656,0.31650594,0.13661084,0.48395365,0.72745734,0.5363082,0.33069775,0.61641365,0.266271,0.9049967,-0.008690082,0.336973,0.09185111,0.64024186,-0.14860646,0.14546801,790.54944,811.50183,805.4579,801.4286,777.6557,-0.43719482421875,-0.03778076171875,0.89984130859375,4.32159423828125,-3.043060302734375,0.889739990234375,1,1.0,1.0,1.0,1.0,50.00
2021-04-08 10:00:49.206,0.27718174,0.5114582,0.29598707,0.12413041,0.62546223,0.29336476,0.12349682,0.45819336,0.73353577,0.5282494,0.26240692,0.61507666,0.24480079,1.0303109,0.020799369,0.4026395,-0.05797815,0.5351598,-0.21461855,0.11033447,788.1319,833.663,807.0696,798.60803,715.6044,-0.44281005859375,-0.03741455078125,0.892578125,4.91973876953125,-5.39825439453125,1.697235107421875,1,1.0,1.0,1.0,1.0,50.00
2021-04-08 10:00:49.710,0.4125348,0.6258841,0.20931304,0.09898096,0.5991428,0.32920808,0.08651823,0.3645675,0.7012457,0.5041837,0.18164739,0.48399252,0.29343387,1.0942214,0.052717455,0.44776678,-0.108901754,0.41320133,-0.30265597,-0.08723589,780.87915,801.02563,813.5165,793.36993,740.58606,-0.4443359375,-0.04010009765625,0.895263671875,3.6785888671875,-4.643096923828125,0.85235595703125,1,1.0,1.0,1.0,1.0,50.00
2021-04-08 10:00:50.242,0.5089203,0.61975676,0.35399598,0.18325393,0.6809356,0.21542135,0.05267937,0.41781816,0.6743325,0.2147948,-0.040968753,0.34274343,0.4075543,1.1135862,0.07090534,0.4686645,-0.06709463,0.5163343,-0.3754135,0.0025150534,808.2784,820.7692,793.36993,809.4872,755.89746,-0.45782470703125,-0.04315185546875,0.88555908203125,4.62066650390625,-6.3104248046875,1.562652587890625,1,1.0,1.0,1.0,1.0,50.00
2021-04-08 10:00:50.767,0.5089203,0.20230442,0.47574788,0.18325393,0.6809356,0.7092641,0.058806367,0.41781816,0.6743325,0.61401,0.23521228,0.34274343,0.4075543,0.93594265,0.16684827,0.4686645,-0.06709463,0.5919695,-0.33612728,0.0025150534,767.98535,893.2967,829.2308,777.25275,703.91943,-0.479736328125,-0.18280029296875,0.84735107421875,-38.258819580078125,18.564910888671875,-36.4569091796875,1,1.0,1.0,1.0,1.0,55.00
2021-04-08 10:00:51.273,0.5089203,0.20230442,0.5424423,0.18325393,0.6809356,0.7092641,0.09079463,0.41781816,0.6743325,0.61401,0.23500931,0.34274343,0.4075543,0.93594265,0.20189337,0.4686645,-0.06709463,0.5919695,-0.3785908,0.0025150534,793.7729,852.1978,881.2088,819.9634,815.9341,-0.51171875,-0.45166015625,0.7232666015625,16.62841796875,-10.101165771484375,10.30303955078125,1,1.0,1.0,1.0,1.0,55.00
2021-04-08 10:00:51.782,0.5089203,0.20230442,0.619201,0.18325393,0.6809356,0.7092641,-0.1036437,0.41781816,0.6743325,0.61401,0.20370781,0.34274343,0.4075543,0.93594265,0.35552055,0.4686645,-0.06709463,0.5919695,-0.35686994,0.0025150534,810.696,832.0513,761.53845,806.26373,818.3516,-0.49676513671875,-0.23193359375,0.83673095703125,11.5740966796875,-9.97406005859375,9.757232666015625,1,2.0,1.0,1.0,2.0,55.00
2021-04-08 10:00:52.292,0.88236284,0.20230442,0.6739175,0.5075078,0.4932328,0.7092641,-0.18358846,0.3353205,0.5434522,0.61401,0.18042342,0.4819946,0.11506546,0.93594265,0.38432616,0.3965113,-0.059231468,0.5919695,-0.33133197,0.06575066,799.011,829.2308,773.22345,797.8022,736.1539,-0.4310302734375,-0.11712646484375,0.88592529296875,17.951812744140625,-9.94415283203125,12.51617431640625,1,1.0,1.0,1.0,1.0,55.00
2021-04-08 10:00:52.800,1.1184218,0.20230442,0.6739175,0.8618105,0.5647206,0.7092641,-0.18358846,0.64240813,0.7307419,0.61401,0.18042342,0.66560763,0.30303162,0.93594265,0.38432616,0.39148074,-0.14028773,0.5919695,-0.33133197,0.029346801,813.5165,776.8498,782.0879,826.0073,1018.60803,-0.41314697265625,-0.0548095703125,0.91033935546875,4.127197265625,-4.14215087890625,-1.876678466796875,1,1.0,1.0,1.0,1.0,55.00
2021-04-08 10:00:53.317,0.9858746,0.20230442,0.6739175,0.90742093,0.54393625,0.7092641,-0.18358846,0.5904502,0.83158356,0.61401,0.18042342,0.86095524,0.46536237,0.93594265,0.38432616,0.5126371,-0.04806609,0.5919695,-0.33133197,-0.008247814,792.1612,827.2161,785.7143,799.81683,799.41394,-0.4093017578125,-0.02325439453125,0.91864013671875,4.553375244140625,-4.7552490234375,-0.37384033203125,1,1.0,1.0,1.0,1.0,55.00
2021-04-08 10:00:53.843,0.95682657,0.20230442,0.90388906,0.9848509,0.6045263,0.7092641,0.11359272,0.6491456,0.8624708,0.61401,0.13414152,0.92431897,0.52991825,0.93594265,0.06261606,0.54634583,-0.06709089,0.5919695,-0.3057168,-0.02448208,817.5458,828.8278,788.1319,817.9487,784.10254,-0.39630126953125,-0.0303955078125,0.91607666015625,3.78326416015625,-5.84686279296875,0.2093505859375,1,1.0,1.0,1.0,1.0,55.00
2021-04-08 10:00:54.352,0.8669803,0.20230442,0.6523813,0.92952484,0.70130265,0.7092641,0.23269081,0.59160364,0.89285946,0.61401,0.18720645,0.93365145,0.54498506,0.93594265,0.2401684,0.5520891,-0.048501614,0.5919695,-0.25972632,-0.075588964,799.011,831.2454,784.10254,807.8755,808.2784,-0.394287109375,-0.0400390625,0.9212646484375,4.91973876953125,-5.03936767578125,0.500946044921875,1,1.0,1.0,1.0,1.0,55.00
2021-04-08 10:00:54.878,0.86713463,0.20230442,0.7116352,0.8533669,0.6914808,0.7092641,0.23471473,0.5561279,0.8037117,0.61401,0.32534856,0.76862246,0.4236202,0.93594265,0.1256513,0.45826775,-0.11828032,0.5919695,-0.29571173,-0.0909669,784.90845,843.73627,789.34064,795.78754,744.21246,-0.39404296875,-0.04132080078125,0.91998291015625,4.284210205078125,-4.0374755859375,0.650482177734375,1,1.0,1.0,1.0,1.0,55.00
2021-04-08 10:00:55.386,0.70385885,-0.28001252,0.5848039,0.75717425,0.4945973,0.07959803,0.15525176,0.5674067,0.69663936,0.5890727,0.32556576,0.7087026,0.31788123,0.9398161,0.050950088,0.40363404,-0.12703824,0.5899017,-0.3396849,-0.069983,816.337,810.696,805.05493,816.337,707.9487,-0.385009765625,-0.04296875,0.92462158203125,4.867401123046875,-4.702911376953125,1.398162841796875,1,1.0,1.0,1.0,1.0,55.00
2021-04-08 10:00:55.892,0.337613,-0.036948487,0.64998776,0.6323525,0.01782026,0.21066062,-0.028090904,0.36001483,0.42535594,0.6080187,0.26654243,0.48915228,0.26427448,0.8591912,-0.001971615,0.4066987,-0.11252814,0.6238179,-0.39197227,-0.05237315,795.78754,817.5458,792.96704,804.65204,687.3993,-0.40423583984375,-0.03131103515625,0.9212646484375,4.957122802734375,-2.848663330078125,1.5850830078125,1,1.0,1.0,1.0,1.0,55.00
2021-04-08 10:00:56.406,0.5888751,0.12464556,0.55446327,0.5494648,0.013576737,0.22269204,0.1069609,0.32794884,0.34174815,0.6103977,0.2781271,0.5941974,0.25756457,0.8529392,-0.0065839286,0.4303603,-0.19305116,0.6011098,-0.43448386,-0.0122592645,796.1905,826.8132,800.2198,796.5934,701.9048,-0.414306640625,-0.038330078125,0.911865234375,5.076751708984375,-3.63372802734375,0.874786376953125,1,1.0,1.0,1.0,1.0,55.00
2021-04-08 10:00:56.922,0.7212107,0.3036273,0.50103116,0.5563917,0.13908581,0.32651195,0.19028464,0.05668863,0.4387854,0.5126384,0.21316352,0.61032325,0.2615131,0.8172896,-0.026611753,0.4350936,-0.2449548,0.5327332,-0.43959922,0.044883396,808.2784,816.7399,794.9817,807.8755,757.50916,-0.42022705078125,-0.037841796875,0.90625,5.18890380859375,-4.0374755859375,0.34393310546875,1,1.0,1.0,1.0,1.0,55.00
2021-04-08 10:00:57.447,0.8501754,0.3103789,0.15954833,0.64113086,0.33258852,-0.0032303552,0.21135074,0.30977055,0.5685997,0.47814593,0.2945153,0.77238905,0.28402096,0.9749939,-0.056186482,0.3783622,-0.12079935,0.36349884,-0.37627965,0.12278257,786.9231,817.1429,792.1612,795.38464,834.87177,-0.43017578125,-0.0372314453125,0.902099609375,4.194488525390625,-3.745880126953125,0.07476806640625,1,1.0,1.0,1.0,1.0,55.00
2021-04-08 10:00:57.969,0.8875625,0.13282087,0.04953658,0.7426559,0.48034245,-0.11584385,0.065617576,0.45708916,0.67385566,0.29904693,0.1910677,0.8356054,0.35274085,1.004741,0.048501924,0.35349938,0.006262408,0.3804856,-0.29218587,0.18041378,815.5311,815.12823,800.6227,816.337,779.2674,-0.42578125,-0.0406494140625,0.90594482421875,4.44122314453125,-5.061798095703125,1.27105712890625,1,1.0,1.0,1.0,1.0,55.00
2021-04-08 10:00:58.494,0.8982357,0.03627403,0.1421705,0.6742661,0.4944856,-0.042908717,0.04178037,0.4565134,0.6765382,0.42656434,0.1910677,0.8356054,0.4087442,0.95322907,0.08146518,0.3715248,0.038194295,0.47253716,-0.27403986,0.13423051,810.293,808.2784,797.8022,822.381,775.2381,-0.42926025390625,-0.03851318359375,0.9063720703125,4.725341796875,-5.540313720703125,1.203765869140625,1,1.0,1.0,1.0,1.0,55.00
2021-04-08 10:00:59.023,0.7798828,-0.06037412,0.26338795,0.48788074,0.47854897,0.06574765,-0.04870201,0.2628941,0.8732556,0.41455495,0.054682717,0.8807255,0.4240059,0.8962941,0.08895176,0.4700189,-0.026261207,0.41381502,-0.33319485,0.05023542,788.93774,840.10986,792.96704,805.8608,748.6447,-0.4246826171875,-0.03912353515625,0.9061279296875,4.673004150390625,-4.71038818359375,0.755157470703125,1,1.0,1.0,1.0,1.0,55.00
2021-04-08 10:00:59.531,0.8011058,-0.06037412,0.4468,0.5831181,0.4467227,0.06574765,-0.21518847,0.21659152,0.83104634,0.41455495,0.22027591,0.79282963,0.41616955,0.8962941,0.07759569,0.53916174,-0.05869758,0.41381502,-0.34451565,0.015905632,786.9231,794.17584,801.8315,802.6374,797.8022,-0.42205810546875,-0.04498291015625,0.90191650390625,4.38140869140625,-4.26177978515625,0.657958984375,1,1.0,1.0,1.0,1.0,55.00
2021-04-08 10:01:00.060,0.8704681,0.023843843,0.5821863,0.7211254,0.53667575,0.08195331,-0.12834187,0.31052437,0.83104634,0.26876947,0.2333964,0.79282963,0.4033526,0.8728621,0.02144396,0.59919924,-0.039219704,0.2147356,-0.42471647,0.040024634,834.87177,800.2198,819.5604,834.4689,1021.02563,-0.426025390625,-0.0455322265625,0.90277099609375,4.6356201171875,-4.20196533203125,0.665435791015625,1,1.0,1.0,1.0,1.0,55.00
2021-04-08 10:01:00.565,0.9394934,0.023843843,0.72644174,0.92762625,0.47280496,0.08195331,-0.013203105,0.7284593,0.83104634,0.26876947,0.33189377,1.0892632,0.41509092,0.8728621,-0.03634632,0.4677708,0.0049592396,0.2147356,-0.36384,0.10261426,796.99634,817.1429,804.65204,808.68134,754.2857,-0.4361572265625,-0.041748046875,0.9068603515625,4.568328857421875,-4.5758056640625,1.502838134765625,1,1.0,1.0,1.0,1.0,55.00
2021-04-08 10:01:01.079,0.7157496,0.3726319,0.61174655,0.6977252,0.74223024,0.14017263,0.13235678,0.74818933,0.9036495,0.51106787,0.33288693,0.97846675,0.2121501,0.7972638,-0.06765192,0.389697,-0.17588693,0.6616802,-0.34896448,0.06497453,803.44324,823.9927,808.2784,807.47253,794.57874,-0.4346923828125,-0.0482177734375,0.90032958984375,5.27862548828125,-4.80010986328125,0.934600830078125,1,1.0,1.0,1.0,1.0,50.00
2021-04-08 10:01:01.607,0.6657174,0.4623194,0.5874716,0.60376394,0.68069535,0.3065218,0.1496342,0.64538825,1.0008429,0.57456356,0.40228578,0.97846675,0.28052145,0.8495498,0.021105466,0.4602147,-0.2672346,0.52469546,-0.24871938,-0.03822392,805.05493,833.2601,800.6227,795.38464,732.52747,-0.42938232421875,-0.0465087890625,0.9041748046875,4.74029541015625,-5.196380615234375,0.919647216796875,1,1.0,1.0,1.0,1.0,50.00
2021-04-08 10:01:02.130,0.9321873,0.48990908,0.60492456,0.54263484,0.588885,0.34848255,0.4620575,0.44967687,0.9132164,0.5765449,0.613087,0.7765016,0.33981383,0.85845613,0.10243937,0.56106436,-0.30955136,0.46434012,-0.3305778,-0.14849427,808.68134,807.8755,801.4286,819.5604,757.9121,-0.43621826171875,-0.04644775390625,0.89434814453125,4.747772216796875,-3.312225341796875,1.173858642578125,1,1.0,1.0,1.0,1.0,50.00
2021-04-08 10:01:02.636,0.9953467,0.5857069,0.5896893,0.63457257,0.475428,0.44023767,0.398174,0.27944383,0.9273213,0.42634103,0.6120556,0.7738379,0.3089664,0.90853673,0.1302463,0.51141983,-0.2988447,0.17472756,-0.4096674,-0.15480989,805.8608,822.381,809.0842,813.91943,738.1685,-0.4521484375,-0.051513671875,0.8941650390625,4.613189697265625,-4.71038818359375,0.22430419921875,1,1.0,1.0,1.0,1.0,50.00
2021-04-08 10:01:03.148,0.95484835,0.5117614,0.5336193,0.6535658,0.32620046,0.32335454,0.38227412,0.3252696,0.7678188,0.26549312,0.60321254,0.80630434,0.2012201,0.9044153,0.056451477,0.29630086,-0.17139241,0.055063885,-0.490419,-0.03368634,800.2198,853.8095,801.02563,808.68134,734.94507,-0.43426513671875,-0.04583740234375,0.90289306640625,5.181427001953125,-6.287994384765625,0.471038818359375,1,1.0,1.0,1.0,1.0,50.00
2021-04-08 10:01:03.677,0.4455331,0.5117614,0.24337448,0.58540934,0.3410457,0.32335454,-0.17523445,0.48492622,1.0018122,0.26549312,-0.03144498,0.9812986,0.15557493,0.9044153,-0.06219014,0.21355247,-0.09328928,0.055063885,-0.38492385,-0.029678931,813.91943,813.1135,806.6667,825.6044,763.1502,-0.43853759765625,-0.0489501953125,0.89788818359375,4.613189697265625,-5.973968505859375,0.61309814453125,1,1.0,1.0,1.0,1.0,50.00
2021-04-08 10:01:04.206,0.4866295,0.42756805,0.24273033,0.5090958,0.4715998,0.24051584,-5.101604E-5,0.48818788,0.995634,0.263778,0.1778529,0.96921617,0.23913036,0.85662514,-0.066368364,0.26668784,-0.105364226,0.40210843,-0.30051672,-0.097396255,806.6667,835.2747,810.293,798.60803,679.7436,-0.42279052734375,-0.05133056640625,0.907470703125,5.33843994140625,-9.891815185546875,1.256103515625,1,1.0,1.0,1.0,1.0,50.00
2021-04-08 10:01:04.709,0.479959,0.18930162,0.1945758,0.3869044,0.37274075,0.17532234,-0.028480466,0.3705503,1.0082884,0.26809037,0.21285056,0.95511585,0.2680268,0.86978924,-0.06710471,0.34531888,-0.12279552,0.40717512,-0.29651397,-0.099664256,810.696,824.3956,799.81683,817.1429,743.00366,-0.37750244140625,-0.04144287109375,0.9295654296875,4.478607177734375,-6.62445068359375,1.55517578125,1,1.0,1.0,1.0,1.0,50.00
2021-04-08 10:01:05.217,0.4034913,0.010495789,0.20153287,0.22079529,0.2800537,0.22526377,-0.026802974,0.26558194,0.74349374,0.25105226,0.19422843,0.6827395,0.28530282,0.9047061,-0.099835776,0.37350368,-0.19851892,0.48983294,-0.3961654,-0.14946136,795.78754,778.86444,817.9487,807.8755,1029.0842,-0.37548828125,-0.03948974609375,0.92578125,5.39825439453125,-6.078643798828125,0.88226318359375,1,1.0,1.0,1.0,1.0,50.00
2021-04-08 10:01:05.723,0.17342152,-0.03721537,0.60493284,0.23942228,-0.21382003,0.19686131,0.041497152,0.18878572,0.37395978,0.017272802,0.15700032,0.55665135,0.2900003,0.90981823,-0.16730265,0.39099234,-0.24104041,0.51310974,-0.5126724,-0.18048455,807.0696,841.7216,811.50183,811.0989,801.4286,-0.40093994140625,-0.033447265625,0.91839599609375,3.058013916015625,-0.605621337890625,5.794525146484375,1,1.0,1.0,1.0,1.0,50.00
2021-04-08 10:01:06.243,0.02495081,0.18295288,0.6208023,0.4196575,-0.1329857,0.2924493,0.11008409,0.31335527,0.018968493,-0.09793492,0.19645153,0.52034765,0.3464037,0.92832714,-0.019040657,0.3980018,-0.36332804,0.5833444,-0.54613566,-0.2905589,808.2784,820.7692,804.2491,823.9927,732.1245,-0.38836669921875,-0.0435791015625,0.92645263671875,-6.945953369140625,-13.1591796875,2.61688232421875,1,1.0,1.0,1.0,1.0,50.00
2021-04-08 10:01:06.769,0.02495081,0.3085826,0.7043337,0.7221559,-0.1329857,0.46747965,0.20742342,0.47062975,0.018968493,0.0917511,0.20118824,0.4668196,0.3464037,0.90730476,0.013384021,0.3446614,-0.36332804,0.6036057,-0.4226856,0.11956595,799.41394,791.75824,807.0696,815.12823,895.31134,-0.41497802734375,0.0264892578125,0.94256591796875,14.004058837890625,-4.23187255859375,-4.007568359375,1,1.0,1.0,1.0,1.0,50.00
2021-04-08 10:01:07.272,1.0970312,0.3085826,0.5443588,1.0669202,0.39863715,0.46747965,0.02424113,0.5170039,0.999294,0.0917511,0.24463515,0.8420398,0.248137,0.90730476,-0.004693352,0.33713707,-0.07905984,0.6036057,-0.36363846,-0.0044064093,811.50183,847.3626,796.5934,804.65204,754.2857,-0.334716796875,0.08642578125,0.966796875,-0.22430419921875,3.611297607421875,-0.897216796875,1,1.0,1.0,1.0,1.0,50.00
2021-04-08 10:01:07.782,1.249581,0.3085826,0.8202221,1.2552562,0.65719146,0.46747965,0.056508455,0.6120374,1.195539,0.0917511,0.30023724,1.064301,0.25025553,0.90730476,-0.054089367,0.3842666,-0.05695112,0.6036057,-0.34156075,0.08652981,799.41394,911.4286,781.685,795.78754,786.1172,-0.2593994140625,0.06768798828125,1.0478515625,9.76470947265625,-9.906768798828125,3.102874755859375,1,1.0,1.0,1.0,1.0,50.00
2021-04-08 10:01:08.300,1.3301886,0.3085826,1.0386267,1.3546201,0.6898678,0.46747965,0.15772468,0.65384746,1.1793213,0.0917511,0.30177408,1.064301,0.23017189,0.90730476,-0.064297564,0.3978177,-0.01713537,0.6036057,-0.40331042,0.07386507,774.83514,775.2381,779.2674,775.64105,1037.1428,-0.3665771484375,0.05963134765625,0.922119140625,8.4039306640625,2.91595458984375,0.755157470703125,1,1.0,1.0,1.0,1.0,50.00
2021-04-08 10:01:08.827,1.3723531,0.3085826,1.2639214,1.439323,0.7275853,0.46747965,0.2265914,0.72424144,1.1685067,0.0917511,0.35495424,0.9993699,0.28429183,0.90730476,-0.040129595,0.4465696,0.07270764,0.6036057,-0.46205986,0.194885,774.43225,816.7399,777.6557,780.4762,719.6337,-0.43475341796875,0.0361328125,0.90191650390625,-3.701019287109375,9.8394775390625,-1.158905029296875,1,1.0,1.0,1.0,1.0,50.00
2021-04-08 10:01:09.342,1.3446871,0.3085826,1.108458,1.5127449,0.4828233,0.46747965,0.42420915,0.7777415,0.6571512,0.0917511,0.59517586,0.9754586,0.31902286,0.90730476,0.004086321,0.43757093,0.16989984,0.6036057,-0.529685,0.28526688,798.60803,813.5165,784.5055,793.36993,761.53845,-0.433837890625,0.0057373046875,0.89306640625,0.95703125,-4.6356201171875,-0.500946044921875,1,1.0,1.0,1.0,1.0,50.00
2021-04-08 10:01:09.862,1.3211596,0.3085826,0.9260536,1.5127449,0.38013968,0.46747965,0.40528467,0.7777415,0.5882328,0.0917511,0.59790915,0.9754586,0.3441576,0.90730476,0.08475977,0.43757093,0.18404646,0.6036057,-0.503854,0.28526688,794.9817,829.6337,784.10254,795.78754,804.65204,-0.46331787109375,-0.04107666015625,0.88812255859375,4.7552490234375,-3.5589599609375,-4.306640625,1,1.0,1.0,1.0,1.0,50.00
2021-04-08 10:01:10.367,1.1450316,0.3085826,0.85644096,1.3047975,0.83351225,0.46747965,0.5605994,0.9963119,1.0301939,0.0917511,0.6142983,0.7816683,0.5171484,0.90730476,0.14536259,0.6099267,-0.06988791,0.6036057,-0.49026096,-0.20556222,809.4872,821.5751,808.2784,809.89014,774.83514,-0.417236328125,-0.0284423828125,0.9072265625,4.50103759765625,-3.90289306640625,-1.906585693359375,1,1.0,1.0,1.0,1.0,50.00
2021-04-08 10:01:10.887,1.2229805,0.3085826,0.9856285,1.1615343,0.8661254,0.46747965,0.5090444,0.9438296,1.042859,0.0917511,0.44984165,0.9868748,0.52538157,0.90730476,0.16171445,0.53196263,-0.05317129,0.6036057,-0.4208359,-0.23031405,805.05493,814.3223,803.44324,814.3223,743.4066,-0.441650390625,-0.01861572265625,0.89453125,5.390777587890625,-1.6748046875,0.8074951171875,1,1.0,1.0,1.0,1.0,50.00
2021-04-08 10:01:11.394,1.0883305,0.3085826,0.8429588,1.0094997,0.79823124,0.46747965,0.3815673,0.83307266,1.0797615,0.0917511,0.18748495,0.98659873,0.49092838,0.90730476,0.02247679,0.53107554,-0.016712211,0.6036057,-0.31744382,-0.08652187,809.4872,837.28937,802.6374,823.9927,715.2015,-0.44287109375,-0.0184326171875,0.8897705078125,5.630035400390625,-3.775787353515625,1.30096435546875,1,1.0,1.0,1.0,1.0,50.00
2021-04-08 10:01:11.918,0.8569707,0.59300935,0.3596341,0.71639663,0.6193856,0.1848802,0.15838236,0.5817404,1.0016142,0.6036108,0.06781104,0.9829814,0.36461377,0.85748816,0.0016508003,0.4434707,-0.075919054,0.5545381,-0.30307114,0.006795734,817.9487,811.50183,807.47253,823.5897,834.4689,-0.44793701171875,-0.00732421875,0.8980712890625,4.725341796875,-4.90478515625,1.637420654296875,1,1.0,1.0,1.0,1.0,50.00
2021-04-08 10:01:12.422,0.5155094,0.5801048,0.3347274,0.6006943,0.40865284,0.27729052,0.044504486,0.315298,0.963589,0.63517517,0.2191059,0.6641468,0.2740816,0.91441107,0.0303939,0.38854456,-0.16719931,0.5321209,-0.2648307,0.083199225,795.38464,816.7399,803.8461,798.20514,820.7692,-0.44720458984375,-0.01123046875,0.89862060546875,4.47113037109375,-3.865509033203125,1.936492919921875,1,1.0,1.0,1.0,1.0,50.00
2021-04-08 10:01:12.936,0.6562586,0.5852678,0.339146,0.60865813,0.40395615,0.31198394,-0.08139136,0.40681112,0.95215344,0.63517517,0.33858943,0.94391215,0.17565612,0.91930544,0.09036709,0.3822389,-0.319604,0.5195496,-0.2416453,0.033702906,796.99634,834.87177,801.8315,812.3077,711.5751,-0.4453125,-0.01678466796875,0.8956298828125,4.523468017578125,-4.433746337890625,0.994415283203125,1,1.0,1.0,1.0,1.0,50.00
2021-04-08 10:01:13.448,0.70818144,0.43993422,0.25414634,0.7614863,0.62571156,0.31134143,-0.20962845,0.5714768,1.0509368,0.50673616,0.37891558,1.1079289,0.310957,0.9678046,0.07774111,0.41146886,-0.28785682,0.4958323,-0.25305843,-0.02417785,821.978,810.293,813.5165,832.4542,949.707,-0.45111083984375,-0.0145263671875,0.89337158203125,4.448699951171875,-5.72723388671875,1.099090576171875,1,1.0,1.0,1.0,1.0,50.00
2021-04-08 10:01:13.958,0.7135347,-0.0322968,0.18500261,0.76315033,0.66721714,-0.011465741,-0.14652526,0.6559937,1.054229,0.13218223,0.37891558,1.1079289,0.38183606,0.94801563,0.025939817,0.46851203,-0.22516277,0.38668197,-0.31535354,-0.07329292,802.6374,843.3333,806.6667,819.9634,729.304,-0.44573974609375,-0.017578125,0.8946533203125,4.306640625,-5.540313720703125,0.680389404296875,1,1.0,1.0,1.0,1.0,50.00
2021-04-08 10:01:14.480,0.5259393,0.022128008,0.22506925,0.7558527,0.6092033,0.004409542,-0.1859193,0.61440754,1.0179069,0.040987007,0.17218648,1.0711675,0.36261544,0.9581782,0.012392509,0.41000408,-0.15994973,0.37050223,-0.3865417,-0.12952043,796.5934,806.26373,819.5604,810.696,755.09155,-0.44073486328125,-0.02178955078125,0.90435791015625,5.42816162109375,-5.2935791015625,0.381317138671875,1,1.0,1.0,1.0,1.0,50.00
2021-04-08 10:01:14.985,0.34861425,-9.936324E-4,0.6920219,0.6441288,0.39269146,-0.0017915331,-0.061093785,0.50180745,0.763628,0.0013461136,0.16154864,0.989308,0.3177783,0.9661994,0.04097084,0.39698845,-0.13933206,0.3588671,-0.40427533,-0.14631248,817.9487,811.9048,809.0842,820.3663,821.5751,-0.432861328125,0.01190185546875,0.9080810546875,6.878662109375,-9.5703125,5.630035400390625,1,1.0,1.0,1.0,1.0,50.00
2021-04-08 10:01:15.504,0.49747938,0.12808023,1.1265491,0.7736286,0.58890104,0.14201096,0.4876106,0.5899224,0.856747,-0.03603714,0.35397393,0.6179415,0.19987404,0.9828653,0.038552184,0.3599043,-0.10471232,0.4137173,-0.3518382,0.014217323,806.6667,830.84247,796.1905,831.2454,783.2967,-0.37884521484375,0.0087890625,0.9298095703125,5.330963134765625,-11.596527099609375,0.770111083984375,1,1.0,1.0,1.0,1.0,50.00
2021-04-08 10:01:16.028,0.7466813,0.381845,1.129216,0.82634777,0.638284,-0.07698624,0.5335204,0.6304678,0.93539417,0.41152486,0.44609344,0.86409885,0.74668103,0.83068687,-0.0037004978,0.5000661,0.24941124,0.6939928,-0.18553035,0.32715106,757.9121,815.9341,817.5458,789.7436,723.663,-0.27728271484375,0.0357666015625,0.970703125,7.917938232421875,-4.000091552734375,-0.022430419921875,1,1.0,1.0,1.0,1.0,50.00
2021-04-08 10:01:16.552,0.72725195,0.3197656,0.9860817,0.7902663,0.6393652,-0.10002651,0.4827032,0.6318033,0.9500489,0.49253097,0.43636224,0.908796,0.73943,0.88080025,-0.005302922,0.50583106,0.27769622,0.65012926,-0.18600337,0.35692036,795.78754,821.978,815.12823,831.6484,780.07324,-0.3302001953125,0.00750732421875,0.94317626953125,2.444915771484375,-4.523468017578125,-0.16448974609375,1,1.0,1.0,1.0,1.0,50.00
2021-04-08 10:01:16.556,0.6882960499999,0.3197656,0.700142685,0.75823375,0.617222965,-0.10002651,0.117240355,0.5085255,0.8596254,0.49253097,0.36103958,0.8957079,0.82362425,0.88080025,0.154336519,0.5456164450000,0.35920861,0.65012926,-0.0694790975,0.3697677550000,801.83152,828.22345,810.09158,,,,,,,,,,,,,,,/muse/elements/jaw_clench
2021-04-08 10:01:17.055,0.64934015,0.3197656,0.41420367,0.7262012,0.59508073,-0.10002651,-0.24822249,0.3852477,0.7692019,0.49253097,0.28571692,0.8826198,0.9078185,0.88080025,0.31397596,0.58540183,0.440721,0.65012926,0.047045175,0.38261515,807.8755,834.4689,805.05493,806.6667,707.9487,-0.371337890625,-0.02215576171875,0.9273681640625,4.26177978515625,-0.800018310546875,1.308441162109375,1,1.0,1.0,1.0,1.0,50.00
2021-04-08 10:01:17.566,0.5811302,0.15623263,0.5857315,0.7735,0.6255621,-0.15116225,-0.38102812,0.34664875,0.742909,0.39841262,0.16272451,0.868573,0.9072038,0.93470806,0.3513193,0.57760024,0.47212192,0.6055151,0.058208987,0.3601566,813.91943,813.5165,801.02563,823.5897,741.39197,-0.41259765625,-0.0186767578125,0.916015625,4.02252197265625,-3.925323486328125,1.57012939453125,1,1.0,1.0,1.0,1.0,50.00
2021-04-08 10:01:18.100,0.5811302,0.15623263,0.77320844,0.7735,0.6255621,-0.15116225,-0.11872696,0.34664875,0.742909,0.39841262,0.438111,0.868573,0.9072038,0.93470806,0.3450255,0.57760024,0.47212192,0.6055151,0.03957708,0.3601566,823.9927,821.978,807.8755,826.0073,779.67035,-0.4156494140625,-0.01629638671875,0.91241455078125,4.2767333984375,-1.79443359375,0.28411865234375,1,1.0,1.0,1.0,1.0,50.00
2021-04-08 10:01:18.604,1.2516986,0.15623263,1.1614504,0.7735,0.5959464,-0.15116225,0.1669368,0.34664875,0.83007014,0.39841262,0.5017488,0.868573,0.35708368,0.93470806,0.13426475,0.57760024,-0.06096296,0.6055151,-0.24932532,0.3601566,806.26373,820.3663,822.381,820.7692,743.8095,-0.438232421875,-0.02630615234375,0.90081787109375,3.970184326171875,-0.8074951171875,1.457977294921875,1,1.0,1.0,1.0,1.0,50.00
2021-04-08 10:01:19.113,1.1583219,0.15623263,1.1998945,0.7735,0.5231636,-0.15116225,0.45226943,0.34664875,0.83007014,0.39841262,0.5861818,0.868573,0.30132604,0.93470806,0.15835842,0.57760024,-0.090509854,0.6055151,-0.39848936,0.3601566,812.71063,803.0403,799.81683,822.381,849.7802,-0.48046875,-0.03045654296875,0.88232421875,5.839385986328125,-4.239349365234375,2.67669677734375,1,1.0,1.0,1.0,1.0,50.00
2021-04-08 10:01:19.628,1.1026331,0.15623263,1.251354,0.7735,0.54617226,-0.15116225,0.5076572,0.34664875,0.83007014,0.39841262,0.5953895,0.868573,0.25770468,0.93470806,0.1616188,0.57760024,-0.14602648,0.6055151,-0.33193997,0.3601566,776.8498,828.4249,803.8461,787.72894,708.7546,-0.43572998046875,-0.0244140625,0.892333984375,4.463653564453125,-7.2674560546875,0.5682373046875,1,1.0,1.0,1.0,1.0,50.00
2021-04-08 10:01:20.156,1.0301178,0.4516226,0.93371654,0.7735,0.51741517,0.06342913,0.5755417,0.34664875,0.6390936,0.20085897,0.4960017,0.868573,0.21625406,1.0370914,0.11147094,0.57760024,-0.19082917,0.7440335,-0.23130007,0.3601566,831.2454,821.978,805.05493,830.0366,735.7509,-0.42657470703125,-0.0224609375,0.90380859375,5.21881103515625,-3.96270751953125,2.31781005859375,1,1.0,1.0,1.0,1.0,50.00
2021-04-08 10:01:20.679,0.97846353,0.50562483,0.89336836,0.7735,0.61051255,0.4737558,0.44260418,0.34664875,0.83023345,0.6170935,0.45545226,0.868573,0.23999532,0.8909651,0.019232186,0.57760024,-0.19691804,0.7074293,-0.22670016,0.3601566,799.81683,796.1905,821.978,817.1429,771.6117,-0.4349365234375,-0.0177001953125,0.90032958984375,4.897308349609375,-4.059906005859375,0.904693603515625,1,1.0,1.0,1.0,1.0,50.00
2021-04-08 10:01:21.209,0.6105532,0.5236783,0.70028955,0.6577738,0.34594125,0.4518864,0.34456953,0.42659616,0.9580267,0.70249784,0.40739334,0.79076743,0.31992915,0.8442559,0.07817635,0.4358657,-0.079585806,0.7313673,-0.201484,-0.0012858013,800.2198,838.0952,789.34064,798.60803,693.44324,-0.43170166015625,-0.018798828125,0.89898681640625,4.88983154296875,-4.164581298828125,1.592559814453125,1,1.0,1.0,1.0,1.0,50.00
2021-04-08 10:01:21.729,0.5921857,0.6291152,0.83705693,0.6560874,0.39559588,0.52885133,0.16507879,0.35362858,1.0013657,0.7163775,0.3608275,0.79076743,0.30171892,0.7843813,0.19880109,0.32291755,-0.13107175,0.68034166,-0.27612504,-0.03683088,831.2454,816.7399,801.02563,831.2454,832.4542,-0.44598388671875,-0.02325439453125,0.9007568359375,4.807586669921875,-4.792633056640625,0.82244873046875,1,1.0,1.0,1.0,1.0,50.00
2021-04-08 10:01:22.237,0.80101275,0.68027914,0.8525667,0.8324281,0.5143456,0.40471935,0.18959764,0.47617388,0.97136086,0.7098495,0.29711664,0.8752625,0.31128058,0.8159113,0.17691873,0.3169917,-0.18122256,0.6676303,-0.2745322,-0.05688146,814.3223,819.5604,803.0403,826.8132,925.9341,-0.4451904296875,-0.02227783203125,0.89501953125,5.316009521484375,-4.074859619140625,0.52337646484375,1,1.0,1.0,1.0,1.0,50.00
2021-04-08 10:01:22.753,0.9588331,0.6714362,0.81931436,0.9426656,0.5393506,0.23791194,0.16906072,0.5135418,0.92493904,0.5477832,0.2413737,0.7999038,0.26746914,0.84004825,0.06418059,0.21397796,-0.15850121,0.46375313,-0.35057756,-0.084637046,811.9048,832.8571,803.8461,816.337,670.87915,-0.4449462890625,-0.01470947265625,0.89996337890625,5.5328369140625,-4.299163818359375,1.742095947265625,1,1.0,1.0,1.0,1.0,50.00
2021-04-08 10:01:23.274,0.9754062,0.47470137,0.6204633,0.96393853,0.5065249,0.09433056,-0.06249278,0.48555794,0.77471614,0.4420571,0.14057584,0.79083645,0.20591035,0.7796355,-0.112193726,0.14871432,-0.12367138,0.66310894,-0.43324745,0.00464928,803.8461,817.9487,803.8461,818.3516,823.1868,-0.43145751953125,-0.01690673828125,0.90203857421875,5.2337646484375,-4.628143310546875,0.979461669921875,1,1.0,1.0,1.0,1.0,50.00
2021-04-08 10:01:23.784,0.8494829,0.47470137,0.40725514,0.7246895,0.30591878,0.09433056,-0.3253954,0.29980773,0.7186241,0.4420571,0.17482577,0.63813746,0.14594865,0.7796355,-0.08180323,0.20660281,-0.06614839,0.66310894,-0.48092818,0.09411254,801.4286,833.663,803.8461,806.6667,694.65204,-0.43841552734375,-0.02587890625,0.898193359375,4.329071044921875,-3.4991455078125,0.934600830078125,1,1.0,1.0,1.0,1.0,50.00
2021-04-08 10:01:24.289,0.7163993,0.45524853,0.44205207,0.69245523,0.35025048,0.12316795,-0.37424743,0.33232507,0.6726307,0.17081133,0.13422537,0.78231865,0.24538283,0.7835191,-0.0275374,0.26420617,-0.15104213,0.780769,-0.4590705,0.02103613,816.7399,807.47253,806.6667,818.7546,765.9707,-0.43914794921875,-0.03082275390625,0.8939208984375,4.732818603515625,-5.435638427734375,0.40374755859375,1,1.0,1.0,1.0,1.0,50.00
2021-04-08 10:01:24.809,0.5507986,0.45524853,0.43019566,0.578797,0.5020835,0.12316795,-0.1307258,0.3937779,0.7525731,0.17081133,0.029466689,0.79434264,0.33262014,0.7835191,-0.045709986,0.3007942,-0.23963605,0.780769,-0.3824115,-0.059162695,810.293,819.9634,804.2491,814.3223,746.2271,-0.44110107421875,-0.02520751953125,0.89691162109375,4.613189697265625,-2.03369140625,0.261688232421875,1,1.0,1.0,1.0,1.0,50.00
2021-04-08 10:01:25.318,0.38089594,0.45524853,0.31351614,0.39005402,0.47825438,0.12316795,-0.026032344,0.4103108,0.8281443,0.17081133,0.027404455,0.847443,0.2991336,0.7835191,-0.051299673,0.31604344,-0.26083803,0.780769,-0.33732074,-0.16750139,768.3883,817.1429,810.696,776.8498,751.4652,-0.4564208984375,-0.02642822265625,0.89324951171875,5.001983642578125,-3.6785888671875,1.981353759765625,1,1.0,1.0,1.0,1.0,50.00
2021-04-08 10:01:25.824,0.5823166,0.45524853,0.3947022,0.8516114,0.49737167,0.12316795,0.10128164,0.5503927,0.844777,0.17081133,0.29065952,0.82113445,0.3096091,0.7835191,-0.07390344,0.32557917,-0.27947098,0.780769,-0.28131968,-0.06528831,813.5165,813.5165,812.3077,818.3516,873.5531,-0.46868896484375,-0.0308837890625,0.88665771484375,4.344024658203125,-4.792633056640625,1.428070068359375,1,1.0,1.0,1.0,1.0,50.00
2021-04-08 10:01:26.328,0.69739914,0.45524853,0.43977404,1.0901662,0.4137282,0.12316795,0.16202396,0.61223847,0.82472694,0.17081133,0.39793813,0.8746319,0.31559205,0.7835191,-0.02475624,0.37141278,-0.2650966,0.780769,-0.2961921,-0.0025593245,797.8022,827.2161,801.4286,805.05493,795.78754,-0.46588134765625,-0.03570556640625,0.8897705078125,4.553375244140625,-5.510406494140625,0.9271240234375,1,1.0,1.0,1.0,1.0,50.00
2021-04-08 10:01:26.834,0.73131,0.45524853,0.57208,1.1732882,0.38463262,0.12316795,0.22526486,0.62958145,0.61697197,0.17081133,0.49998853,0.8653005,0.41002604,0.7835191,0.061344747,0.36020026,-0.3567032,0.780769,-0.31623197,-0.048812255,800.2198,836.8865,805.4579,803.44324,703.1135,-0.4591064453125,-0.033935546875,0.88995361328125,5.211334228515625,-4.194488525390625,1.24114990234375,1,1.0,1.0,1.0,1.0,50.00
2021-04-08 10:01:27.341,0.40279824,0.45524853,0.59414166,1.0878582,0.3818427,0.12316795,0.25500423,0.49407515,0.5601886,0.17081133,0.50248235,0.8482161,0.34982353,0.7835191,0.067485824,0.2846855,-0.27497286,0.780769,-0.3559756,-0.12280425,786.1172,788.5348,806.26373,796.99634,857.8388,-0.466552734375,-0.0352783203125,0.886474609375,4.41131591796875,-6.646881103515625,0.426177978515625,1,1.0,1.0,1.0,1.0,50.00
2021-04-08 10:01:27.852,0.50317127,0.45524853,0.8243464,0.9554389,0.39028072,0.12316795,0.2070795,0.35982588,0.60896385,0.17081133,0.39720833,0.48250732,0.33168495,0.7835191,0.04987228,0.21322726,-0.24273573,0.780769,-0.337968,-0.1652786,812.3077,828.022,812.71063,809.4872,721.2454,-0.4649658203125,-0.03656005859375,0.88592529296875,4.418792724609375,-5.345916748046875,1.173858642578125,1,1.0,1.0,1.0,1.0,50.00
2021-04-08 10:01:28.378,0.5588336,0.45524853,0.963134,0.920118,0.4269196,0.12316795,0.18117027,0.31160063,0.46985808,0.17081133,0.29877165,0.5642834,0.273166,0.7835191,-0.034934346,0.14966898,-0.1328309,0.780769,-0.3510664,-0.10260947,815.9341,829.6337,811.50183,818.3516,722.0513,-0.4697265625,-0.0316162109375,0.88525390625,4.78515625,-5.14404296875,1.256103515625,1,1.0,1.0,1.0,1.0,50.00
2021-04-08 10:01:28.887,0.97158337,0.45524853,0.9024815,0.77991766,0.5094337,0.12316795,0.10535745,0.5202596,0.55253935,0.17081133,0.27164546,0.7223324,0.37895983,0.7835191,-0.05003731,0.35014296,-0.15382436,0.780769,-0.3771456,-0.07156268,820.3663,811.9048,805.4579,822.7839,748.24176,-0.458740234375,-0.03424072265625,0.89013671875,4.964599609375,-4.508514404296875,1.099090576171875,1,1.0,1.0,1.0,1.0,50.00
2021-04-08 10:01:29.388,1.232026,0.46972796,0.68073535,1.0661288,0.56728816,0.08182301,0.11350059,0.62980086,0.8047696,0.3139008,0.2299257,0.8368467,0.33828562,0.912537,-0.08829437,0.38913226,-0.14657739,0.4336411,-0.3842757,0.040998712,796.5934,826.0073,801.8315,808.2784,747.8388,-0.45867919921875,-0.0350341796875,0.883544921875,5.15899658203125,-4.000091552734375,2.22808837890625,1,1.0,1.0,1.0,1.0,50.00
2021-04-08 10:01:29.903,1.1505607,0.5462487,0.5965575,0.9768297,0.4895785,0.27886394,0.14548907,0.57238734,0.80661285,0.524681,0.39161575,0.83830285,0.27296263,0.8442831,-0.1445134,0.36374933,-0.1876354,0.6130404,-0.4010468,0.016730433,803.44324,810.293,795.38464,799.41394,780.07324,-0.43988037109375,-0.033935546875,0.9033203125,4.9346923828125,-6.05621337890625,1.233673095703125,1,1.0,1.0,1.0,1.0,50.00
2021-04-08 10:01:30.415,1.1727356,0.5368387,0.9325766,0.98048383,0.5602278,0.34723425,0.37894657,0.7038075,0.8060291,0.52393925,0.53883237,0.8366757,0.22347525,0.8100183,-0.111784175,0.33920014,-0.22931105,0.6275399,-0.41835138,-0.041628335,804.2491,803.44324,803.8461,808.2784,774.83514,-0.43194580078125,-0.02691650390625,0.9053955078125,5.6524658203125,-4.388885498046875,0.545806884765625,1,1.0,1.0,1.0,1.0,50.00
2021-04-08 10:01:30.940,0.87574697,0.4914842,0.92055285,0.62932944,0.5023606,0.3496089,0.35295442,0.65264183,0.71850514,0.5175166,0.5364679,0.71846986,0.24950054,0.81212974,-0.13746732,0.2817311,-0.33445138,0.587442,-0.51600564,-0.17747398,800.2198,832.0513,810.293,805.05493,784.90845,-0.428466796875,-0.02337646484375,0.90191650390625,4.897308349609375,-6.003875732421875,2.310333251953125,1,1.0,1.0,1.0,1.0,50.00
2021-04-08 10:01:31.447,0.72273755,0.4691993,0.7599163,0.51808405,0.51228136,0.34275463,0.28070685,0.5827883,0.6836816,0.44338292,0.5364679,0.64831406,0.33653516,0.8637495,-0.15988319,0.28368852,-0.29539302,0.42336088,-0.49800435,-0.19375616,807.47253,801.4286,807.0696,808.2784,847.3626,-0.4356689453125,-0.01165771484375,0.9039306640625,5.09918212890625,-4.717864990234375,0.6280517578125,1,1.0,1.0,1.0,1.0,50.00
2021-04-08 10:01:31.976,0.33656672,0.30817628,0.102186985,0.22138727,0.30709088,0.21120007,0.049174994,0.24501814,0.7376591,0.39614308,0.1450487,0.57569194,0.34060448,0.9344111,-0.24061121,0.24927413,-0.28932375,0.30940068,-0.4407958,-0.1297841,796.99634,825.2015,792.96704,795.38464,785.31134,-0.4222412109375,-0.009521484375,0.9066162109375,4.77020263671875,-5.181427001953125,1.248626708984375,1,1.0,1.0,1.0,1.0,50.00
2021-04-08 10:01:32.480,0.4450139,0.24541055,0.06612612,0.21407722,0.27776784,0.12505855,-0.043658707,0.09714142,0.5405442,0.49417973,0.13626501,0.36661625,0.42101878,0.9306726,-0.12910609,0.3269847,-0.21158244,0.35697174,-0.52013063,-0.106682815,797.8022,833.663,797.3993,791.75824,648.315,-0.43621826171875,-0.01580810546875,0.9007568359375,4.448699951171875,-3.69354248046875,1.33087158203125,1,1.0,1.0,1.0,1.0,50.00
2021-04-08 10:01:32.996,0.5190409,-0.025704592,0.017485345,0.5723068,0.24479578,-0.15953602,-0.03293582,0.358917,1.0380763,0.49417973,0.14342634,0.8415165,0.46364725,0.8905304,-0.12202157,0.3385567,-0.15674388,0.42368037,-0.53071094,-0.07380383,816.337,786.1172,812.71063,814.3223,903.7729,-0.4456787109375,-0.01513671875,0.8958740234375,4.029998779296875,-4.4561767578125,0.5682373046875,1,1.0,1.0,1.0,1.0,50.00
2021-04-08 10:01:33.521,0.6095436,0.301543,-0.06859716,0.768424,0.25163835,-0.22079472,-0.27449062,0.37187064,1.0441972,0.37355396,0.16922069,0.86651355,0.4558008,0.83408225,-0.11864789,0.27658758,-0.13018428,0.41566858,-0.5688278,-0.10847129,801.02563,827.2161,799.41394,815.12823,716.0073,-0.43829345703125,-0.02099609375,0.896728515625,4.38140869140625,-5.1141357421875,1.353302001953125,1,1.0,1.0,1.0,1.0,50.00
2021-04-08 10:01:34.047,0.5404061,0.4776481,-0.020844067,0.73913074,0.20624556,-0.08311941,-0.2562916,0.40813676,1.0458665,0.045664206,0.1578952,0.90136886,0.39673612,0.82518727,-0.14219557,0.17223613,-0.07094876,0.47564763,-0.44802415,-0.081849545,776.8498,830.0366,795.78754,777.6557,709.5604,-0.44134521484375,-0.02227783203125,0.89508056640625,4.702911376953125,-3.715972900390625,1.1065673828125,1,1.0,1.0,1.0,1.0,50.00
2021-04-08 10:01:34.553,0.67406166,0.54656357,0.1768416,0.63230026,0.26374984,0.07976732,-0.10625277,0.3831147,0.90162915,0.1998389,0.22152528,0.6864942,0.33416274,0.78223836,-0.023790725,0.09488761,-0.059560582,0.4398279,-0.40504834,-0.14604746,810.696,825.2015,805.8608,812.71063,726.08057,-0.44110107421875,-0.02459716796875,0.89947509765625,5.09918212890625,-4.104766845703125,1.039276123046875,1,1.0,1.0,1.0,1.0,50.00
2021-04-08 10:01:35.064,0.6959008,0.5198531,0.336879,0.516305,0.33291432,0.15299834,0.0051302863,0.4639892,0.5632431,0.19043738,0.2522977,0.59990627,0.34526613,0.71620154,-0.013541491,0.12496486,-0.0025618107,0.4674649,-0.3965862,-0.11615198,809.0842,846.1539,786.52014,811.9048,692.6374,-0.445068359375,-0.0263671875,0.89605712890625,4.089813232421875,-5.9814453125,1.861724853515625,1,1.0,1.0,1.0,1.0,50.00
2021-04-08 10:01:35.570,0.8690667,0.64643073,0.4373818,0.7425736,0.4952781,0.35568798,0.17831087,0.70648026,0.8004171,0.49524403,0.46272352,0.903775,0.37376648,0.7786794,0.028639765,0.23826297,-0.026208084,0.37994158,-0.39687714,-0.15198015,814.3223,815.9341,815.12823,827.619,727.6923,-0.45062255859375,-0.01446533203125,0.89080810546875,1.24114990234375,-0.67291259765625,-1.532745361328125,1,1.0,1.0,1.0,1.0,50.00
2021-04-08 10:01:36.090,0.7976978,0.8779766,0.5162652,0.6642464,0.4979519,0.40843195,0.17403568,0.7432466,0.8204058,0.50676745,0.43669456,0.8641854,0.3945537,0.8866945,-0.0032305005,0.31108904,-0.0968854,0.39239073,-0.4026565,-0.022979422,795.38464,844.5421,982.74725,815.5311,927.9487,-0.69451904296875,-0.28021240234375,0.64007568359375,3.790740966796875,23.52203369140625,-5.405731201171875,1,1.0,1.0,1.0,1.0,50.00
2021-04-08 10:01:36.598,0.7976978,0.8779766,0.49690652,0.6642464,0.4979519,0.40843195,0.23490141,0.7432466,0.8204058,0.50676745,0.42538226,0.8641854,0.3945537,0.8866945,0.07048324,0.31108904,-0.0968854,0.39239073,-0.3372036,-0.022979422,777.6557,822.381,755.4945,779.67035,652.3443,-0.5302734375,-0.03668212890625,0.8392333984375,5.555267333984375,-36.269989013671875,9.607696533203125,1,1.0,1.0,1.0,1.0,50.00
2021-04-08 10:01:37.108,0.7976978,0.8260771,0.5457392,0.40690795,0.4979519,0.274849,0.15476124,0.6711805,0.8204058,0.47640672,0.16653825,0.8021025,0.3945537,0.87283427,0.08107264,0.3507342,-0.0968854,0.40844643,-0.2495372,0.016857075,831.2454,840.10986,802.23444,836.08057,810.696,-0.36370849609375,0.03857421875,0.95458984375,10.639495849609375,-7.529144287109375,4.80010986328125,1,1.0,1.0,1.0,1.0,50.00
2021-04-08 10:01:37.633,0.7976978,0.8260771,0.5457392,0.40690795,0.4979519,0.274849,0.15476124,0.6711805,0.8204058,0.47640672,0.16653825,0.8021025,0.3945537,0.87283427,0.08107264,0.3507342,-0.0968854,0.40844643,-0.2495372,0.016857075,850.989,857.8388,806.26373,843.3333,786.1172,-0.409423828125,-0.00433349609375,0.9111328125,5.33843994140625,2.280426025390625,3.1103515625,1,1.0,1.0,1.0,1.0,50.00
2021-04-08 10:01:38.153,0.7976978,0.8260771,0.778007,0.40690795,0.4979519,0.274849,0.3443975,0.6711805,0.8204058,0.47640672,0.057879645,0.8021025,0.3945537,0.87283427,0.14006303,0.3507342,-0.0968854,0.40844643,-0.40618327,0.016857075,810.293,831.6484,800.2198,809.89014,736.55676,-0.409912109375,0.011962890625,0.91070556640625,3.4393310546875,-1.547698974609375,-1.136474609375,1,1.0,1.0,1.0,1.0,50.00
2021-04-08 10:01:38.658,1.7173779,0.8260771,0.72750825,0.40690795,0.9020073,0.274849,0.37307516,0.6711805,0.8990633,0.47640672,0.12455471,0.8021025,0.40009597,0.87283427,0.18101774,0.3507342,-0.16307686,0.40844643,-0.37118787,0.016857075,812.3077,811.9048,805.8608,824.7985,915.4579,-0.4517822265625,0.01300048828125,0.8946533203125,3.895416259765625,-4.658050537109375,1.786956787109375,1,2.0,1.0,1.0,2.0,50.00
2021-04-08 10:01:39.164,1.3995157,0.8260771,0.8025593,1.3589065,0.66276735,0.274849,0.33851492,0.8593542,0.9185032,0.47640672,0.32399368,0.8056311,0.4348337,0.87283427,0.11103,0.2558981,-0.21453871,0.40844643,-0.31530613,-0.09694966,814.7253,846.55676,793.7729,799.41394,793.7729,-0.4539794921875,0.0025634765625,0.89239501953125,3.476715087890625,-3.54400634765625,2.6019287109375,1,1.0,1.0,1.0,1.0,50.00
2021-04-08 10:01:39.675,0.7134098,0.67330617,0.70861673,0.81060445,0.3729875,0.37399992,0.2143422,0.6326714,0.84596306,0.36986205,0.32633233,0.84363675,0.4076749,0.8399395,0.054089732,0.36289907,-0.26255974,0.3670101,-0.33517602,-0.0794882,812.71063,823.9927,800.2198,804.65204,710.7692,-0.43060302734375,-0.007568359375,0.900146484375,1.592559814453125,-6.0113525390625,2.235565185546875,1,1.0,1.0,1.0,1.0,50.00
2021-04-08 10:01:40.187,0.5065374,0.5984634,0.5541045,0.60340554,0.25938484,0.37249982,-0.027060017,0.54278284,0.81740594,0.44906232,0.33344597,0.8435608,0.31792876,0.8240815,-0.08576565,0.38372895,-0.29522964,0.3337021,-0.38547826,-0.05055674,801.02563,827.2161,805.8608,805.05493,788.93774,-0.43682861328125,-0.02056884765625,0.893798828125,4.68048095703125,-4.42626953125,0.22430419921875,1,1.0,1.0,1.0,1.0,50.00
2021-04-08 10:01:40.708,0.53476036,0.5713084,0.28371978,0.39055794,0.27780128,0.33174527,-0.14243469,0.4224351,0.6989474,0.46996862,0.26365888,0.84227955,0.23928484,0.8343862,0.010768777,0.4211081,-0.29406485,0.42492035,-0.39976922,-0.01985171,805.4579,825.2015,807.8755,797.8022,665.2381,-0.4315185546875,-0.02154541015625,0.90423583984375,4.0673828125,-5.38330078125,0.500946044921875,1,1.0,1.0,1.0,1.0,50.00
2021-04-08 10:01:41.232,0.3125454,0.5446363,0.58636284,0.5398897,0.012968454,0.2022352,0.009104157,0.3610048,0.49100906,0.47375408,0.27030006,0.73474395,0.086572155,0.7891756,0.06834254,0.35113412,-0.27823094,0.4629911,-0.28958714,-0.030933864,807.47253,812.71063,821.978,815.9341,735.7509,-0.4290771484375,-0.0267333984375,0.90740966796875,4.6954345703125,-3.4991455078125,1.21124267578125,1,1.0,1.0,1.0,1.0,50.00
2021-04-08 10:01:41.741,0.13873191,0.575986,0.71266997,0.47401354,-0.031772386,0.0459837,0.14421496,0.23223889,0.41824993,0.51378137,0.28983986,0.5293809,0.07330218,0.7498173,0.06795201,0.30299827,-0.3086858,0.47522593,-0.27370176,-0.03031046,807.8755,839.707,817.1429,817.9487,693.44324,-0.44781494140625,-0.02996826171875,0.8968505859375,4.448699951171875,-3.1402587890625,0.500946044921875,1,1.0,1.0,1.0,1.0,50.00
2021-04-08 10:01:42.271,0.41486204,0.57209635,0.81655055,0.5766687,0.40162337,0.015415321,0.24941002,0.535218,0.7723197,0.5000437,0.351473,0.304016,0.37461883,0.7717269,0.06276559,0.19475146,-0.26060256,0.37011358,-0.35700843,-0.14872767,821.5751,822.381,811.9048,815.5311,732.9304,-0.43280029296875,-0.03662109375,0.90087890625,4.47113037109375,-5.749664306640625,0.25421142578125,1,1.0,1.0,1.0,1.0,50.00
2021-04-08 10:01:42.800,0.3831136,0.43455896,0.71125275,0.4991198,0.49772203,-0.022054965,0.21332636,0.45121902,0.7835923,0.49549863,0.3831603,0.57705873,0.3311656,0.86761534,0.0478106,0.17689101,-0.19476162,0.3400781,-0.5536672,-0.09876291,813.1135,805.8608,808.2784,819.5604,830.0366,-0.44146728515625,-0.03082275390625,0.89898681640625,4.553375244140625,-4.134674072265625,0.919647216796875,1,1.0,1.0,1.0,1.0,50.00
2021-04-08 10:01:43.306,0.40230262,0.31582585,0.66199327,0.378113,0.46466956,0.19666193,0.15127395,0.36000517,0.78201145,0.56735134,0.38203084,0.59279084,0.266515,0.9236604,0.07941263,0.24467158,-0.16956468,0.37102172,-0.6743676,-0.096727826,797.3993,832.0513,798.60803,806.26373,765.9707,-0.4488525390625,-0.0281982421875,0.89300537109375,4.5758056640625,-4.50103759765625,1.09161376953125,1,1.0,1.0,1.0,1.0,50.00
2021-04-08 10:01:43.836,0.5245749,0.2917897,0.4217645,0.1269469,0.41607198,0.29581973,0.18861492,0.16311815,0.7188891,0.54136,0.082621664,0.5926663,0.23287068,0.89162785,-0.017670866,0.21070874,-0.16139208,0.3578467,-0.5862354,-0.12357539,818.3516,821.978,800.2198,817.1429,754.68866,-0.4632568359375,-0.02655029296875,0.89013671875,4.852447509765625,-5.2935791015625,1.816864013671875,1,1.0,1.0,1.0,1.0,50.00
2021-04-08 10:01:44.361,0.5117781,0.28272438,0.3273378,0.1827476,0.24078894,0.344754,0.22694802,0.24995948,0.64697385,0.56053394,0.049117777,0.6256659,0.16929772,0.84316725,-0.055390924,0.18338972,-0.21579565,0.5375766,-0.42990056,-0.1990738,815.5311,828.8278,803.44324,808.68134,765.56775,-0.45404052734375,-0.02874755859375,0.8883056640625,4.792633056640625,-4.68048095703125,0.575714111328125,1,1.0,1.0,1.0,1.0,50.00
2021-04-08 10:01:44.882,0.49278313,0.22383268,0.10612825,0.42752194,0.28951865,0.40960774,0.24805713,0.4980825,0.778824,0.55718726,0.05272869,0.6277021,0.13821791,0.8375987,-0.098898955,0.13426061,-0.2452032,0.5761799,-0.3937777,-0.22407486,795.38464,813.1135,818.7546,800.2198,799.011,-0.46319580078125,-0.03045654296875,0.8890380859375,5.084228515625,-4.29168701171875,0.52337646484375,1,1.0,1.0,1.0,1.0,50.00
2021-04-08 10:01:45.411,0.7446403,0.2896426,0.13320565,0.7621209,0.50759065,0.34008056,0.17346632,0.6231592,0.88543534,0.41723382,0.18244782,0.78911746,0.16123687,0.91765714,0.035807054,0.24308339,-0.21136285,0.6174048,-0.41557357,-0.25034958,810.696,813.1135,798.20514,819.9634,807.47253,-0.46343994140625,-0.030029296875,0.8868408203125,4.717864990234375,-3.93280029296875,1.682281494140625,1,1.0,1.0,1.0,1.0,50.00
2021-04-08 10:01:45.914,0.866125,0.36011162,0.21285117,0.79320467,0.72040534,0.32443348,0.12468483,0.5965727,1.0178778,0.41945535,0.21748412,0.8961016,0.20272852,0.9415452,0.031816483,0.28990513,-0.22113775,0.49785224,-0.4313851,-0.20969546,803.8461,813.5165,801.02563,804.2491,786.1172,-0.46343994140625,-0.02276611328125,0.88714599609375,5.525360107421875,-1.7645263671875,2.3028564453125,1,1.0,1.0,1.0,1.0,50.00
2021-04-08 10:01:46.431,0.81951374,0.42202222,0.2501908,0.75545377,0.74226797,0.30105436,0.074534744,0.48893893,1.0140167,0.3194086,0.30666423,0.8961016,0.20973125,0.92077726,0.059788097,0.30637679,-0.21067107,0.4379455,-0.38328046,-0.21673211,809.0842,840.5128,798.20514,807.0696,738.5714,-0.4742431640625,-0.01690673828125,0.88592529296875,3.701019287109375,-6.519775390625,-1.532745361328125,1,1.0,1.0,1.0,1.0,50.00
2021-04-08 10:01:46.957,0.65437543,0.39595845,0.4410516,0.55863094,0.6599431,0.5101109,0.21284005,0.37277666,0.8883095,0.3235194,0.2788914,0.7494514,0.2594796,0.8437005,-0.049006682,0.29236183,-0.24701004,0.27806255,-0.34894532,-0.17547853,818.3516,813.1135,803.0403,814.3223,942.8571,-0.428955078125,-0.0125732421875,0.91082763671875,6.901092529296875,-11.85821533203125,2.579498291015625,1,1.0,1.0,1.0,1.0,50.00
2021-04-08 10:01:47.486,0.47645602,0.3462078,0.42275527,0.4949845,0.46819118,0.51149863,0.18290569,0.2338303,0.86910987,0.3971001,0.27628967,0.42501515,0.31260753,0.8541896,-0.102289155,0.23536383,-0.30250806,0.23779215,-0.3304533,-0.09380544,797.8022,837.28937,803.0403,803.44324,743.00366,-0.37896728515625,-5.4931640625E-4,0.92913818359375,5.802001953125,-6.841278076171875,3.028106689453125,1,1.0,1.0,1.0,1.0,50.00
2021-04-08 10:01:47.988,0.4794001,0.18964049,0.45016488,0.30430746,0.44795683,0.32738653,0.12029629,0.42593646,0.87253904,0.4134042,0.29124203,0.5362525,0.29651287,0.8145531,-0.1863985,0.059073407,-0.3237365,0.3003063,-0.36699674,-0.028729476,803.44324,835.2747,800.6227,801.02563,768.7912,-0.38946533203125,-9.1552734375E-4,0.9197998046875,4.658050537109375,-2.0037841796875,1.06170654296875,1,1.0,1.0,1.0,1.0,50.00
2021-04-08 10:01:48.499,0.47836432,0.07913869,0.24219298,0.30327195,0.4109851,-0.24550629,-0.2820117,0.41655385,0.8652169,0.49464694,-0.095579475,0.6498702,0.24847478,0.79576594,-0.23056121,0.15074387,-0.35249192,0.2951303,-0.39751804,-0.108120516,803.0403,826.8132,809.89014,819.5604,722.8571,-0.4234619140625,-0.01153564453125,0.90716552734375,4.299163818359375,-0.007476806640625,3.8580322265625,1,1.0,1.0,1.0,1.0,50.00
2021-04-08 10:01:49.009,0.56643265,0.007858302,0.2079064,0.35671586,0.445394,-0.2723756,-0.23362693,0.35957283,0.8351726,0.4744921,-0.03428515,0.673763,0.18368019,0.8476103,-0.2406246,0.14826596,-0.31808412,0.40089813,-0.45282713,-0.18826322,774.0293,842.9304,798.60803,787.326,704.7253,-0.443359375,-0.0186767578125,0.89599609375,4.732818603515625,-4.725341796875,0.814971923828125,1,1.0,1.0,1.0,1.0,50.00
2021-04-08 10:01:49.541,0.95699126,0.09528308,0.23583739,0.93724835,0.46900657,-0.18208651,-0.2587113,0.4542434,0.850403,0.40737703,0.024390372,0.9937771,0.21970399,0.9122874,-0.1688126,0.18214282,-0.24722709,0.44320896,-0.39891344,-0.21930511,817.1429,798.20514,807.47253,823.1868,742.1978,-0.46917724609375,-0.0078125,0.8885498046875,5.540313720703125,-3.880462646484375,5.151519775390625,1,1.0,1.0,1.0,1.0,50.00
2021-04-08 10:01:50.063,1.0615716,0.070979156,0.41742563,1.0495213,0.4656675,0.011460384,-0.23909499,0.4316986,0.9135973,0.02173416,0.028882671,1.0290072,0.20414925,1.0033131,-0.15909043,0.21390316,-0.20989962,0.5150528,-0.33299667,-0.14468913,797.8022,801.4286,785.31134,793.36993,698.68134,-0.472900390625,-0.015380859375,0.882080078125,4.613189697265625,-6.3702392578125,1.95892333984375,1,1.0,1.0,1.0,1.0,50.00
