TimeStamp,Delta_TP9,Delta_AF7,Delta_AF8,Delta_TP10,Theta_TP9,Theta_AF7,Theta_AF8,Theta_TP10,Alpha_TP9,Alpha_AF7,Alpha_AF8,Alpha_TP10,Beta_TP9,Beta_AF7,Beta_AF8,Beta_TP10,Gamma_TP9,Gamma_AF7,Gamma_AF8,Gamma_TP10,RAW_TP9,RAW_AF7,RAW_AF8,RAW_TP10,AUX_RIGHT,Accelerometer_X,Accelerometer_Y,Accelerometer_Z,Gyro_X,Gyro_Y,Gyro_Z,HeadBandOn,HSI_TP9,HSI_AF7,HSI_AF8,HSI_TP10,Battery,Elements
2021-04-12 09:10:46.405,0.4661815,0.95936316,0.51005423,1.5686523,0.35640803,0.87221366,0.14102471,1.2729963,0.31058523,0.93089724,0.35615554,1.0267211,0.43999705,0.17960638,0.02804359,0.7504424,0.1337858,-0.23159033,-0.17857547,-0.40644658,704.3223,755.89746,786.52014,698.2784,748.24176,0.18792724609375,0.02703857421875,0.98785400390625,4.732818603515625,-3.54400634765625,1.1065673828125,1,1.0,1.0,1.0,1.0,90.00
2021-04-12 09:10:46.618,0.4661815,0.7426851299999,0.4204942650000,1.5686523,0.35640803,0.4658320835,0.18405924,1.2729963,0.31058523,0.505261255,0.29246886,1.0267211,0.43999705,0.1206045665000,0.055698075,0.7504424,0.1337858,-0.30637048,-0.18696923,-0.40644658,760.1282,764.76193,790.95238999999,,,,,,,,,,,,,,,/muse/elements/blink
2021-04-12 09:10:46.913,0.4661815,0.5260071,0.3309343,1.5686523,0.35640803,0.059450507,0.22709377,1.2729963,0.31058523,0.07962527,0.22878218,1.0267211,0.43999705,0.061602753,0.08335256,0.7504424,0.1337858,-0.38115063,-0.19536299,-0.40644658,815.9341,773.6264,795.38464,803.44324,729.707,0.17950439453125,0.020751953125,0.97955322265625,5.779571533203125,-6.527252197265625,0.785064697265625,1,1.0,1.0,1.0,1.0,90.00
2021-04-12 09:10:47.419,0.4661815,0.6053998,0.3331867,1.5880643,0.35640803,-0.106768414,0.22976372,1.2924896,0.31058523,0.17679484,0.20729263,1.0127826,0.43999705,-0.15547287,0.10071098,0.78500533,0.1337858,-0.38169777,-0.31217018,-0.4988447,805.8608,765.56775,786.1172,797.8022,765.56775,0.1890869140625,0.0406494140625,0.9820556640625,10.12359619140625,-8.7628173828125,-6.998291015625,1,1.0,1.0,1.0,1.0,90.00
2021-04-12 09:10:47.929,0.4661815,0.82709706,0.45057806,1.5880643,0.35640803,0.1477815,0.25142583,1.2924896,0.31058523,0.4658016,0.25993273,1.0127826,0.43999705,-0.16817175,0.12494463,0.78500533,0.1337858,-0.30583003,-0.30645144,-0.4988447,932.381,767.98535,794.9817,923.5165,771.6117,0.2315673828125,0.07305908203125,0.96337890625,1.308441162109375,-18.370513916015625,-2.818756103515625,1,1.0,1.0,1.0,1.0,90.00
2021-04-12 09:10:48.432,0.4661815,0.8140895,0.48522323,1.5880643,0.35640803,0.26505664,0.16382745,1.2924896,0.31058523,0.4798982,0.23754328,1.0127826,0.43999705,-0.09863082,0.042877395,0.78500533,0.1337858,-0.28905767,-0.2697523,-0.4988447,821.1722,769.19415,802.23444,803.8461,768.3883,0.33782958984375,0.0784912109375,0.91839599609375,5.001983642578125,-6.676788330078125,-1.6448974609375,1,1.0,1.0,1.0,1.0,90.00
2021-04-12 09:10:48.941,0.4661815,0.8274837,0.5749311,1.5880643,0.35640803,0.35363814,0.12565954,1.2924896,0.31058523,0.59513456,0.22016485,1.0127826,0.43999705,0.01711396,-0.029470459,0.78500533,0.1337858,-0.3401533,-0.32783923,-0.4988447,786.9231,779.2674,790.54944,794.9817,834.87177,0.32666015625,0.1011962890625,0.94610595703125,4.837493896484375,-5.196380615234375,2.43743896484375,1,1.0,1.0,1.0,1.0,80.00
2021-04-12 09:10:49.445,0.4661815,0.84466964,0.7042859,1.5880643,0.35640803,0.20732684,-0.05974711,1.2924896,0.31058523,0.6363521,0.023854032,1.0127826,0.43999705,-0.042416856,-0.19996953,0.78500533,0.1337858,-0.38035342,-0.4652218,-0.4988447,799.81683,757.9121,784.90845,799.011,715.2015,0.3294677734375,0.0931396484375,0.92694091796875,3.760833740234375,-5.00946044921875,-1.188812255859375,1,2.0,1.0,1.0,2.0,80.00
2021-04-12 09:10:49.971,0.2921375,0.87430894,0.7055274,-0.2228327,0.43558186,0.17871696,0.015979525,0.2022346,0.674342,0.6350557,0.17918046,0.54296935,0.6099615,-0.03399054,-0.21638317,0.4535039,0.13682719,-0.39833656,-0.49581856,-0.011498804,738.5714,761.9414,806.6667,741.39197,746.2271,0.359619140625,0.09100341796875,0.9439697265625,5.18890380859375,-3.775787353515625,0.770111083984375,1,1.0,1.0,1.0,1.0,80.00
2021-04-12 09:10:50.120,0.2921375,0.9338403900000,0.7105982,-0.2228327,0.43558186,0.28691189,0.1126560575,0.2022346,0.674342,0.68683832,0.190637155,0.54296935,0.6099615,-0.025803108999,-0.234804115,0.4535039,0.13682719,-0.390069844999,-0.469359045000,-0.011498804,765.16482,777.05130000000,795.98902,,,,,,,,,,,,,,,/muse/elements/blink
2021-04-12 09:10:50.486,0.2921375,0.99337184,0.715669,-0.2228327,0.43558186,0.39510682,0.20933259,0.2022346,0.674342,0.73862094,0.20209385,0.54296935,0.6099615,-0.017615678,-0.25322506,0.4535039,0.13682719,-0.38180313,-0.44289953,-0.011498804,791.75824,792.1612,785.31134,789.34064,705.12823,0.3214111328125,0.09088134765625,0.9364013671875,5.45806884765625,-4.762725830078125,1.39068603515625,1,1.0,1.0,1.0,1.0,80.00
2021-04-12 09:10:50.999,0.16832574,1.0038272,0.5397344,-0.10156697,0.5153842,0.5147136,0.3113857,0.328561,0.63489366,0.69095635,0.2017475,0.54296935,0.64413524,0.022592837,-0.22577241,0.52176946,0.15028282,-0.4543535,-0.45281583,0.048086282,815.12823,784.5055,791.75824,797.8022,646.30035,0.279296875,0.0799560546875,0.9798583984375,4.927215576171875,-4.65057373046875,1.07666015625,1,1.0,1.0,1.0,1.0,80.00
2021-04-12 09:10:51.506,-0.08398877,1.1060668,0.5113649,0.085753456,0.4564042,0.58207184,0.31492773,0.029482359,0.44564027,0.6716977,0.16140258,0.25116307,0.39774647,0.025949067,-0.20151266,0.26488388,-0.022420852,-0.51576895,-0.4548943,-0.2418776,801.02563,767.1795,793.7729,799.41394,826.4103,0.310791015625,0.05426025390625,0.9521484375,3.529052734375,-5.7421875,3.237457275390625,1,1.0,1.0,1.0,1.0,80.00
2021-04-12 09:10:52.022,-0.1456427,0.90194607,0.25329784,-0.06217746,0.27620512,0.32703236,0.06696761,-0.07387801,0.46278384,0.27224034,-0.07180398,0.3373373,0.4858856,-0.052216638,-0.18984373,0.39250433,-0.04998572,-0.69653726,-0.5149611,-0.3227057,811.9048,776.8498,785.7143,805.8608,628.97437,0.30303955078125,0.0555419921875,0.95074462890625,3.84307861328125,-4.658050537109375,4.80010986328125,1,1.0,1.0,1.0,1.0,80.00
2021-04-12 09:10:52.524,0.27283046,0.75206536,-0.05825489,0.06658593,0.31097108,0.11894452,-0.14844921,0.080015115,0.5735273,0.08744049,-0.10227963,0.4207738,0.50871825,-0.07988726,-0.1684193,0.3512332,0.022434805,-0.70064247,-0.49810696,-0.28814408,785.31134,772.8205,795.78754,788.5348,650.7326,0.3048095703125,0.04144287109375,0.97906494140625,3.27484130859375,-1.054229736328125,15.95550537109375,1,1.0,1.0,1.0,1.0,80.00
2021-04-12 09:10:53.036,0.6804997,0.4604039,-0.2181673,0.4595569,0.35229918,-0.0066441153,-0.48968846,0.33152962,0.5560799,0.081800364,-0.29676482,0.47123218,0.5194667,-0.17058909,-0.1748115,0.38004455,0.032161724,-0.74959755,-0.595711,-0.29556283,712.381,808.2784,809.4872,721.6484,701.0989,0.13739013671875,-0.0645751953125,0.98187255859375,5.704803466796875,15.731201171875,20.105133056640625,1,1.0,1.0,1.0,1.0,80.00
2021-04-12 09:10:53.164,0.751437915,0.53791795,-0.312111835,0.5285251,0.39603334,0.0517889473499,-0.47549394,0.39186877,0.5317345,0.057983377,-0.36280477,0.464573115,0.5155073699999,-0.184941919999,-0.131868375,0.352235375,0.052601995,-0.772599725,-0.5848356,-0.269441475,760.12825,807.47255,804.85349999999,,,,,,,,,,,,,,,/muse/elements/blink
2021-04-12 09:10:53.556,0.82237613,0.615432,-0.40605637,0.5974933,0.4397675,0.11022201,-0.46129942,0.45220792,0.5073891,0.03416639,-0.42884472,0.45791405,0.51154804,-0.19929475,-0.08892525,0.3244262,0.073042266,-0.7956019,-0.5739602,-0.24332012,807.8755,806.6667,800.2198,807.8755,728.9011,-0.03717041015625,-0.06903076171875,1.0032958984375,5.51788330078125,4.299163818359375,0.76263427734375,1,1.0,1.0,1.0,1.0,80.00
2021-04-12 09:10:54.059,1.0566353,0.68311286,0.61749905,0.85318303,0.59869516,0.12974654,0.1252464,0.63688195,0.48387462,0.031630717,-0.30627018,0.40682772,0.4443661,-0.18281125,0.21075618,0.3544358,0.049724933,-0.7776131,-0.40761948,-0.2625514,803.8461,820.3663,808.68134,805.05493,709.15753,-0.09521484375,0.00762939453125,0.9976806640625,6.616973876953125,2.654266357421875,-2.0037841796875,1,1.0,1.0,1.0,1.0,80.00
2021-04-12 09:10:54.575,1.0566353,0.68311286,0.41583008,0.85318303,0.59869516,0.12974654,0.025031341,0.63688195,0.48387462,0.031630717,0.02831102,0.40682772,0.4443661,-0.18281125,0.1502998,0.3544358,0.049724933,-0.7776131,-0.11650905,-0.2625514,800.6227,825.6044,798.20514,797.8022,839.707,-0.15447998046875,0.0126953125,1.0006103515625,2.714080810546875,-3.21502685546875,3.529052734375,1,1.0,1.0,1.0,1.0,80.00
2021-04-12 09:10:54.905,1.04994685,0.68311286,0.360424655,0.895053565,0.56751898,0.12974654,0.027036484,0.537223745,0.71058406,0.031630717,0.0516807725,0.583673345,0.51850033,-0.18281125,0.13969461,0.3802140499999,0.1093513565,-0.7776131,-0.086615082000,-0.059762009999,803.0403,835.07325,793.77289,,,,,,,,,,,,,,,/muse/elements/blink
2021-04-12 09:10:55.101,1.0432584,0.68311286,0.30501923,0.9369241,0.5363428,0.12974654,0.029041627,0.43756554,0.9372935,0.031630717,0.075050525,0.76051897,0.59263456,-0.18281125,0.12908942,0.4059923,0.16897778,-0.7776131,-0.056721114,0.14302738,805.4579,844.5421,789.34064,784.90845,747.4359,-0.19342041015625,0.01763916015625,0.978515625,5.854339599609375,-7.55157470703125,-2.549591064453125,1,1.0,1.0,1.0,1.0,80.00
2021-04-12 09:10:55.630,1.0432584,0.68311286,0.27431926,0.9369241,0.5363428,0.12974654,-0.0090208575,0.43756554,0.9372935,0.031630717,0.0540887,0.76051897,0.59263456,-0.18281125,0.10272728,0.4059923,0.16897778,-0.7776131,-0.041439466,0.14302738,820.3663,800.6227,799.81683,813.91943,652.74725,-0.08795166015625,-0.09393310546875,0.979736328125,5.031890869140625,-12.807769775390625,3.3197021484375,1,1.0,1.0,1.0,1.0,80.00
2021-04-12 09:10:56.151,1.0432584,0.68311286,0.3823192,0.9369241,0.5363428,0.12974654,-0.070449546,0.43756554,0.9372935,0.031630717,0.06893926,0.76051897,0.59263456,-0.18281125,0.12138145,0.4059923,0.16897778,-0.7776131,-0.098225445,0.14302738,793.7729,809.0842,791.3553,769.59705,507.28937,-0.0380859375,0.010498046875,1.00848388671875,7.020721435546875,-10.12359619140625,-19.058380126953125,1,1.0,1.0,1.0,1.0,80.00
2021-04-12 09:10:56.679,1.0432584,0.9679261,0.58786833,0.9369241,0.5363428,0.64931107,0.026273252,0.43756554,0.9372935,0.5494962,0.1767442,0.76051897,0.59263456,0.08879167,0.13512889,0.4059923,0.16897778,-0.27865538,-0.2651267,0.14302738,523.8095,829.6337,1203.1501,537.1062,828.4249,-0.03314208984375,8.544921875E-4,0.95843505859375,6.38519287109375,17.30133056640625,31.215667724609375,1,1.0,1.0,1.0,1.0,80.00
2021-04-12 09:10:56.817,1.0432584,1.0269427,0.591757265,0.9369241,0.5363428,0.67843801,0.025989848,0.43756554,0.9372935,0.60679785,0.170523235,0.76051897,0.59263456,0.103762455,0.13338759,0.4059923,0.16897778,-0.275377305,-0.253902225,0.14302738,663.22345,815.1282,974.48713,,,,,,,,,,,,,,,/muse/elements/blink
2021-04-12 09:10:57.184,1.0432584,1.0859593,0.5956462,0.9369241,0.5363428,0.70756495,0.025706444,0.43756554,0.9372935,0.6640995,0.16430227,0.76051897,0.59263456,0.11873324,0.13164629,0.4059923,0.16897778,-0.27209923,-0.24267775,0.14302738,802.6374,800.6227,745.82416,780.4762,704.7253,-0.20745849609375,0.0345458984375,0.97686767578125,8.83758544921875,2.998199462890625,-10.78155517578125,1,1.0,1.0,1.0,1.0,80.00
2021-04-12 09:10:57.703,1.0432584,1.0859593,0.718026,0.9369241,0.5363428,0.70756495,0.236822,0.43756554,0.9372935,0.6640995,0.16430227,0.76051897,0.59263456,0.11873324,0.1267744,0.4059923,0.16897778,-0.27209923,-0.46874213,0.14302738,816.337,834.4689,781.28204,797.8022,1021.8315,-0.44732666015625,0.0399169921875,0.89581298828125,9.22637939453125,-0.022430419921875,-2.03369140625,1,2.0,1.0,1.0,2.0,80.00
2021-04-12 09:10:58.211,1.0432584,1.1631452,0.79864925,0.9369241,0.5363428,0.75890565,0.31732696,0.43756554,0.9372935,0.6640995,0.16430227,0.76051897,0.59263456,0.15515663,0.13088948,0.4059923,0.16897778,-0.28839597,-0.48061463,0.14302738,814.7253,805.4579,769.19415,804.2491,853.8095,-0.38861083984375,0.025146484375,0.90814208984375,1.39068603515625,-11.432037353515625,11.656341552734375,1,2.0,1.0,1.0,2.0,80.00
2021-04-12 09:10:58.719,0.6267203,1.1631452,0.79864925,0.5415576,-0.0011325035,0.75890565,0.31732696,0.4780725,0.6398475,0.6640995,0.16430227,0.5211585,0.54717505,0.15515663,0.13088948,0.57858205,0.40412873,-0.28839597,-0.48061463,0.31035265,832.4542,802.23444,757.1062,819.15753,738.1685,-0.2225341796875,0.0517578125,0.977783203125,2.594451904296875,-6.258087158203125,0.8074951171875,1,1.0,1.0,1.0,1.0,80.00
2021-04-12 09:10:59.235,0.9216834,1.0121752,0.71323436,0.9555127,0.49089158,0.27408096,0.10107488,0.8332576,0.68279886,0.38909614,0.37945193,1.0657507,0.6361703,0.10414673,0.25310004,0.6608473,0.41094372,-0.15597141,0.007486803,0.3592312,992.01465,828.022,761.13556,977.1062,642.674,-0.251708984375,0.03411865234375,0.9654541015625,5.615081787109375,-9.40582275390625,0.95703125,1,1.0,1.0,1.0,1.0,90.00
2021-04-12 09:10:59.332,0.9352446000000,1.0298972,0.7767907949999,0.9690179999999,0.50676084,0.304695205,0.07235668,0.8465078500000,0.68279886,0.38909614,0.3862836950000,1.0657507,0.64836505,0.160208695,0.2350447950000,0.66804698,0.4165420250000,-0.206734305,-0.013515911499,0.3676097,915.05492499999,837.49085,765.366305,,,,,,,,,,,,,,,/muse/elements/blink
2021-04-12 09:10:59.739,0.9488058,1.0476192,0.84034723,0.9825233,0.5226301,0.33530945,0.04363848,0.8597581,0.68279886,0.38909614,0.39311546,1.0657507,0.6605598,0.21627066,0.21698955,0.67524666,0.42214033,-0.2574972,-0.034518626,0.3759882,838.0952,846.9597,769.59705,817.1429,701.9048,-0.20867919921875,-0.00604248046875,0.97723388671875,4.284210205078125,-6.9683837890625,1.21124267578125,1,1.0,1.0,1.0,1.0,90.00
2021-04-12 09:11:00.267,1.1620951,1.0200472,0.8464724,1.195407,0.7955687,0.4956647,-0.019588623,1.0560628,0.4835867,0.38909614,0.39311546,1.0612279,0.7426775,0.178456,0.15091377,0.7425819,0.42096978,-0.3199299,-0.074419186,0.41143772,796.5934,813.91943,788.5348,768.3883,624.5421,-0.14373779296875,0.019775390625,0.978515625,6.258087158203125,-5.674896240234375,1.981353759765625,1,1.0,1.0,1.0,1.0,90.00
2021-04-12 09:11:00.794,1.1620951,1.025584,0.84483325,1.243787,0.7955687,0.6047208,-0.36937982,1.0967058,0.4835867,0.18788591,0.18711197,1.0612279,0.7426775,0.22469065,-0.13980596,0.73376113,0.42096978,-0.49231824,-0.3600516,0.40949115,811.9048,808.2784,784.90845,786.9231,801.4286,-0.11767578125,0.047119140625,0.9954833984375,3.850555419921875,-10.116119384765625,3.2000732421875,1,1.0,1.0,1.0,1.0,90.00
2021-04-12 09:11:01.318,1.1620951,0.5040577,0.68238,1.243787,0.7955687,0.38920903,-0.49266586,1.0967058,0.4835867,0.052977175,-0.08946669,1.0612279,0.7426775,-0.063248046,-0.25847486,0.73376113,0.42096978,-0.68589437,-0.460758,0.40949115,815.9341,806.26373,796.5934,807.47253,746.2271,-0.09466552734375,0.0421142578125,0.99658203125,6.50482177734375,-7.9852294921875,5.14404296875,1,1.0,1.0,1.0,1.0,90.00
2021-04-12 09:11:01.830,0.903979,0.2782782,0.54697865,1.243787,0.01271042,-0.38356912,-0.39760882,1.0967058,0.31854182,-0.109056346,-0.030724458,1.0612279,0.37885743,-0.16072682,-0.20986961,0.73376113,0.100934215,-0.7397028,-0.5015755,0.40949115,798.60803,813.1135,797.3993,794.9817,743.4066,-0.08062744140625,0.04132080078125,0.99676513671875,4.17205810546875,-2.811279296875,1.57012939453125,1,1.0,1.0,1.0,1.0,90.00
2021-04-12 09:11:02.341,0.89536995,0.5402661,0.42481232,1.243787,0.084488854,-0.18628328,0.071137846,1.0967058,0.31854182,-0.07616016,-0.07874574,1.0612279,0.3669823,-0.16098616,-0.14681725,0.73376113,0.11562388,-0.6005779,-0.5118298,0.40949115,795.38464,795.38464,793.7729,802.23444,821.5751,-0.07562255859375,0.0379638671875,1.001953125,4.433746337890625,-7.05810546875,4.164581298828125,1,1.0,1.0,1.0,1.0,90.00
2021-04-12 09:11:02.851,0.7597742,0.6459685,0.25641203,0.69391733,0.121625006,-0.11936341,0.1025965,0.3560408,0.58780754,0.11756777,-0.097648196,0.45112982,0.3024132,-0.1979421,-0.12484475,0.44918674,0.09896064,-0.505276,-0.545783,0.104241565,797.3993,792.1612,789.34064,790.14655,769.59705,-0.08074951171875,0.0157470703125,1.00189208984375,4.254302978515625,-3.790740966796875,1.188812255859375,1,1.0,1.0,1.0,1.0,90.00
2021-04-12 09:11:03.359,0.84702516,0.5749039,0.06131652,0.6818576,0.1974778,-0.14717562,0.06285964,0.52765775,0.72821325,0.11756777,-0.103583574,0.5785419,0.3134024,-0.19866836,-0.17330185,0.5334943,0.26837206,-0.43046275,-0.60235626,0.40075645,759.92676,790.9524,799.011,775.2381,716.8132,-0.086669921875,0.041748046875,1.00439453125,5.84686279296875,-4.65057373046875,1.42059326171875,1,1.0,1.0,1.0,1.0,90.00
2021-04-12 09:11:03.886,0.8488981,0.36306077,-0.00665352,0.6818576,0.16787523,-0.053227186,-0.23000896,0.52765775,0.72821325,0.1665949,0.2657121,0.5785419,0.3176387,-0.073179595,-0.25372362,0.5334943,0.27473077,-0.43066373,-0.51509017,0.40075645,590.696,783.2967,799.41394,589.4872,932.7839,-0.0826416015625,0.01568603515625,0.99884033203125,3.147735595703125,-0.530853271484375,-1.51031494140625,1,1.0,1.0,1.0,1.0,90.00
2021-04-12 09:11:04.161,0.8791757149999,0.549669835,0.22798103,0.72834815,0.186680725,-0.009497233,-0.1384607165,0.57684645,0.724682955,0.141121565,0.26745975,0.56755345,0.351491065,-0.0528019375,-0.238550959999,0.55444535,0.35523395,-0.458544475,-0.471515785,0.473958525,699.28575,794.780215,793.97437,,,,,,,,,,,,,,,/muse/elements/blink
2021-04-12 09:11:04.398,0.90945333,0.7362789,0.46261558,0.7748387,0.20548622,0.03423272,-0.046912473,0.62603515,0.72115266,0.11564823,0.2692074,0.556565,0.38534343,-0.03242428,-0.2233783,0.5753964,0.43573713,-0.48642522,-0.4279414,0.5471606,807.8755,806.26373,788.5348,790.54944,765.16486,-0.185546875,-0.050048828125,0.984619140625,6.68426513671875,15.290069580078125,-1.054229736328125,1,1.0,1.0,1.0,1.0,90.00
2021-04-12 09:11:04.921,0.90945333,0.9250565,0.5627393,0.7748387,0.20548622,0.0670687,0.009935006,0.62603515,0.72115266,0.29219556,0.27653325,0.556565,0.38534343,0.013382816,0.026563669,0.5753964,0.43573713,-0.4516327,-0.3170699,0.5471606,810.696,851.39197,800.6227,799.41394,744.61536,-0.33343505859375,0.03338623046875,0.93414306640625,10.071258544921875,9.846954345703125,7.633819580078125,1,1.0,1.0,1.0,1.0,90.00
2021-04-12 09:11:05.448,0.90945333,1.0896107,0.7059166,0.7748387,0.20548622,-0.06647893,0.012461006,0.62603515,0.72115266,0.3168179,0.22320534,0.556565,0.38534343,-0.06066622,0.39272338,0.5753964,0.43573713,-0.46782932,-0.08543558,0.5471606,796.5934,779.2674,809.0842,798.60803,849.3773,-0.39306640625,0.02581787109375,0.93768310546875,3.820648193359375,-6.10107421875,-4.687957763671875,1,1.0,1.0,1.0,1.0,90.00
2021-04-12 09:11:05.963,0.8276275,1.0774512,0.73285615,0.82508713,1.0665323,-0.10542091,0.32663712,0.59059495,1.2598656,0.3168179,0.40928528,0.676015,0.6636157,-0.0028489958,0.3913744,0.7690045,0.11351633,-0.3573281,-0.12741134,-0.13415286,796.5934,808.2784,785.31134,807.0696,739.7802,-0.34173583984375,0.02130126953125,0.9453125,5.78704833984375,-5.78704833984375,0.560760498046875,1,1.0,1.0,1.0,1.0,90.00
2021-04-12 09:11:06.477,0.93902993,1.0219983,0.8040753,0.8804707,0.9704617,-0.104886346,0.46255013,0.6741663,1.2738878,0.3168179,0.40288866,0.84619474,0.65636426,0.013147596,0.289221,0.8144626,0.09218284,-0.37436196,-0.21454254,-0.1978271,817.9487,802.6374,772.8205,785.31134,814.7253,-0.312744140625,0.01226806640625,0.9476318359375,5.03936767578125,-6.4300537109375,-0.82244873046875,1,1.0,1.0,1.0,1.0,90.00
2021-04-12 09:11:06.985,0.9488739,1.1683174,0.7237604,0.9668727,1.000068,0.18453738,0.44983724,0.7794788,1.3499492,0.3915755,0.42063376,0.878801,0.64981997,0.17728454,0.11576695,0.78960574,0.051911425,-0.32937807,-0.377151,-0.17443168,823.5897,812.3077,791.75824,805.8608,749.0476,-0.30108642578125,0.00811767578125,0.9576416015625,5.1739501953125,-5.203857421875,1.1065673828125,1,1.0,1.0,1.0,1.0,90.00
2021-04-12 09:11:07.499,0.9319111,1.0455501,0.55735046,0.9168904,0.98576313,0.107762516,0.21413274,0.7854623,1.2797253,0.3915755,0.2189412,0.9674887,0.583807,0.1711011,0.055685274,0.6973831,0.05028721,-0.31689095,-0.32250798,-0.17631897,807.47253,795.38464,778.0586,794.17584,699.89014,-0.31707763671875,8.544921875E-4,0.9503173828125,4.254302978515625,-4.29168701171875,0.70281982421875,1,1.0,1.0,1.0,1.0,90.00
2021-04-12 09:11:08.031,0.7360566,1.0386947,0.27620345,0.7724505,0.9082311,0.04278423,-0.14638348,0.6547821,1.1570809,0.3915755,0.2299776,0.83934253,0.46502224,0.14980964,0.004105714,0.5071519,0.12627734,-0.33967036,-0.27913263,-0.18818446,799.011,802.6374,793.36993,792.1612,761.9414,-0.32244873046875,0.00457763671875,0.95037841796875,4.792633056640625,-4.5458984375,0.8074951171875,1,1.0,1.0,1.0,1.0,90.00
2021-04-12 09:11:08.543,0.4221359,0.58231854,0.13260454,0.39994535,0.68362933,-0.099949606,-0.26628646,0.29827368,0.98037815,0.2861018,0.18238562,0.8039501,0.28989977,0.102185786,-0.039500136,0.34415862,0.18081783,-0.3499192,-0.28026673,-0.2003193,812.71063,793.7729,790.9524,804.2491,772.4176,-0.310546875,-0.00238037109375,0.94921875,4.568328857421875,-5.136566162109375,0.381317138671875,1,1.0,1.0,1.0,1.0,90.00
2021-04-12 09:11:09.052,0.14820358,0.63993657,0.104866765,0.48929152,0.17490175,-0.29204518,-0.3120091,-0.04082037,0.5524028,0.1284313,0.17671981,0.5346272,0.22404183,-0.043434538,-0.09115443,0.2941989,0.10093025,-0.6616025,-0.300195,-0.22979419,799.81683,803.8461,778.86444,788.93774,754.2857,-0.31475830078125,-4.8828125E-4,0.94903564453125,5.1739501953125,-4.8150634765625,0.6878662109375,1,1.0,1.0,1.0,1.0,90.00
2021-04-12 09:11:09.559,0.25432575,0.6043708,0.38689032,0.6093194,0.01199721,-0.19677609,-0.26378572,0.02494187,0.47998872,0.2628828,0.33526695,0.5271136,0.20737965,-0.17442177,-0.100267634,0.29311642,-0.04343673,-0.58602,-0.2622854,-0.18734665,812.3077,795.78754,780.4762,803.44324,801.02563,-0.3013916015625,0.0025634765625,0.95672607421875,4.987030029296875,-5.42816162109375,0.874786376953125,1,1.0,1.0,1.0,1.0,90.00
2021-04-12 09:11:10.077,0.38919336,0.5918958,0.57218224,0.722142,-0.16664238,-0.045610886,-0.1274661,0.035280548,0.35546213,0.33915448,0.4659071,0.45530596,0.24198622,-0.19503582,0.0019186456,0.21496536,-0.28476572,-0.5882226,-0.20870182,-0.20498972,818.7546,796.99634,772.4176,807.0696,747.4359,-0.3072509765625,0.00653076171875,0.95330810546875,4.38140869140625,-5.51788330078125,0.859832763671875,1,1.0,1.0,1.0,1.0,90.00
2021-04-12 09:11:10.598,0.507207,0.44145787,0.5490436,0.762103,-0.31033623,0.04815251,-0.023856595,0.033862565,0.24549752,0.24976727,0.4659071,0.27312705,0.22410381,-0.30291405,0.0478723,0.18730694,-0.30468243,-0.5400044,-0.22155108,-0.19355237,837.28937,806.6667,783.2967,821.5751,746.2271,-0.29913330078125,0.0084228515625,0.95599365234375,4.97955322265625,-4.725341796875,1.33087158203125,1,1.0,1.0,1.0,1.0,90.00
2021-04-12 09:11:11.123,0.7474628,0.230307,0.3488412,0.6098153,0.012336147,-0.06799289,-0.09997268,-0.5282254,0.34230372,0.20486832,0.41219926,0.42688674,0.41449147,-0.21161042,0.016519368,0.2115487,-0.093498886,-0.47925946,-0.3097083,-0.016454518,790.54944,805.05493,797.8022,786.52014,831.6484,-0.2921142578125,7.9345703125E-4,0.9569091796875,4.306640625,-4.91973876953125,0.755157470703125,1,1.0,1.0,1.0,1.0,90.00
2021-04-12 09:11:11.638,0.7474628,-0.11744018,0.17379643,0.8411644,0.012336147,-0.41894233,-0.21260853,-0.2644082,0.34230372,-0.1376955,-0.07119057,0.5177362,0.41449147,-0.17232731,-0.06681196,0.43418854,-0.093498886,-0.4686317,-0.38510743,-0.06978215,807.8755,800.6227,782.49084,793.36993,751.8681,-0.29779052734375,0.00311279296875,0.96075439453125,4.314117431640625,-3.75335693359375,0.800018310546875,1,1.0,1.0,1.0,1.0,90.00
2021-04-12 09:11:12.143,0.7617199,0.050089486,0.119418256,0.8146607,0.07378268,-0.44732103,-0.45324272,0.034079757,0.45462582,-0.25563434,-0.0049448144,0.56921935,0.3139741,-0.067656174,-0.09418173,0.47758216,0.03809412,-0.48976645,-0.30034518,-0.12613106,814.7253,804.2491,788.93774,806.26373,855.82416,-0.29779052734375,-0.00469970703125,0.95953369140625,4.53094482421875,-4.344024658203125,0.11962890625,1,1.0,1.0,1.0,1.0,90.00
2021-04-12 09:11:12.668,0.6545056,0.16009018,0.1974004,0.7286339,0.12909624,-0.37409016,-0.66911846,0.18462911,0.35504735,-0.25836506,0.04496801,0.5415175,0.15771765,-0.07845164,-0.13933086,0.4215678,0.086070925,-0.57998127,-0.25292975,-0.16131753,807.0696,800.6227,789.7436,811.50183,718.4249,-0.29754638671875,-0.0057373046875,0.95831298828125,5.211334228515625,-4.6356201171875,0.770111083984375,1,1.0,1.0,1.0,1.0,90.00
2021-04-12 09:11:13.187,0.5137012,0.18852791,0.27428845,0.4395415,0.12076648,-0.2518508,-0.55119544,0.15096763,0.35504735,-0.26112545,0.11341906,0.5211221,0.08721149,-0.09866289,-0.19515583,0.27955392,0.054875918,-0.63387233,-0.27692565,-0.123477496,810.293,802.23444,786.9231,799.011,755.89746,-0.29510498046875,-0.00189208984375,0.95819091796875,4.964599609375,-5.4132080078125,1.143951416015625,1,1.0,1.0,1.0,1.0,90.00
2021-04-12 09:11:13.705,0.26304018,0.10779511,0.31628948,0.113193445,0.32854337,-0.1588829,-0.4489737,0.07957384,0.35291776,-0.15612908,0.11264261,0.45842692,0.107073,-0.12869844,-0.12895693,0.23294148,-0.048299037,-0.7038668,-0.25473064,-0.057536628,809.4872,802.23444,792.5641,803.44324,734.1392,-0.296630859375,-0.00146484375,0.953125,4.62066650390625,-4.687957763671875,0.70281982421875,1,1.0,1.0,1.0,1.0,90.00
2021-04-12 09:11:14.208,0.08966908,-0.04503872,0.30058348,-0.019208262,0.3009346,-0.07704184,-0.29040387,-0.050347697,0.3626182,-0.08165877,0.2268957,0.40347832,0.1456651,-0.121607155,-0.13810407,0.27995685,-0.08447109,-0.65825,-0.29222718,-0.08022178,776.4469,801.4286,795.38464,775.2381,738.5714,-0.287841796875,-0.005615234375,0.95855712890625,4.448699951171875,-4.508514404296875,0.919647216796875,1,1.0,1.0,1.0,1.0,90.00
2021-04-12 09:11:14.718,0.16493778,0.21176273,0.19052038,0.07316283,0.37376168,-0.13107641,-0.2793513,-0.038245507,0.3626182,-0.06391461,0.22998957,0.43615276,0.23096822,-0.111596145,-0.10714849,0.33840272,-0.12376728,-0.5313255,-0.29665104,-0.118444964,801.02563,800.6227,784.90845,801.02563,782.8938,-0.284912109375,0.004638671875,0.962890625,4.134674072265625,-5.15899658203125,-0.37384033203125,1,1.0,1.0,1.0,1.0,90.00
2021-04-12 09:11:15.228,0.18968643,0.34482422,0.2375617,0.100358404,-0.030953882,-0.20040192,-0.30547673,-0.09324461,0.30301687,0.021356728,0.22386037,0.38835397,0.18991253,-0.10058315,-0.14845486,0.2931453,-0.054651123,-0.45909008,-0.38908872,-0.28449568,805.4579,803.8461,788.5348,801.8315,786.9231,-0.28948974609375,-0.00299072265625,0.95684814453125,4.38140869140625,-3.94775390625,0.112152099609375,1,1.0,1.0,1.0,1.0,90.00
2021-04-12 09:11:15.736,0.21583937,0.45188922,0.29621828,0.072500706,-0.15941194,-0.13480501,-0.15912335,-0.18501173,0.21985404,0.31725752,0.19170386,0.27220708,0.16597956,-0.11760066,-0.058719847,0.28131273,-0.027143696,-0.42284283,-0.28042287,-0.35298967,806.6667,801.02563,792.5641,792.96704,898.93774,-0.2958984375,-0.00592041015625,0.9609375,5.121612548828125,-4.85992431640625,0.64300537109375,1,1.0,1.0,1.0,1.0,90.00
2021-04-12 09:11:16.255,1.2811961,0.5267005,0.45422506,1.0746123,0.46761984,0.012816503,0.005555592,0.3132297,0.35381737,0.3734584,0.17594105,0.46529576,0.3927742,-0.13868476,-0.07874364,0.34002194,-0.05134799,-0.43532044,-0.19207181,-0.33004445,813.1135,797.8022,799.41394,807.47253,741.39197,-0.294921875,-0.00604248046875,0.96148681640625,3.461761474609375,-4.38140869140625,0.785064697265625,1,1.0,1.0,1.0,1.0,90.00
2021-04-12 09:11:16.773,1.4232655,0.59241855,0.5317265,1.2906018,0.68615997,0.24836029,0.25305602,0.6070323,0.834935,0.4245635,0.3925878,0.69634295,0.5186544,-0.2143004,-0.049461424,0.40355742,-0.056341026,-0.47852755,-0.20043065,-0.37377787,805.8608,805.4579,792.1612,799.81683,725.6777,-0.289794921875,-0.018798828125,0.95867919921875,4.11224365234375,-3.730926513671875,1.30096435546875,1,1.0,1.0,1.0,1.0,90.00
2021-04-12 09:11:17.278,1.4232655,0.55281645,0.5248893,1.2906018,0.68615997,0.25686726,0.21130468,0.6070323,0.834935,0.42308575,0.39567757,0.69634295,0.5186544,-0.24197362,-0.084412545,0.40355742,-0.056341026,-0.49775812,-0.2935902,-0.37377787,802.6374,798.20514,800.6227,806.26373,707.9487,-0.30389404296875,-0.009765625,0.953369140625,3.970184326171875,-4.3963623046875,0.31402587890625,1,1.0,1.0,1.0,1.0,90.00
2021-04-12 09:11:17.802,1.290151,0.33694723,0.3884099,1.2385533,0.65543073,0.21514969,0.16374266,0.60278505,0.8591535,0.38522962,0.35727248,0.66705763,0.41563174,-0.16612181,-0.03282486,0.34617138,-0.00601334,-0.5473617,-0.4315549,-0.343261,811.9048,808.2784,794.57874,807.47253,776.4469,-0.29931640625,-0.024169921875,0.95361328125,4.11224365234375,-5.540313720703125,1.09161376953125,1,1.0,1.0,1.0,1.0,90.00
2021-04-12 09:11:18.307,0.31007057,-0.29155275,-0.016096566,0.40292394,0.16129526,-0.17150953,-0.24223337,0.4027229,0.5708814,-0.05439402,0.1689878,0.6642305,0.12874445,-0.12275935,-0.05891111,0.21583651,-0.038962178,-0.54801375,-0.41368917,-0.3487363,790.9524,816.7399,774.83514,785.7143,813.5165,-0.2894287109375,-0.0220947265625,0.9615478515625,4.388885498046875,-5.24871826171875,0.874786376953125,1,1.0,1.0,1.0,1.0,90.00
2021-04-12 09:11:18.818,0.25533953,-0.16379051,0.027296003,0.47267854,0.0858316,-0.10434143,-0.09295658,0.3833908,0.6229768,0.30061722,0.046122253,0.67184037,0.15695086,-0.08127373,-0.07794116,0.21934402,-0.0016010246,-0.504996,-0.42556915,-0.28485113,795.78754,794.57874,791.75824,786.52014,727.6923,-0.28985595703125,-0.02386474609375,0.95941162109375,5.14404296875,-4.897308349609375,0.897216796875,1,1.0,1.0,1.0,1.0,90.00
2021-04-12 09:11:19.336,0.44738308,0.19882588,0.36186048,0.63858664,0.08616157,0.060143724,-0.061555896,0.38285297,0.653344,0.42423388,0.079930946,0.64842445,0.23182407,-0.10633613,-0.12217886,0.24326386,-0.009523418,-0.52821827,-0.4606803,-0.17087536,820.7692,794.57874,792.1612,809.0842,791.75824,-0.2901611328125,-0.02398681640625,0.9603271484375,5.345916748046875,-3.3795166015625,1.308441162109375,1,1.0,1.0,1.0,1.0,90.00
2021-04-12 09:11:19.836,0.54244816,0.2370372,0.36955523,0.7489497,0.07649266,0.030875843,-0.03373658,0.29885682,0.5320968,0.42423388,0.17137247,0.5034385,0.25963622,-0.18099698,-0.15781811,0.238557,0.005415453,-0.5561471,-0.5603797,-0.13286848,809.0842,799.81683,791.75824,809.89014,772.8205,-0.2904052734375,-0.01959228515625,0.95867919921875,5.570220947265625,-3.925323486328125,1.27105712890625,1,1.0,1.0,1.0,1.0,90.00
2021-04-12 09:11:20.339,0.54257756,0.1410809,0.29255834,0.73432815,0.06711611,-0.053531475,-0.108373694,0.21735033,0.4939974,0.40193453,0.16789687,0.5197974,0.29993984,-0.27366024,-0.0826909,0.28345153,0.05434408,-0.67756,-0.55615795,-0.14114629,769.59705,794.57874,796.1905,774.43225,728.0952,-0.3175048828125,-0.0330810546875,0.9541015625,6.57958984375,-3.22998046875,1.18133544921875,1,1.0,1.0,1.0,1.0,90.00
2021-04-12 09:11:20.861,0.3178871,-0.13910483,0.024811845,1.0056505,-0.08164363,-0.36422637,-0.21554121,0.24826065,0.24494624,0.05537066,0.10884497,0.6309259,0.31145254,-0.34535584,-0.09256545,0.31721097,0.12393066,-0.51569813,-0.34612626,-0.19268659,810.293,801.02563,788.93774,804.65204,799.011,-0.20904541015625,0.00860595703125,0.9207763671875,12.44140625,-7.16278076171875,15.26763916015625,1,1.0,1.0,1.0,1.0,90.00
2021-04-12 09:11:21.388,0.2533564,0.29627338,0.33854324,1.2501031,-0.15656915,-0.12572004,-0.094652854,0.27168176,0.24494624,0.13456304,0.24321374,0.74781525,0.24605648,-0.20333365,-0.120761424,0.38045627,0.21588428,-0.45752877,-0.28363302,-0.17773485,830.4396,799.011,795.78754,810.696,876.3736,-0.117431640625,0.0660400390625,0.99334716796875,-3.671112060546875,-8.396453857421875,-8.306732177734375,1,1.0,1.0,1.0,1.0,90.00
2021-04-12 09:11:21.911,1.427911,0.6165702,0.62304276,1.4013335,1.0751884,0.039786633,0.093112454,0.6055016,0.87916595,0.08850218,0.24452889,0.8167622,0.68516487,-0.061102774,-0.1641621,0.44633406,0.27749297,-0.44701663,-0.27621552,-7.313481E-4,761.9414,796.99634,805.4579,758.71796,707.9487,-0.2723388671875,0.098876953125,0.973876953125,1.143951416015625,10.75164794921875,-5.929107666015625,1,1.0,1.0,1.0,1.0,90.00
2021-04-12 09:11:22.427,1.4998338,0.6892483,0.67543525,1.419264,1.1044948,0.09432971,0.12653667,0.72323596,1.2736716,0.14868864,0.26363677,0.85142857,0.8952648,-0.049397804,0.0042877756,0.7085987,0.49708804,-0.56388235,-0.35392368,0.07191149,787.326,795.38464,805.4579,799.011,1137.0696,-0.4140625,0.01422119140625,0.89849853515625,0.5682373046875,6.86370849609375,-1.92901611328125,1,1.0,1.0,1.0,1.0,90.00
2021-04-12 09:11:22.941,1.4998338,0.7383775,0.69730777,1.3796408,1.1044948,0.09560981,0.09402858,0.88014346,1.2736716,0.14375708,0.31109175,0.82432437,0.8952648,-0.06548673,0.21950455,0.8418142,0.49708804,-0.5655281,-0.24190748,0.19792524,811.0989,783.69965,788.5348,801.8315,682.1612,-0.4681396484375,0.0262451171875,0.888427734375,3.5888671875,-5.8319091796875,1.1962890625,1,1.0,1.0,1.0,1.0,90.00
2021-04-12 09:11:23.454,1.3255419,0.6411441,0.6384589,1.1016941,0.9302317,0.026746476,0.18928765,0.49180457,1.2736716,-0.0664538,0.25647837,0.79292244,0.84242266,-0.19378492,0.26034278,0.72478634,0.46931225,-0.58706534,-0.23787811,0.029603474,807.0696,790.9524,807.0696,809.89014,888.46155,-0.41204833984375,0.01092529296875,0.91986083984375,4.717864990234375,-8.336639404296875,1.682281494140625,1,1.0,1.0,1.0,1.0,90.00
2021-04-12 09:11:23.961,0.4172684,0.7009949,0.58812135,0.55270106,0.31298432,0.038288057,0.1398733,0.24518038,0.84894246,-0.077231534,0.2344796,0.20512438,0.4438923,-0.2607617,0.19053207,0.1512178,-0.06726442,-0.5003328,-0.30489263,-0.06758518,821.5751,802.6374,795.38464,817.5458,772.4176,-0.41387939453125,0.00262451171875,0.91668701171875,4.209442138671875,-5.659942626953125,-0.276641845703125,1,1.0,1.0,1.0,1.0,90.00
2021-04-12 09:11:24.472,0.36090183,0.08682336,0.49752524,0.47480112,0.25853905,-0.4616014,0.07751765,0.19349226,0.87449974,-0.17949648,0.23580807,0.5833784,0.3922744,-0.0998171,-0.014490204,0.12476826,-0.058909778,-0.6796799,-0.47283128,-0.10223341,820.3663,803.0403,789.34064,806.26373,633.8095,-0.40069580078125,-0.00189208984375,0.91900634765625,4.83001708984375,-5.0244140625,1.173858642578125,1,1.0,1.0,1.0,1.0,90.00
2021-04-12 09:11:24.982,0.2008943,0.12482795,0.22190952,0.27445883,0.12876995,-0.4829863,-0.42002392,0.18908079,0.81579393,-0.16135387,0.114743404,0.60755515,0.33827305,-0.14151761,-0.04538703,0.09685873,-0.106022805,-0.71943647,-0.5440798,-0.09000367,808.68134,805.4579,795.38464,816.7399,806.26373,-0.3935546875,-0.00592041015625,0.919921875,4.912261962890625,-5.45806884765625,1.1663818359375,1,1.0,1.0,1.0,1.0,90.00
2021-04-12 09:11:25.500,0.18185492,0.065537006,0.06374229,0.13241379,0.0141509,-0.4749691,-0.5025263,0.06268776,0.80634785,-0.057156727,0.057737254,0.60755515,0.14184389,-0.13238312,0.014357696,0.13537176,-0.11176668,-0.77638936,-0.52985114,-0.07484352,754.68866,799.011,799.81683,759.92676,778.0586,-0.39068603515625,-7.9345703125E-4,0.92401123046875,5.00946044921875,-4.90478515625,0.6878662109375,1,1.0,1.0,1.0,1.0,90.00
2021-04-12 09:11:26.001,0.14200187,0.10426358,-0.2930262,0.62362,-0.07744745,-0.33690548,-0.24515814,0.12818497,0.65263367,-0.07060732,-0.15678985,0.63784456,0.039306216,-0.20450622,0.008755464,0.20053054,-0.14888965,-0.6581999,-0.56872827,-0.074878916,811.9048,796.99634,792.1612,807.8755,718.022,-0.38232421875,0.001953125,0.92388916015625,5.615081787109375,-5.78704833984375,0.530853271484375,1,1.0,1.0,1.0,1.0,90.00
2021-04-12 09:11:26.518,0.14926256,0.08077902,-0.26170507,0.9942325,-0.3662408,-0.24344933,-0.21339408,0.21877444,0.21940085,-0.024505563,-0.19644085,0.73704505,-0.07329048,-0.23513946,-0.038818017,0.28682232,-0.1638596,-0.51755124,-0.5553305,-0.14648049,812.71063,811.0989,793.7729,799.81683,774.43225,-0.381591796875,-0.00115966796875,0.9249267578125,4.643096923828125,-3.93280029296875,0.665435791015625,1,1.0,1.0,1.0,1.0,90.00
2021-04-12 09:11:27.033,0.60011345,0.10928868,-0.08406244,1.0591172,0.6309013,-0.125273,-0.18835877,0.6048492,0.7961325,0.041707177,-0.13560055,0.9560673,-0.025381664,-0.3102111,-0.12666965,0.27132747,0.06226556,-0.46508896,-0.51873016,-0.19183104,816.337,809.4872,803.0403,816.337,844.1392,-0.3817138671875,0.0062255859375,0.92242431640625,4.306640625,-6.452484130859375,1.65985107421875,1,1.0,1.0,1.0,1.0,90.00
2021-04-12 09:11:27.548,1.1855589,0.75068784,0.30017877,1.1242613,0.78670055,0.3579941,0.22625943,0.6362788,0.82641333,0.4637735,0.5354766,0.93411344,0.26453558,-0.19069825,-0.13654849,0.18971837,-0.027562654,-0.5703961,-0.49823135,-0.12552388,815.12823,816.7399,786.52014,794.17584,778.46155,-0.351318359375,3.0517578125E-4,0.94085693359375,6.691741943359375,-9.151611328125,0.844879150390625,1,1.0,1.0,1.0,1.0,90.00
2021-04-12 09:11:28.012,1.1802016499999,0.81995447,0.4285406349999,1.1128999,0.791007275,0.40511004,0.365325715,0.6300785,0.827339465,0.47326686,0.55348775,0.94437722,0.27381821,-0.157684845000,-0.120891864999,0.321411105,-0.0253498845,-0.447102715,-0.409312625,0.0694472400000,810.29306500000,817.74725,781.28204499999,,,,,,,,,,,,,,,/muse/elements/jaw_clench
2021-04-12 09:11:28.058,1.1748444,0.8892211,0.5569025,1.1015385,0.795314,0.45222598,0.504392,0.6238782,0.8282656,0.48276022,0.5714989,0.954641,0.28310084,-0.12467144,-0.10523524,0.45310384,-0.023137115,-0.32380933,-0.3203939,0.26441836,805.4579,818.7546,776.04395,784.5055,824.7985,-0.32806396484375,0.00567626953125,0.95233154296875,4.074859619140625,-3.5888671875,-0.07476806640625,1,1.0,1.0,1.0,1.0,90.00
2021-04-12 09:11:28.579,1.3578625,0.969464,0.7286175,1.0977811,0.88349134,0.5123382,0.5946452,0.5462938,0.8238769,0.5094826,0.5714989,0.8669197,0.4176665,0.33940303,0.044514395,0.89930433,-0.09639575,0.39667326,0.15428357,1.0321633,791.3553,818.7546,784.90845,804.65204,719.2308,-0.33038330078125,-0.00115966796875,0.951416015625,5.001983642578125,-1.27105712890625,0.83740234375,1,1.0,1.0,1.0,1.0,90.00
2021-04-12 09:11:29.102,1.3142507,0.90890527,0.8255982,0.7000697,0.9467197,0.34280607,0.654851,0.55121285,0.6493821,0.54067606,0.59077734,0.71421766,0.47241566,0.37502855,0.12514403,1.0179805,-0.06850872,0.4379096,0.27789518,1.1531146,781.28204,782.8938,804.2491,799.81683,713.5897,-0.37493896484375,-0.0128173828125,0.93133544921875,4.912261962890625,-3.372039794921875,0.25421142578125,1,1.0,1.0,1.0,1.0,90.00
2021-04-12 09:11:29.621,1.0654697,0.92487586,0.7748382,0.8238984,0.49127257,0.49503,0.38703153,0.5860727,0.87734795,0.5512178,0.33272478,0.7394341,0.5981805,0.29054174,0.07742445,0.89596134,0.35226253,0.27207786,0.17531145,1.0817152,811.50183,799.41394,789.7436,796.1905,794.57874,-0.3636474609375,-0.00543212890625,0.9349365234375,3.955230712890625,-3.39447021484375,1.502838134765625,1,1.0,1.0,1.0,1.0,90.00
2021-04-12 09:11:30.141,1.1268001,0.9560887,0.60823643,1.2220637,0.38042578,0.5441364,0.28501192,0.53691494,0.8819915,0.54091084,0.33272478,0.7601896,0.49811333,-0.019314723,-0.017359568,0.44846892,0.17035186,-0.3378013,-0.30896068,0.0922775,815.5311,803.0403,799.41394,817.5458,694.65204,-0.366943359375,-0.015380859375,0.93310546875,4.164581298828125,-5.5029296875,1.114044189453125,1,1.0,1.0,1.0,1.0,90.00
2021-04-12 09:11:30.651,1.0236592,0.82276136,0.39214873,1.2466441,0.31280375,0.44783098,0.117976986,0.46097755,0.9490375,0.49526346,0.2553674,0.76037097,0.49167743,-0.11174861,0.0032632505,0.3810387,0.12088808,-0.59817326,-0.34006035,-0.32133707,804.2491,799.011,794.57874,793.36993,730.5128,-0.35980224609375,-0.0142822265625,0.93316650390625,4.6356201171875,-5.839385986328125,1.786956787109375,1,1.0,1.0,1.0,1.0,90.00
2021-04-12 09:11:31.158,0.8569853,0.4960004,0.10152352,1.0564309,0.22985342,0.13769922,-0.14743854,0.4241165,0.73383546,0.3476861,0.04223402,0.82954913,0.35485598,-0.090974525,0.005383544,0.3379669,-0.099927604,-0.51042324,-0.37217495,-0.37006897,810.696,803.44324,797.8022,804.65204,664.43225,-0.34075927734375,-0.01171875,0.9383544921875,4.78515625,-5.21881103515625,1.637420654296875,1,1.0,1.0,1.0,1.0,90.00
2021-04-12 09:11:31.660,0.46917835,-0.119826525,-0.10603935,0.5618275,0.4449604,-0.06540004,-0.24500147,0.4487549,0.85679954,0.36707184,0.15191011,0.66043407,0.35978407,-0.12887935,-0.10955421,0.35047793,-0.04160647,-0.5347987,-0.38570803,-0.40807882,809.0842,799.41394,802.23444,815.5311,746.2271,-0.34930419921875,-0.00823974609375,0.93939208984375,4.5159912109375,-4.62066650390625,0.725250244140625,1,1.0,1.0,1.0,1.0,90.00
2021-04-12 09:11:32.179,0.45495442,-0.17543443,-0.07032523,0.42567515,0.5850443,0.16855258,-0.13964432,0.4975139,0.8762675,0.37710023,0.1696506,0.6626534,0.3628751,-0.08350757,-0.21457052,0.34277382,-0.101890594,-0.5488075,-0.400222,-0.31221262,749.0476,802.23444,799.011,740.989,754.2857,-0.35394287109375,-0.01171875,0.94464111328125,4.209442138671875,-6.826324462890625,0.291595458984375,1,1.0,1.0,1.0,1.0,90.00
2021-04-12 09:11:32.696,0.545432,0.33099693,0.3722975,0.45553935,0.6772163,0.24496476,-0.11104981,0.56631494,0.86776924,0.3680397,0.16772814,0.5182351,0.43687057,-0.10193169,-0.12330092,0.36830652,-0.07014636,-0.68968916,-0.38056576,-0.2712352,809.4872,815.9341,782.8938,798.60803,677.326,-0.334716796875,-0.009521484375,0.9417724609375,4.747772216796875,-4.59075927734375,0.777587890625,1,1.0,1.0,1.0,1.0,90.00
2021-04-12 09:11:33.208,0.5846176,0.41648427,0.49469078,0.41328737,0.67127293,0.1559407,0.028226143,0.5753352,0.8543927,0.20712039,0.11245742,0.4507696,0.51205045,-0.107791714,-0.0558742,0.3508868,-0.07834676,-0.6328019,-0.3546574,-0.118396476,819.15753,805.8608,797.8022,816.7399,805.8608,-0.34197998046875,-0.01104736328125,0.94482421875,4.47113037109375,-4.20196533203125,1.039276123046875,1,1.0,1.0,1.0,1.0,90.00
2021-04-12 09:11:33.726,0.59455425,0.7286589,0.6452703,0.41328737,0.6852469,0.11862037,0.08610792,0.5753352,0.8246539,0.1153068,0.025862997,0.4507696,0.50703734,-0.15101674,-0.0842968,0.3508868,-0.12506135,-0.59715146,-0.36518422,-0.118396476,810.696,802.6374,793.7729,812.3077,771.6117,-0.34710693359375,-0.0091552734375,0.9451904296875,4.725341796875,-4.044952392578125,0.61309814453125,1,1.0,1.0,1.0,1.0,90.00
2021-04-12 09:11:34.242,0.59455425,1.1194584,0.60255325,1.4040014,0.6852469,0.24057496,0.24717407,0.04610569,0.8246539,0.26937371,-0.17180859,0.4283959,0.50703734,0.028801916,-0.2708935,0.14748865,-0.12506135,-0.545935,-0.3962261,-0.2994927,830.4396,804.2491,794.17584,814.7253,789.34064,-0.351318359375,-0.00885009765625,0.9371337890625,4.605712890625,-4.97955322265625,1.31591796875,1,1.0,1.0,1.0,1.0,90.00
2021-04-12 09:11:34.757,0.59455425,1.2025704,0.8525044,1.2892854,0.6852469,0.4693496,0.567636,0.14824356,0.8246539,0.43222353,0.6687053,0.61779356,0.50703734,0.06733541,-0.11063657,0.2997764,-0.12506135,-0.52742475,-0.48317695,-0.19268084,819.5604,809.89014,801.8315,805.8608,703.1135,-0.35028076171875,-0.00384521484375,0.9388427734375,4.5458984375,-4.972076416015625,1.742095947265625,1,1.0,1.0,1.0,1.0,90.00
2021-04-12 09:11:35.264,0.67432934,1.1450393,0.7310978,1.1702477,-0.17748459,0.40880123,0.5229571,0.21498336,0.6351795,0.39982545,0.6687053,0.63762856,0.34446457,0.06787652,-0.07731741,0.34156916,0.014181377,-0.5046953,-0.4751267,-0.21841323,818.7546,807.8755,791.75824,791.3553,724.4689,-0.35418701171875,-0.01080322265625,0.937255859375,4.90478515625,-4.3963623046875,0.785064697265625,1,1.0,1.0,1.0,1.0,90.00
2021-04-12 09:11:35.775,0.49431366,0.64574534,0.53621525,0.5536267,-0.10977576,0.28633955,0.3541111,0.19033751,0.64500386,0.3821355,0.6687053,0.5876302,0.24084714,-0.09969505,-0.087237194,0.30567044,0.09879173,-0.50929654,-0.46020412,-0.24001096,794.9817,803.8461,794.57874,802.6374,699.89014,-0.34967041015625,-0.01898193359375,0.937744140625,4.80010986328125,-4.66552734375,1.128997802734375,1,1.0,1.0,1.0,1.0,90.00
2021-04-12 09:11:36.284,0.40787545,0.2713251,0.17349729,0.49827158,0.004398144,0.020537665,0.008667322,0.24665953,0.6589766,0.1983604,0.5347828,0.6332592,0.29720363,-0.13851872,-0.07655115,0.3581605,0.13566557,-0.6383165,-0.47376665,-0.2719918,799.011,800.6227,811.50183,787.72894,877.5824,-0.3519287109375,-0.01019287109375,0.936279296875,5.084228515625,-5.03936767578125,0.67291259765625,1,1.0,1.0,1.0,1.0,90.00
2021-04-12 09:11:36.794,0.88033366,-0.45202583,-0.058006085,0.84781545,0.3198094,-0.12499646,-0.16626975,0.25572464,0.5433948,-0.0276875,-0.0011631814,0.5830591,0.35545087,-0.09164779,0.008032603,0.32166597,0.112206824,-0.62194276,-0.4638593,-0.22115977,821.1722,803.0403,784.5055,814.3223,728.0952,-0.35760498046875,-0.01507568359375,0.9359130859375,4.725341796875,-4.007568359375,0.34393310546875,1,1.0,1.0,1.0,1.0,90.00
2021-04-12 09:11:37.304,1.0545266,-0.0687041,0.3603308,1.0667341,0.4600656,-0.23244752,-0.1379005,0.34876788,0.5080873,0.018467518,0.28865778,0.537327,0.46911725,-0.017721403,0.014716905,0.47915336,0.09136449,-0.48665977,-0.45668414,-0.10472282,830.84247,799.81683,794.17584,816.337,757.1062,-0.3599853515625,-0.0101318359375,0.93389892578125,4.53094482421875,-4.23187255859375,0.949554443359375,1,1.0,1.0,1.0,1.0,90.00
2021-04-12 09:11:37.826,1.0996163,0.38887805,0.6466911,1.1412113,0.4945669,-0.12564382,0.06964888,0.7729431,0.94567674,0.2933654,0.4311727,1.1295551,0.4598779,-0.07382933,-3.913107E-4,0.35485348,0.033746883,-0.46857622,-0.43368626,-0.043883543,817.1429,809.0842,795.78754,799.011,776.8498,-0.3575439453125,-0.01397705078125,0.938720703125,4.605712890625,-4.91973876953125,0.61309814453125,1,1.0,1.0,1.0,1.0,90.00
2021-04-12 09:11:38.337,0.6940081,0.4359625,0.62024313,0.87192833,0.28260303,-0.11538538,0.17549817,0.80713236,0.9510241,0.28327483,0.48695502,1.1508129,0.38168943,-0.1357363,0.020088268,0.4053157,-0.017521195,-0.53915364,-0.39112207,-0.0798851,799.81683,811.0989,786.1172,788.1319,732.1245,-0.3448486328125,-0.0115966796875,0.938232421875,4.299163818359375,-4.732818603515625,0.500946044921875,1,1.0,1.0,1.0,1.0,90.00
2021-04-12 09:11:38.855,0.64056283,0.46888202,0.61794466,0.84606194,0.32430318,0.097531885,0.2116551,0.73114765,1.2002721,0.32468843,0.488314,1.1508129,0.3340803,-0.21148469,0.064396724,0.44360816,-0.06980898,-0.65306944,-0.4267623,-0.079986736,813.1135,799.41394,795.38464,801.8315,796.1905,-0.3499755859375,-0.01593017578125,0.9400634765625,4.568328857421875,-6.018829345703125,-0.201873779296875,1,1.0,1.0,1.0,1.0,90.00
2021-04-12 09:11:39.361,0.5508692,0.31725255,0.5431325,0.6368863,0.35190332,0.20702228,0.1560169,0.50644493,1.2741787,0.3160815,0.37442854,0.93414795,0.34992698,-0.18365164,0.007440636,0.42892566,0.029985568,-0.6323404,-0.4833333,-0.119838946,807.47253,806.26373,790.54944,801.8315,840.10986,-0.346435546875,-0.02081298828125,0.93731689453125,4.777679443359375,-4.007568359375,0.61309814453125,1,1.0,1.0,1.0,1.0,90.00
2021-04-12 09:11:39.865,0.5778754,0.49708498,0.78160644,0.61667305,0.4125697,0.4419641,0.24283479,0.29360327,1.2741787,0.3748824,0.29577285,0.8463212,0.3133211,-0.14294873,0.013130262,0.33869168,0.06633198,-0.5940373,-0.53723145,-0.14497909,810.293,804.2491,804.65204,817.5458,707.9487,-0.34033203125,-0.023193359375,0.94036865234375,5.076751708984375,-5.36834716796875,1.21124267578125,1,1.0,1.0,1.0,1.0,90.00
2021-04-12 09:11:40.390,0.6165749,0.44354042,0.68166876,0.42305753,0.42202842,0.36020315,0.2158665,0.2646668,1.0374439,0.36699992,0.28696108,0.8734883,0.34647015,-0.04430803,-0.056377724,0.21763937,0.069579065,-0.56931716,-0.5202569,-0.17489302,798.60803,817.1429,787.326,799.011,813.1135,-0.34637451171875,-0.0135498046875,0.9422607421875,4.927215576171875,-4.71038818359375,0.710296630859375,1,1.0,1.0,1.0,1.0,90.00
2021-04-12 09:11:40.896,0.83335286,0.62673825,0.67303675,0.4266845,0.5460242,0.4382086,0.334659,0.4027915,0.9166327,0.4274717,0.34163132,0.69515306,0.28250632,-0.047745854,-0.060600154,0.16913445,0.034304854,-0.56407624,-0.5086267,-0.12300938,815.9341,804.2491,790.9524,803.0403,750.65936,-0.34051513671875,-0.01708984375,0.93780517578125,4.5458984375,-3.828125,1.547698974609375,1,1.0,1.0,1.0,1.0,90.00
2021-04-12 09:11:41.400,0.81428206,0.599828,0.34796074,0.2867221,0.6046011,0.28030333,0.1987211,0.4441933,0.9166327,0.41320115,0.31900096,0.7475009,0.24176545,-0.055471413,-0.09046861,0.1673755,0.03208322,-0.51838285,-0.4643646,-0.03968489,801.4286,821.5751,786.1172,783.69965,705.5311,-0.34307861328125,-0.01702880859375,0.93792724609375,4.62066650390625,-4.71038818359375,0.964508056640625,1,1.0,1.0,1.0,1.0,90.00
2021-04-12 09:11:41.915,0.7617117,0.77934504,0.447831,0.36343962,0.56234205,0.43425316,0.2413037,0.40625528,0.85469866,0.42617303,0.277281,0.80594605,0.14072789,-0.032659583,-0.05630625,0.093896486,0.008460557,-0.5570067,-0.39166415,-0.01853433,824.7985,806.26373,796.5934,807.0696,768.3883,-0.3477783203125,-0.0087890625,0.93896484375,4.68048095703125,-5.09918212890625,1.5252685546875,1,1.0,1.0,1.0,1.0,90.00
2021-04-12 09:11:42.444,0.5942405,0.6198999,0.3530532,0.49485743,0.38713956,0.3449591,0.117653675,0.3596656,0.7307635,0.34497443,-0.01802244,0.7720181,0.15672836,-0.06126803,-0.010503399,0.03932297,-0.055046678,-0.6033417,-0.40638152,-0.030325724,793.7729,797.3993,809.4872,792.5641,702.71063,-0.34991455078125,-0.0130615234375,0.9366455078125,5.18890380859375,-4.26177978515625,1.996307373046875,1,1.0,1.0,1.0,1.0,90.00
2021-04-12 09:11:42.961,0.7185253,0.5543097,0.39831045,0.66189986,0.22975485,0.3105056,0.101785816,0.29252762,0.6269934,0.29978955,-0.032057893,0.75228894,0.19971892,-0.06652865,0.019650724,0.1269524,-0.13726786,-0.6546031,-0.4321185,-0.18103273,819.9634,805.8608,799.011,810.293,620.5128,-0.3544921875,-0.014404296875,0.93328857421875,4.089813232421875,-3.33465576171875,0.471038818359375,1,1.0,1.0,1.0,1.0,90.00
2021-04-12 09:11:43.474,0.8493663,0.36749077,0.34842637,0.69164836,0.4389234,0.079531685,0.060052995,0.39264905,0.5852272,0.0767673,0.058272954,0.60999125,0.25824898,-0.12479403,-0.036884274,0.27736607,-0.05507057,-0.62952304,-0.49921742,-0.24238326,803.0403,810.293,791.3553,790.9524,678.5348,-0.3525390625,-0.02301025390625,0.93798828125,4.463653564453125,-4.822540283203125,0.500946044921875,1,1.0,1.0,1.0,1.0,90.00
2021-04-12 09:11:43.990,0.9889171,0.4550844,0.42286742,0.7665101,0.47041693,0.13979368,0.08582537,0.40251148,0.5806831,0.23587963,0.17503794,0.611467,0.23423916,-0.11545155,-0.060312852,0.26619336,0.057899594,-0.6127792,-0.5266766,-0.27426663,803.8461,810.293,792.96704,793.36993,655.56775,-0.35479736328125,-0.0166015625,0.93646240234375,4.20196533203125,-4.508514404296875,0.964508056640625,1,1.0,1.0,1.0,1.0,90.00
2021-04-12 09:11:44.494,0.93076813,0.39120615,0.36212227,0.79806054,0.45147565,0.10801241,0.04350431,0.44209912,0.703298,0.23475395,0.17503794,0.590458,0.24179813,-0.12178899,-0.14571287,0.18999715,0.045069836,-0.628312,-0.54733026,-0.30324727,810.293,804.2491,792.96704,805.05493,734.1392,-0.3531494140625,-0.0262451171875,0.931640625,4.41131591796875,-4.725341796875,1.158905029296875,1,1.0,1.0,1.0,1.0,90.00
2021-04-12 09:11:45.009,0.82680786,0.09265961,0.24591666,0.7247753,0.3406792,-0.0077055274,-0.009812559,0.3962251,0.6360439,0.23415881,0.19695652,0.47643128,0.24358292,-0.11927906,-0.04609362,0.06333551,-0.04243484,-0.6262033,-0.58773136,-0.34020597,808.2784,809.89014,788.1319,802.23444,741.39197,-0.3521728515625,-0.0147705078125,0.935546875,4.852447509765625,-4.882354736328125,0.19439697265625,1,1.0,1.0,1.0,1.0,90.00
2021-04-12 09:11:45.512,0.47643018,-0.14579616,-0.122605294,0.42242223,0.32812902,-0.42969525,-0.19503829,0.33945063,0.7527073,-0.06052726,0.13247447,0.3979089,0.41377392,-0.09112504,0.0085398285,0.21183355,-0.20188019,-0.6073487,-0.5478365,-0.30665204,802.23444,825.2015,801.02563,796.99634,707.1429,-0.3475341796875,-0.01336669921875,0.940185546875,5.091705322265625,-5.0543212890625,1.854248046875,1,1.0,1.0,1.0,1.0,90.00
2021-04-12 09:11:46.022,0.39095235,-0.02866803,-0.18556908,0.07132518,0.3549625,-0.3326951,-0.26491567,0.19299288,0.75512016,0.05258777,0.1675631,0.48637983,0.454371,-0.1102623,8.1290415E-4,0.28644297,-0.22953752,-0.59308535,-0.5629104,-0.33088496,817.9487,821.5751,802.23444,803.8461,880.0,-0.34027099609375,-0.01483154296875,0.94189453125,4.66552734375,-4.3963623046875,1.398162841796875,1,1.0,1.0,1.0,1.0,90.00
2021-04-12 09:11:46.558,0.36626467,0.3254509,0.031943064,0.1457117,0.33516085,0.00991445,-0.21313918,0.17925388,0.7364085,0.03585298,0.17509608,0.50629455,0.43648794,-0.13231009,-0.06808093,0.3114863,-0.2608952,-0.6035028,-0.55864507,-0.3576412,764.35895,800.2198,807.0696,753.8828,761.53845,-0.35211181640625,-0.01348876953125,0.93768310546875,4.26177978515625,-3.7384033203125,1.143951416015625,1,1.0,1.0,1.0,1.0,90.00
2021-04-12 09:11:47.080,0.49333543,0.6052119,0.2927829,0.60143894,0.41489652,0.1992939,-0.097373985,0.24975713,0.7007952,0.27735198,0.20950215,0.73972183,0.271626,-0.059033997,-0.17333475,0.26050544,-0.2933865,-0.4898138,-0.4551659,-0.42689338,797.3993,805.4579,805.8608,792.5641,822.381,-0.36328125,-0.0206298828125,0.93408203125,4.403839111328125,-3.970184326171875,1.577606201171875,1,1.0,1.0,1.0,1.0,90.00
2021-04-12 09:11:47.607,0.79795516,0.8091398,0.29029787,0.99293065,0.4563395,0.2650725,-0.05158745,0.35497057,0.7850689,0.28750804,0.20950215,0.8665069,0.2914004,-0.0055787745,-0.19300547,0.35300353,-0.22526123,-0.34236866,-0.45438504,-0.35748285,818.3516,801.8315,805.05493,813.5165,791.75824,-0.3590087890625,-0.01995849609375,0.935546875,4.553375244140625,-4.3963623046875,0.79254150390625,1,1.0,1.0,1.0,1.0,90.00
2021-04-12 09:11:48.136,0.9635347,0.8154928,0.30407786,1.1160694,0.55855775,0.124568254,-0.09194328,0.29849502,0.7543971,0.2849235,0.2060741,0.8665069,0.34721768,-0.03309144,-0.26353362,0.3807784,-0.11544335,-0.3315657,-0.49343896,-0.31372005,830.0366,811.9048,804.2491,821.1722,679.7436,-0.361083984375,-0.02362060546875,0.93304443359375,5.001983642578125,-4.8748779296875,1.60003662109375,1,1.0,1.0,1.0,1.0,90.00
2021-04-12 09:11:48.663,0.7758076,0.679287,0.18153542,0.8684602,0.018460182,-0.11206558,-0.2067869,0.1004784,0.7414544,0.26968208,0.023783235,0.8074968,0.1835275,-0.15930602,-0.24311577,0.31115142,-0.16375208,-0.4001394,-0.5128256,-0.30793348,819.9634,796.1905,796.99634,813.1135,873.95605,-0.3629150390625,-0.01617431640625,0.930419921875,4.47113037109375,-4.366455078125,1.27105712890625,1,1.0,1.0,1.0,1.0,90.00
2021-04-12 09:11:49.181,0.40115878,0.25502327,0.30034217,0.43571654,-0.11594213,-0.4864995,-0.30073768,-0.19944449,0.4691474,-0.10184126,-0.033153117,0.49266553,0.18098457,-0.2258583,-0.10248226,0.21066546,-0.23550126,-0.5179018,-0.47149003,-0.16386554,813.5165,803.0403,788.5348,805.4579,738.5714,-0.36627197265625,-0.01934814453125,0.93597412109375,4.9945068359375,-5.24871826171875,1.39068603515625,1,1.0,1.0,1.0,1.0,90.00
2021-04-12 09:11:49.683,0.571896,-0.17035063,0.20037404,0.5243142,0.14489509,-0.36939988,-0.34206682,-0.0067478763,0.48355517,-0.0057277493,0.061507426,0.23037569,0.26302144,-0.26297727,-0.03128474,0.25196815,-0.14427027,-0.45472568,-0.45211634,-0.17332458,830.4396,798.60803,795.38464,803.0403,751.8681,-0.3687744140625,-0.017822265625,0.92572021484375,4.658050537109375,-4.523468017578125,0.538330078125,1,1.0,1.0,1.0,1.0,90.00
2021-04-12 09:11:50.193,0.60267645,-0.4516267,0.28354323,0.5883741,0.32777107,-0.18147787,-0.2807242,0.16617458,0.5095613,0.009463598,0.092745684,0.31558496,0.35738623,-0.2977296,0.015462051,0.21565129,-0.11016333,-0.40758315,-0.50008404,-0.07213717,815.12823,802.23444,788.5348,795.78754,804.2491,-0.3631591796875,-0.0106201171875,0.932861328125,4.71038818359375,-4.486083984375,1.2860107421875,1,1.0,1.0,1.0,1.0,90.00
2021-04-12 09:11:50.694,0.6812701,-0.4193527,0.47389477,0.6387433,0.40392134,-0.14932987,-0.01416076,0.25920472,0.42839998,0.047670674,0.17758477,0.29562545,0.348066,-0.35839072,-0.00829175,0.24749093,-0.02849106,-0.42371592,-0.43764707,-0.105311446,794.57874,797.8022,789.34064,790.9524,732.52747,-0.36773681640625,-0.02032470703125,0.92889404296875,4.50103759765625,-4.583282470703125,0.829925537109375,1,1.0,1.0,1.0,1.0,90.00
2021-04-12 09:11:51.205,0.61750346,0.3967044,0.62960625,0.65987945,0.33866262,0.14018579,0.035816826,0.28789324,0.24978171,0.26879892,0.17641652,0.46217987,0.3062642,-0.3413577,-0.018986184,0.23503822,-0.035596356,-0.45153415,-0.37947428,-0.07998201,802.23444,797.3993,793.36993,795.38464,726.4835,-0.36163330078125,-0.0303955078125,0.925048828125,5.4730224609375,-3.985137939453125,-1.33087158203125,1,1.0,1.0,1.0,1.0,90.00
2021-04-12 09:11:51.713,0.86474544,0.6506778,0.69955665,0.7814183,0.27718252,0.11436554,0.100152396,0.43378955,0.65536183,0.23335993,0.15504777,0.6971409,0.3139601,-0.32068047,-0.03862999,0.38513958,0.03390119,-0.42428777,-0.34189075,-0.20609452,794.9817,794.57874,799.81683,790.54944,739.7802,-0.40484619140625,0.00994873046875,0.91339111328125,4.97955322265625,-3.03558349609375,1.00189208984375,1,1.0,1.0,1.0,1.0,90.00
2021-04-12 09:11:52.235,1.0651548,0.81578714,0.69573164,0.9127341,0.5618802,0.32047063,0.055402517,0.5989462,0.7524598,0.48524374,0.23369165,0.7378957,0.46590477,-0.22152127,-0.021935022,0.398208,0.16551621,-0.43144327,-0.35935763,-0.16787115,805.05493,802.6374,790.9524,799.41394,677.72894,-0.4095458984375,0.008056640625,0.9149169921875,3.2598876953125,-2.773895263671875,4.000091552734375,1,1.0,1.0,1.0,1.0,90.00
2021-04-12 09:11:52.742,0.99033976,0.85877854,0.8088346,0.8214312,0.51373726,0.34501255,0.22044833,0.5554456,0.8068098,0.5757385,0.15643266,0.79377776,0.40427053,-0.16556181,-0.02161515,0.37072307,0.12489865,-0.45305428,-0.36828926,-0.23279095,816.7399,803.0403,791.75824,805.4579,793.7729,-0.416259765625,-0.00665283203125,0.908203125,2.549591064453125,-5.2935791015625,-1.3458251953125,1,1.0,1.0,1.0,1.0,90.00
2021-04-12 09:11:53.244,1.0036035,0.8007009,0.84193724,0.7579008,0.5717682,0.46518958,0.29207078,0.49414316,0.8135612,0.5903157,0.23943236,0.8006238,0.38475823,-0.11225328,0.008869932,0.3062888,0.16144852,-0.47608843,-0.46432456,-0.22803673,821.5751,801.8315,786.1172,816.337,788.1319,-0.40771484375,-0.0164794921875,0.911865234375,4.9346923828125,-5.839385986328125,0.904693603515625,1,1.0,1.0,1.0,1.0,90.00
2021-04-12 09:11:53.762,0.79657245,0.8189758,0.9402549,0.5690884,0.3948012,0.5239749,0.39068425,0.29065233,0.7439191,0.52390134,0.41458014,0.7386102,0.30669272,-0.0866517,0.09582529,0.32058755,-0.012581949,-0.4310778,-0.5463458,-0.24921998,821.5751,808.2784,791.3553,813.91943,654.35895,-0.401611328125,-0.01837158203125,0.91619873046875,4.598236083984375,-3.57391357421875,0.994415283203125,1,1.0,1.0,1.0,1.0,90.00
2021-04-12 09:11:54.276,0.5514623,0.6350766,0.75369716,0.32605475,0.15792912,0.36513665,0.23624597,0.24051352,0.620855,0.41036385,0.39462984,0.58979595,0.33945104,-0.13638273,0.07950994,0.39373824,-0.15413557,-0.4569671,-0.45951056,-0.0426297,811.9048,811.0989,794.9817,807.8755,829.2308,-0.39825439453125,-0.01641845703125,0.91693115234375,5.14404296875,-5.061798095703125,1.734619140625,1,1.0,1.0,1.0,1.0,90.00
2021-04-12 09:11:54.781,0.46588314,0.48629484,0.59149224,0.24491693,0.16778748,0.19768932,0.09810238,0.24656977,0.66447616,0.32412905,0.39462984,0.56587833,0.35272777,-0.19138035,0.0657214,0.40566823,-0.11291364,-0.5460666,-0.39429802,0.04556512,798.60803,792.5641,796.1905,786.52014,761.13556,-0.40203857421875,-0.015625,0.9169921875,4.687957763671875,-4.687957763671875,1.128997802734375,1,1.0,1.0,1.0,1.0,90.00
2021-04-12 09:11:55.283,0.4564557,0.11083873,0.012431399,0.35823032,0.29108882,-0.3287627,-0.159451,0.31344816,0.7473517,0.26242775,-0.106904596,0.6145282,0.3298243,-0.25220266,-0.04182121,0.3767973,-0.13674016,-0.6508015,-0.37304866,0.009873588,802.23444,806.26373,793.36993,796.5934,715.6044,-0.39581298828125,-0.0147705078125,0.915771484375,4.6356201171875,-3.9178466796875,1.03179931640625,1,1.0,1.0,1.0,1.0,90.00
2021-04-12 09:11:55.792,0.554423,0.1393291,0.023113789,0.4717967,0.4600332,-0.33120194,-0.10411722,0.17090936,0.8635235,0.2712347,-0.09567936,0.70320785,0.26877567,-0.17222892,-0.043041397,0.32523245,-0.119828194,-0.59852314,-0.37700883,-0.06453231,826.4103,805.4579,799.41394,805.05493,787.326,-0.386962890625,-0.01263427734375,0.9154052734375,4.0972900390625,-5.54779052734375,1.218719482421875,1,1.0,1.0,1.0,1.0,90.00
2021-04-12 09:11:56.298,0.5462155,0.13653536,0.10718566,0.4521769,0.5051137,-0.21890447,-0.118389264,0.2573802,0.887067,0.28742966,-0.008276466,0.8026728,0.22456367,-0.15933736,-0.055874538,0.35703287,-0.1258046,-0.6119173,-0.391961,-0.13419951,816.7399,806.26373,798.20514,796.99634,649.5238,-0.38946533203125,-0.0194091796875,0.92181396484375,4.448699951171875,-6.661834716796875,0.770111083984375,1,1.0,1.0,1.0,1.0,90.00
2021-04-12 09:11:56.801,0.5646742,0.47546962,0.5569724,0.4334826,0.4514185,0.1818621,0.18061326,0.31281313,0.8829693,0.5606493,0.39259076,0.807653,0.20586845,-0.1487936,0.016347764,0.3385329,-0.04356198,-0.5856558,-0.4264257,-0.05363088,812.3077,804.2491,793.36993,811.50183,699.89014,-0.3720703125,-0.01806640625,0.93316650390625,4.403839111328125,-5.4730224609375,1.86920166015625,1,1.0,1.0,1.0,1.0,90.00
2021-04-12 09:11:57.327,0.80496323,0.73623246,0.835667,0.5867072,0.43362874,0.4659652,0.38763058,0.3763246,0.80904454,0.67237437,0.42629042,0.79244566,0.19899066,-0.23983042,0.021903893,0.3810852,0.046208803,-0.62122226,-0.4077962,-0.03961388,811.0989,796.5934,796.99634,815.12823,675.7143,-0.3739013671875,-0.0167236328125,0.93017578125,4.50103759765625,-4.717864990234375,1.921539306640625,1,1.0,1.0,1.0,1.0,90.00
2021-04-12 09:11:57.831,0.84487003,0.7192575,0.792966,0.5795317,0.3897641,0.43504333,0.3512783,0.24710889,0.68476826,0.6630571,0.41805178,0.56636626,0.215345,-0.14695524,-0.047431786,0.33855057,0.049991027,-0.55761147,-0.3730122,-0.0905552,806.6667,799.41394,782.8938,803.0403,661.6117,-0.37542724609375,-0.02288818359375,0.9298095703125,4.762725830078125,-4.3963623046875,2.130889892578125,1,1.0,1.0,1.0,1.0,90.00
2021-04-12 09:11:58.339,0.5926497,0.40003467,0.4857889,0.44846198,0.1370372,0.14057039,0.012959943,0.091185324,0.5725372,0.61992645,0.3705916,0.5226723,0.42706236,-0.12085476,-0.16310446,0.3630496,0.065991096,-0.5892277,-0.36703444,-0.1618339,820.7692,805.4579,794.9817,815.12823,816.337,-0.36102294921875,-0.01556396484375,0.9259033203125,5.12908935546875,-5.4730224609375,2.086029052734375,1,1.0,1.0,1.0,1.0,90.00
2021-04-12 09:11:58.860,-0.11381751,-0.32774395,-0.106981516,0.15636471,-0.017729558,-0.43672034,-0.60411274,0.03849022,0.6675574,-0.02081375,0.052379087,0.5768419,0.4134753,-0.087171026,-0.20808281,0.31532624,0.006190804,-0.5809847,-0.39892432,-0.2151107,796.99634,814.3223,796.1905,794.9817,817.5458,-0.3751220703125,-7.32421875E-4,0.92791748046875,5.4132080078125,-5.5029296875,2.071075439453125,1,1.0,1.0,1.0,1.0,90.00
2021-04-12 09:11:59.385,0.56787264,-0.16733596,-0.03783918,0.0661527,0.17601818,-0.32841104,-0.3709012,0.0111870095,0.736951,0.019071989,0.17250803,0.6198506,0.38941604,-0.08724376,-0.17854686,0.3397222,-0.032665115,-0.60635585,-0.43562466,-0.25457045,796.5934,801.4286,798.60803,799.81683,697.8755,-0.36688232421875,-0.006591796875,0.939208984375,4.02252197265625,-4.209442138671875,0.261688232421875,1,1.0,1.0,1.0,1.0,90.00
2021-04-12 09:11:59.889,0.96074444,0.25914752,0.40075245,-0.023363322,0.37732533,-0.14047056,0.10806538,-0.036665674,0.79100776,0.036313742,0.22372985,0.536607,0.2447658,-0.056499336,-0.19184367,0.2767036,-0.099902324,-0.56403315,-0.41277438,-0.2946548,805.4579,805.8608,805.05493,804.65204,687.8022,-0.36810302734375,-0.01837158203125,0.9315185546875,4.418792724609375,-3.70849609375,0.61309814453125,1,1.0,1.0,1.0,1.0,90.00
2021-04-12 09:12:00.406,1.0705243,0.5301577,0.5991429,-0.038134467,0.45034632,0.27201572,0.25457364,0.20234856,0.7990055,0.5340724,0.1265475,0.6483126,0.22620216,-0.11492853,-0.08910986,0.41807994,-0.008919981,-0.58381975,-0.3742391,-0.21854892,823.5897,818.3516,786.1172,794.57874,759.5238,-0.365966796875,-0.0089111328125,0.93585205078125,4.882354736328125,-4.29168701171875,0.904693603515625,1,1.0,1.0,1.0,1.0,90.00
2021-04-12 09:12:00.921,0.2543802,0.59629714,0.6891372,0.20081204,0.15464269,0.38978225,0.29941896,0.2741704,0.80276775,0.5340724,0.15894932,0.91712224,0.20125861,-0.18438001,-0.015722167,0.42745468,0.0920295,-0.5484828,-0.33384886,-0.21014652,817.9487,809.0842,800.2198,812.71063,754.2857,-0.375732421875,-0.0150146484375,0.9259033203125,4.77020263671875,-4.0673828125,0.897216796875,1,1.0,1.0,1.0,1.0,90.00
2021-04-12 09:12:01.440,0.4117552,0.52610797,0.62925667,0.32276753,0.054400533,0.42159373,0.21470484,0.29927653,0.8083004,0.52314055,0.16673367,0.92050445,0.30681255,-0.19767939,-0.002389151,0.37407342,0.025270063,-0.6152133,-0.33170563,-0.20672381,811.50183,805.05493,806.6667,818.3516,760.32965,-0.373291015625,-0.016357421875,0.922607421875,4.598236083984375,-4.88983154296875,0.620574951171875,1,1.0,1.0,1.0,1.0,90.00
2021-04-12 09:12:01.970,0.54721063,0.27388427,0.41560167,0.5052867,-0.03060899,0.17798537,0.11875703,0.26650387,0.80709016,0.32242835,0.24533503,0.9192373,0.389385,-0.15238136,-0.07362988,0.34628895,0.02641399,-0.61438155,-0.32935452,-0.16449,815.5311,808.2784,804.2491,818.3516,685.38464,-0.37750244140625,-0.01751708984375,0.92901611328125,4.62066650390625,-4.179534912109375,0.755157470703125,1,1.0,1.0,1.0,1.0,90.00
2021-04-12 09:12:02.477,0.6803604,0.15699008,0.10131135,0.6643766,-0.06941224,-0.12187564,-0.0032516965,0.2633202,0.6445247,0.13880493,0.24497823,0.8269411,0.38306454,-0.12724034,-0.10961241,0.30781728,0.07371017,-0.6068257,-0.3393894,-0.14460143,796.99634,796.99634,802.23444,795.38464,678.93774,-0.3804931640625,-0.0155029296875,0.9237060546875,4.463653564453125,-5.15899658203125,1.816864013671875,1,1.0,1.0,1.0,1.0,90.00
2021-04-12 09:12:02.988,0.71151036,0.19571927,-0.36779806,0.7730058,0.040639818,-0.34704208,-0.07631828,0.19513386,0.6536441,0.11372197,0.27682534,0.64103544,0.3357824,-0.064168796,-0.022413127,0.3216036,0.12947483,-0.581199,-0.32039243,-0.15729325,824.3956,801.4286,790.14655,803.0403,694.65204,-0.3822021484375,-0.012451171875,0.9278564453125,4.493560791015625,-4.239349365234375,1.457977294921875,1,1.0,1.0,1.0,1.0,90.00
2021-04-12 09:12:03.504,0.7265712,0.31555122,-0.19175468,0.8128138,0.12185843,-0.34794918,-0.08675878,0.1211087,0.6286469,0.024118679,0.2301903,0.53222746,0.17502655,-0.084743135,0.036626656,0.29769918,0.07268518,-0.5710112,-0.3043748,-0.19767536,797.8022,803.44324,791.75824,792.5641,673.69965,-0.3822021484375,-0.01922607421875,0.9259033203125,4.927215576171875,-4.897308349609375,1.024322509765625,1,1.0,1.0,1.0,1.0,90.00
2021-04-12 09:12:04.012,0.79622185,0.2659649,0.13431166,0.82324845,0.24106318,-0.21222085,-0.17614943,0.117002085,0.55965614,-0.013808901,0.20906746,0.41128528,0.19237499,-0.087675534,-0.02792859,0.33281234,0.015165917,-0.5872585,-0.2832075,-0.20497036,794.57874,795.38464,805.4579,800.2198,784.10254,-0.37591552734375,-0.0155029296875,0.93438720703125,4.486083984375,-3.9178466796875,0.478515625,1,1.0,1.0,1.0,1.0,90.00
2021-04-12 09:12:04.526,0.79373264,0.37866485,0.50760525,0.7927876,0.22130494,-0.092685744,-0.1093211,0.03989354,0.4148085,0.21812052,0.24319004,0.3738963,0.15397952,-0.15667053,-0.08743227,0.32495725,-2.694877E-4,-0.54895526,-0.33202243,-0.17197582,812.3077,802.6374,790.9524,795.38464,789.34064,-0.40155029296875,-0.02435302734375,0.9266357421875,3.327178955078125,-4.209442138671875,-1.36077880859375,1,1.0,1.0,1.0,1.0,90.00
2021-04-12 09:12:05.040,0.68206453,0.3709122,0.58968407,0.51703954,0.08136167,0.020672623,-0.107593335,-0.23006092,0.38994324,0.3584217,0.22500645,0.13897653,0.117416315,-0.13555303,-0.1020201,0.31041923,0.016986847,-0.53573436,-0.3854678,-0.089323364,817.9487,804.2491,797.8022,817.5458,764.35895,-0.41259765625,-0.01806640625,0.90716552734375,4.91973876953125,-2.82623291015625,3.60382080078125,1,1.0,1.0,1.0,1.0,90.00
2021-04-12 09:12:05.557,0.7990328,0.37028188,0.5839335,0.8902586,0.66238886,-0.025557378,-0.06179804,0.5857615,0.61879367,0.35574907,0.22500645,0.5706339,0.50105643,-0.17012502,-0.043161545,0.5211293,-0.034786396,-0.5310685,-0.3664668,-0.1412581,803.0403,790.54944,811.50183,802.23444,715.6044,-0.39239501953125,-0.0074462890625,0.92071533203125,1.375732421875,-3.24493408203125,0.418701171875,1,1.0,1.0,1.0,1.0,90.00
2021-04-12 09:12:06.067,0.90492517,0.43619475,0.63525987,0.9973564,0.6084241,0.26643774,0.081567906,0.58119345,0.82574284,0.4926909,0.4005437,0.71444976,0.45204663,-0.05264451,-0.017646957,0.46212807,0.018112209,-0.5528314,-0.31576043,-0.17058663,803.44324,810.696,793.36993,800.2198,763.1502,-0.3985595703125,-0.0235595703125,0.91650390625,4.029998779296875,-3.611297607421875,0.299072265625,1,1.0,1.0,1.0,1.0,90.00
2021-04-12 09:12:06.591,0.9378253,0.63327825,0.8380975,1.0142856,0.5472703,0.4746705,0.1780609,0.5949868,0.8073479,0.484892,0.41755277,0.7112015,0.38986745,-0.0062380643,0.0040642917,0.45085153,-0.015196799,-0.6234498,-0.2717355,-0.18135707,816.7399,797.8022,792.1612,805.8608,702.71063,-0.37835693359375,-0.0228271484375,0.9268798828125,3.96270751953125,-5.39825439453125,0.37384033203125,1,1.0,1.0,1.0,1.0,90.00
2021-04-12 09:12:07.093,0.9020095,0.95315796,0.97838914,1.0164077,0.4998616,0.62414074,0.2622489,0.48438922,0.7853584,0.43528494,0.41755277,0.7504269,0.29791045,0.035063256,0.010671979,0.3745512,-0.0048060366,-0.53346664,-0.24510002,-0.22096972,805.05493,800.2198,796.1905,799.41394,772.8205,-0.39874267578125,-0.024169921875,0.91864013671875,4.8150634765625,-4.837493896484375,0.58319091796875,1,1.0,1.0,1.0,1.0,90.00
2021-04-12 09:12:07.601,0.71448237,0.88635415,0.7695985,0.36622795,0.3416297,0.4711768,0.019622698,-0.11265729,0.5708764,0.39233997,0.2375006,0.37168467,0.18902282,-0.039187603,-0.057729397,0.43394202,-0.049228102,-0.5733674,-0.13566133,-0.3514136,818.7546,803.8461,796.1905,803.8461,755.09155,-0.39324951171875,-0.0169677734375,0.9176025390625,5.061798095703125,-4.179534912109375,1.48040771484375,1,1.0,1.0,1.0,1.0,90.00
2021-04-12 09:12:08.112,0.42902043,0.76262134,-0.26563692,0.17554183,0.30816036,0.214174,-0.34592634,0.12290938,0.6943073,0.22486202,-0.28525886,0.80555993,0.17223923,-0.069711186,-0.11603087,0.39149582,-0.077068515,-0.5863838,-0.2005686,-0.19112408,805.05493,803.44324,796.1905,804.65204,748.6447,-0.39434814453125,-0.01885986328125,0.92071533203125,4.59075927734375,-4.9346923828125,1.413116455078125,1,1.0,1.0,1.0,1.0,90.00
2021-04-12 09:12:08.621,0.255282,0.016046843,-0.30799344,-0.05395164,0.22790332,-0.39861718,-0.42360386,0.27192202,0.94728565,0.030583352,-0.19063394,0.9666395,0.18092734,-0.22612928,-0.08110832,0.33784112,-0.1575847,-0.6976013,-0.26529792,-0.15812883,800.2198,813.5165,794.9817,795.38464,609.2308,-0.39300537109375,-0.019775390625,0.91888427734375,4.32159423828125,-4.4561767578125,1.30096435546875,1,1.0,1.0,1.0,1.0,90.00
2021-04-12 09:12:09.128,0.2563008,-0.22293095,-0.27538824,0.12277411,0.3307628,-0.23537238,-0.27453473,0.34180975,0.9573633,0.20635125,-0.11172888,0.95747066,0.30482656,-0.2729921,-0.12210625,0.25399935,-0.13520126,-0.7553734,-0.3606594,-0.111842945,790.9524,800.6227,788.93774,791.3553,707.5458,-0.39654541015625,-0.01629638671875,0.92529296875,5.106658935546875,-4.403839111328125,1.069183349609375,1,1.0,1.0,1.0,1.0,90.00
2021-04-12 09:12:09.631,0.51121175,-0.21128793,0.09548884,0.3851028,0.4005555,-0.22214597,-0.228487,0.30108476,0.953594,0.23624727,-0.009997231,0.9405558,0.3663444,-0.22637387,-0.06477119,0.21401305,-0.087336056,-0.7580628,-0.27662978,-0.12837577,796.1905,801.8315,798.60803,801.4286,760.32965,-0.3848876953125,-0.0220947265625,0.92706298828125,4.366455078125,-6.3702392578125,1.21124267578125,1,1.0,1.0,1.0,1.0,90.00
2021-04-12 09:12:10.159,0.9655613,-0.017190674,0.1402538,0.6706489,0.41820446,-0.1730614,-0.05183501,0.16031358,0.5483157,0.2815043,0.056999993,0.48351207,0.39410263,-0.18657318,0.016889514,0.26579028,0.08403506,-0.81712514,-0.23015675,-0.11705061,808.68134,812.71063,796.5934,805.05493,844.1392,-0.34295654296875,-0.01458740234375,0.940185546875,6.168365478515625,-11.0357666015625,-0.710296630859375,1,1.0,1.0,1.0,1.0,90.00
2021-04-12 09:12:10.661,1.0826764,0.090181656,0.0701616,0.69721067,0.43653592,-0.36627096,-0.058845084,0.25656232,0.36238512,0.24138242,0.056689896,0.68841046,0.36103472,-0.07883795,0.17573889,0.37063387,0.22396761,-0.055968482,-0.16083919,0.20263337,828.8278,820.3663,795.38464,802.23444,725.6777,-0.37548828125,-0.00238037109375,0.92779541015625,4.44122314453125,-4.91973876953125,1.30096435546875,1,1.0,1.0,1.0,1.0,90.00
2021-04-12 09:12:11.177,1.0917345,0.55771726,-0.111130066,0.8036749,0.42603123,-0.21520135,-0.0441406,0.35613534,0.30683258,0.05560166,0.15454206,0.7612758,0.38075387,-0.080372475,0.2032008,0.44996122,0.25554666,0.06224106,-0.20414253,0.3247241,796.5934,804.2491,803.44324,786.52014,729.304,-0.3558349609375,-0.00115966796875,0.93682861328125,2.52716064453125,-2.071075439453125,0.37384033203125,1,1.0,1.0,1.0,1.0,90.00
2021-04-12 09:12:11.708,1.4054569,0.8951548,0.04909216,0.8606811,0.76577085,-0.007258219,-0.16770995,0.57035154,1.01969,0.28747258,0.10377656,0.8539877,0.5634974,-0.055114914,0.16192278,0.47042,0.48422256,0.07314,-0.26498094,0.37139297,831.6484,815.5311,796.5934,816.337,767.98535,-0.3829345703125,-0.0140380859375,0.93328857421875,4.0673828125,-3.790740966796875,1.323394775390625,1,1.0,1.0,1.0,1.0,85.00
2021-04-12 09:12:12.233,1.4054569,1.0074607,0.42134044,1.1756852,0.76577085,0.27295777,0.046336878,0.8738732,1.01969,0.3683199,0.28497466,0.9743582,0.5634974,-0.18510938,0.08070923,0.46405274,0.48422256,-0.55903625,-0.35119018,0.20088613,830.84247,809.89014,793.36993,817.1429,740.58606,-0.38671875,-0.01190185546875,0.932861328125,4.344024658203125,-3.94775390625,0.88226318359375,1,1.0,1.0,1.0,1.0,85.00
2021-04-12 09:12:12.758,1.2770473,0.7707674,0.3818277,1.2818393,0.6412137,0.13410027,0.027591813,1.0030053,1.0745387,0.37692404,0.23927458,0.9724815,0.44303194,-0.22790466,0.017077157,0.46057495,0.32025567,-0.5744104,-0.34017313,0.079547286,813.1135,803.8461,789.34064,804.2491,715.6044,-0.37554931640625,-0.0198974609375,0.92767333984375,4.6356201171875,-6.08612060546875,1.218719482421875,1,1.0,1.0,1.0,1.0,85.00
2021-04-12 09:12:13.270,0.8228305,0.31057882,0.22178565,1.084713,0.33781,-0.08535414,0.025743164,0.76480645,0.81442726,0.30507877,0.23171479,0.9523434,0.44895604,-0.22341895,0.06772144,0.38685077,0.1770219,-0.62759143,-0.31824487,-0.109402165,773.6264,807.8755,792.1612,778.86444,705.12823,-0.377197265625,-0.01641845703125,0.93365478515625,4.47113037109375,-4.8748779296875,1.51031494140625,1,1.0,1.0,1.0,1.0,85.00
2021-04-12 09:12:13.788,0.8843533,-0.046473984,-0.1457058,0.68200403,0.36403126,-0.5344517,-0.12008599,0.27838454,0.89425945,-0.06762767,-0.092235,0.79460263,0.42898265,-0.19287346,0.03332865,0.2797145,0.140852,-0.67009866,-0.25020272,-0.14091498,819.9634,800.6227,794.9817,821.1722,828.022,-0.365234375,-0.02008056640625,0.92645263671875,4.844970703125,-4.41131591796875,0.844879150390625,1,1.0,1.0,1.0,1.0,85.00
2021-04-12 09:12:14.295,0.87740755,0.10133616,0.008602794,0.74579716,0.35857096,-0.46457112,-0.1486883,0.28496125,0.95322454,-0.03169207,-0.12896958,0.95762354,0.43095687,-0.110993005,-0.020624427,0.23287597,0.07957793,-0.6056003,-0.30861178,-0.09034147,815.12823,809.0842,799.81683,802.6374,694.65204,-0.36492919921875,-0.017822265625,0.92999267578125,4.8748779296875,-3.850555419921875,1.263580322265625,1,1.0,1.0,1.0,1.0,85.00
2021-04-12 09:12:14.806,0.85134226,0.067534536,-0.037544258,0.7290591,0.35966247,-0.3787031,-0.1852091,0.37057284,0.8896333,-0.027797347,-0.18820381,0.96411425,0.40992814,-0.060758904,-0.097042896,0.19559725,0.009658721,-0.57111675,-0.3415309,-0.111249045,807.47253,808.68134,805.4579,803.8461,725.6777,-0.3621826171875,-0.0211181640625,0.93524169921875,4.702911376953125,-4.149627685546875,1.547698974609375,1,1.0,1.0,1.0,1.0,85.00
2021-04-12 09:12:15.325,0.6682214,-0.1546373,-0.13160539,0.56372267,0.2639671,-0.39376056,-0.38744208,0.26820576,0.8981279,-0.03593316,-0.13508403,0.9476166,0.42656013,-0.07793548,-0.07160639,0.15830411,0.035008416,-0.6107458,-0.55323905,-0.17104262,811.0989,809.89014,800.2198,804.2491,812.71063,-0.36767578125,-0.01763916015625,0.92694091796875,4.209442138671875,-5.316009521484375,1.06170654296875,1,1.0,1.0,1.0,1.0,85.00
2021-04-12 09:12:15.842,0.81122804,-0.3618635,-0.22879753,0.8352607,0.49690837,-0.42889678,-0.40592015,0.36824408,0.81949013,-0.019644476,0.07905006,0.78360265,0.40262017,-0.09130621,-0.02872582,0.22194637,0.08213774,-0.590478,-0.46783718,-0.2711197,816.7399,805.4579,793.7729,804.2491,714.7985,-0.3770751953125,-0.02655029296875,0.92315673828125,4.254302978515625,-3.9776611328125,1.188812255859375,1,1.0,1.0,1.0,1.0,85.00
2021-04-12 09:12:16.364,0.86121655,-0.39421955,-0.26747185,0.90289855,0.5077134,-0.34804413,-0.45450005,0.3327031,0.7945413,-0.0015721022,0.07905006,0.7040755,0.3221451,-0.15051125,-0.024119176,0.32817546,0.14493431,-0.5364518,-0.4465458,-0.22324988,815.5311,802.23444,789.7436,810.696,738.1685,-0.3753662109375,-0.0244140625,0.929931640625,4.224395751953125,-3.970184326171875,0.8673095703125,1,1.0,1.0,1.0,1.0,85.00
2021-04-12 09:12:16.889,0.8636245,-0.31983563,-0.31944075,0.87223846,0.5417048,-0.2668183,-0.42148662,0.2936877,0.7664664,-0.0057472307,0.13297197,0.71028966,0.23726285,-0.14359796,-0.050029714,0.3370834,0.09158814,-0.5170305,-0.43008733,-0.11260863,805.05493,799.81683,802.23444,805.05493,803.0403,-0.39447021484375,-0.02899169921875,0.92236328125,4.80010986328125,-3.99261474609375,0.59814453125,1,1.0,1.0,1.0,1.0,85.00
2021-04-12 09:12:17.412,0.70165896,-0.25325882,-0.3679502,0.66533697,0.4572068,-0.22967173,-0.4313449,0.4057995,0.6239838,-0.02242503,0.013999911,0.7378929,0.29219478,-0.25101742,-0.08434936,0.335723,0.049123008,-0.5073183,-0.50334954,-0.06200115,805.05493,801.8315,797.3993,794.9817,710.3663,-0.3958740234375,-0.03167724609375,0.92132568359375,4.78515625,-4.38140869140625,0.4486083984375,1,1.0,1.0,1.0,1.0,85.00
2021-04-12 09:12:17.916,0.6237758,-0.14008984,-0.20748785,0.5913019,0.43377885,-0.109783925,-0.4511908,0.3858477,0.73198617,-0.05768851,0.006458735,0.72462004,0.33984643,-0.1685456,-0.11818406,0.22238496,0.06099543,-0.52262235,-0.44785613,-0.12641566,807.47253,804.65204,801.02563,815.9341,922.3077,-0.387939453125,-0.02764892578125,0.92169189453125,4.717864990234375,-4.88983154296875,1.383209228515625,1,1.0,1.0,1.0,1.0,85.00
2021-04-12 09:12:18.432,0.4863026,-0.14075808,-0.032471083,0.571111,0.36753005,-0.07445286,-0.4370086,0.3739542,0.7413117,-0.20739408,-0.015135661,0.72462004,0.44240907,-0.17078574,-0.1537538,0.16292548,0.049941953,-0.55513763,-0.43658093,-0.18094268,815.5311,809.4872,797.8022,800.2198,846.9597,-0.389404296875,-0.0250244140625,0.92205810546875,4.583282470703125,-3.895416259765625,1.443023681640625,1,1.0,1.0,1.0,1.0,85.00
2021-04-12 09:12:18.960,-0.020805068,-0.13732442,-0.08251481,0.06168179,0.17857242,-0.017430484,-0.28872332,0.032118645,0.71623546,-0.21739729,-0.077299684,0.18872362,0.40109417,-0.15833169,-0.16014436,0.14604679,-0.065266475,-0.6339787,-0.35648304,-0.15988682,810.293,810.696,798.60803,801.4286,768.3883,-0.38775634765625,-0.02459716796875,0.9205322265625,4.792633056640625,-4.8748779296875,1.42059326171875,1,1.0,1.0,1.0,1.0,85.00
2021-04-12 09:12:19.461,0.25630522,-0.25674912,-0.12168141,-0.107935585,0.06202666,-0.12209198,-0.20805581,0.14160526,0.67025554,-0.17215566,-0.045353975,0.35106862,0.39361158,-0.24508533,-0.10200618,0.19603705,-0.23260106,-0.6730074,-0.38616237,-0.115999475,780.87915,797.8022,805.4579,786.9231,769.19415,-0.38262939453125,-0.01995849609375,0.9296875,4.90478515625,-4.598236083984375,1.79443359375,1,1.0,1.0,1.0,1.0,85.00
2021-04-12 09:12:19.972,0.39643487,0.48096475,0.30801532,-0.10815575,0.09707617,-0.059615057,-0.0713202,0.28828385,0.6151378,0.022513311,0.12905061,0.34501958,0.3310583,-0.26042014,-0.0036695052,0.30989015,-0.2974837,-0.638972,-0.3207332,-0.057432424,818.3516,823.9927,784.90845,805.8608,732.52747,-0.38671875,-0.0216064453125,0.9263916015625,5.00946044921875,-4.852447509765625,1.42059326171875,1,1.0,1.0,1.0,1.0,85.00
2021-04-12 09:12:20.481,0.6478229,0.8085556,0.6428696,0.06512273,-0.20185386,0.25290588,0.18516003,0.36669993,0.50434333,0.37766844,0.5339635,0.33966938,0.3563364,-0.2690828,0.07251496,0.32472154,-0.22503363,-0.6354848,-0.40647966,-0.08717573,811.50183,804.2491,792.5641,801.02563,780.87915,-0.3848876953125,-0.0252685546875,0.92266845703125,4.71038818359375,-4.702911376953125,1.1962890625,1,1.0,1.0,1.0,1.0,85.00
2021-04-12 09:12:20.997,0.46167657,0.84883076,0.69364756,0.06512273,0.5336429,0.3127372,0.23201607,0.36669993,0.75145286,0.37819663,0.5356903,0.33966938,0.18435766,-0.31605563,0.07872415,0.32472154,-0.17972751,-0.6808214,-0.46312252,-0.08717573,794.17584,797.3993,804.65204,798.20514,752.674,-0.37884521484375,-0.02978515625,0.92633056640625,4.523468017578125,-4.912261962890625,0.897216796875,1,1.0,1.0,1.0,1.0,85.00
2021-04-12 09:12:21.524,0.82903594,0.95039505,0.6498976,0.818316,0.6367241,0.4871556,0.3772327,0.53305155,0.76951367,0.6091353,0.53873324,0.62701595,0.122402646,-0.30433115,0.13440852,0.32903537,-0.14465745,-0.6444831,-0.48125425,-0.3426341,796.99634,803.8461,794.9817,804.65204,722.8571,-0.3817138671875,-0.02655029296875,0.92254638671875,4.373931884765625,-5.046844482421875,1.457977294921875,1,1.0,1.0,1.0,1.0,85.00
2021-04-12 09:12:22.043,0.7585993,0.86037755,0.49995163,0.7578391,0.5638027,0.39384776,0.27614665,0.38716382,0.76951367,0.60650253,0.41685063,0.645088,0.25769067,-0.19890967,0.09334454,0.37209904,-0.09100925,-0.61456925,-0.500569,-0.27401978,813.1135,806.26373,802.23444,813.1135,795.78754,-0.38604736328125,-0.02447509765625,0.93011474609375,5.03936767578125,-4.91973876953125,1.7645263671875,1,1.0,1.0,1.0,1.0,85.00
2021-04-12 09:12:22.558,0.66177326,0.9043081,0.6536136,0.68227595,0.40263015,0.4503467,0.34371987,0.35672528,0.5843019,0.648365,0.34454897,0.6914789,0.35152087,-0.030738015,0.054499283,0.45726854,-0.046096284,-0.5825433,-0.43834355,-0.19359356,809.89014,804.65204,799.011,819.5604,757.50916,-0.37994384765625,-0.02374267578125,0.9268798828125,4.448699951171875,-4.42626953125,1.86920166015625,1,1.0,1.0,1.0,1.0,85.00
2021-04-12 09:12:23.075,0.27709016,0.6059692,0.55821157,0.42898008,0.17870049,0.21464325,0.15898117,0.29413202,0.52214533,0.4505561,0.3227782,0.6887199,0.38799715,0.032305036,-0.0553691,0.41151002,-0.026004815,-0.6071843,-0.33680168,-0.11292211,809.89014,812.71063,797.8022,806.6667,734.1392,-0.3826904296875,-0.0289306640625,0.9246826171875,4.62066650390625,-4.4561767578125,1.323394775390625,1,1.0,1.0,1.0,1.0,85.00
2021-04-12 09:12:23.598,0.05902371,0.3419511,0.40614498,0.20883545,-0.026189638,0.03407771,0.041547116,0.26236984,0.4134836,0.4505561,0.29400206,0.6887199,0.38352135,0.026300903,-0.10527776,0.35694215,-0.0667114,-0.6083111,-0.2220052,-0.13173479,809.4872,800.6227,803.0403,799.011,751.06226,-0.3876953125,-0.03033447265625,0.9263916015625,5.001983642578125,-4.179534912109375,1.15142822265625,1,1.0,1.0,1.0,1.0,85.00
2021-04-12 09:12:24.109,0.26025033,-0.08559673,-0.23190022,0.21912314,0.1979934,-0.11742726,-0.17482245,0.15007386,0.40991962,8.105378E-4,0.07832296,0.55351275,0.39638042,-0.0952777,-0.08229091,0.19891426,-0.019436298,-0.5468868,-0.17974934,-0.21963394,828.4249,814.3223,799.41394,815.12823,736.9597,-0.3846435546875,-0.0325927734375,0.9276123046875,4.68048095703125,-4.254302978515625,0.964508056640625,1,1.0,1.0,1.0,1.0,85.00
2021-04-12 09:12:24.620,0.3417202,-0.14654918,-0.3903479,0.32243246,0.2906773,-0.0664707,-0.30874732,0.081903405,0.50969315,0.08147275,0.0075314045,0.38529453,0.38034654,-0.17850132,-0.12831111,0.19584687,-0.10144808,-0.52098423,-0.29184982,-0.34943455,800.6227,807.47253,797.8022,803.44324,713.5897,-0.37982177734375,-0.03448486328125,0.93389892578125,4.08233642578125,-3.99261474609375,1.12152099609375,1,1.0,1.0,1.0,1.0,85.00
2021-04-12 09:12:25.141,0.37040037,-0.1571901,-0.2627351,0.44272676,0.38951978,0.035128716,-0.3935024,0.114687495,0.5550251,0.015749345,-0.052658807,0.31676248,0.27863133,-0.28240293,-0.16459335,0.11364755,-0.11104374,-0.49208564,-0.46453017,-0.27721062,790.54944,804.65204,805.05493,787.326,919.4872,-0.383544921875,-0.03546142578125,0.9246826171875,4.418792724609375,-4.329071044921875,0.82244873046875,1,1.0,1.0,1.0,1.0,85.00
2021-04-12 09:12:25.656,0.47797945,-0.13769935,-0.20704052,0.5639234,0.31855857,-0.01058975,-0.6516966,0.0912234,0.54277074,0.026086826,-0.022726003,0.5053262,0.122126155,-0.34135255,-0.14208786,0.05759517,-0.24194658,-0.53994083,-0.5676213,-0.18480995,806.6667,802.23444,802.23444,802.23444,737.3626,-0.37542724609375,-0.02984619140625,0.92791748046875,4.972076416015625,-4.97955322265625,0.336456298828125,1,1.0,1.0,1.0,1.0,85.00
2021-04-12 09:12:26.161,0.552281,0.092181765,0.07209511,0.6690825,0.29521483,-0.0020063366,-0.5196537,0.076101854,0.5258865,-0.012820901,0.015725799,0.46548072,-0.04321949,-0.34060246,-0.11955177,-0.10237985,-0.20711383,-0.55335647,-0.5365031,-0.11703404,818.7546,798.60803,794.57874,801.02563,857.03296,-0.37530517578125,-0.03594970703125,0.9276123046875,4.5758056640625,-4.807586669921875,0.67291259765625,1,1.0,1.0,1.0,1.0,85.00
2021-04-12 09:12:26.666,0.71049017,0.12792665,0.062723674,0.52635175,0.17698619,-0.09158978,-0.39150205,0.3574826,0.40298814,-0.030401539,0.08774135,0.6288921,0.04872906,-0.28603968,-0.09269792,0.039661128,-0.07722729,-0.65606475,-0.5415555,-0.16334969,803.0403,803.0403,800.2198,809.0842,795.38464,-0.37066650390625,-0.03045654296875,0.9302978515625,4.687957763671875,-5.39825439453125,1.772003173828125,1,1.0,1.0,1.0,1.0,85.00
2021-04-12 09:12:27.185,0.04861788,0.14511831,0.02843471,0.32126567,0.26874682,-0.2780892,-0.35806116,0.34043816,0.36877736,-0.035782523,0.057357024,0.5175479,0.1600623,-0.21346954,-0.14747745,0.039704278,0.0873882,-0.5790929,-0.52335584,-0.13439475,814.3223,813.91943,793.7729,808.2784,715.2015,-0.37237548828125,-0.02362060546875,0.932861328125,4.9945068359375,-4.844970703125,0.6878662109375,1,1.0,1.0,1.0,1.0,85.00
2021-04-12 09:12:27.701,0.5246484,-0.18574946,-0.12894101,0.5894131,0.36952856,-0.5999703,-0.35515904,0.42582804,0.6885077,-0.03330805,-0.10839436,0.8139968,0.33856317,-0.25875714,-0.20103417,0.15870233,0.06197601,-0.5439492,-0.46387765,-0.12624347,811.50183,809.4872,793.36993,807.0696,722.8571,-0.364013671875,-0.024658203125,0.93914794921875,4.658050537109375,-5.286102294921875,0.904693603515625,1,1.0,1.0,1.0,1.0,85.00
2021-04-12 09:12:28.222,0.46752387,-0.28134757,0.0039329967,0.5245607,0.31451282,-0.72464633,-0.389966,0.31805637,0.68063384,-0.17379223,-0.3026061,0.78793675,0.29099432,-0.2636133,-0.20985277,0.22563708,0.048438087,-0.5367388,-0.37178272,-0.081600204,808.2784,809.89014,795.78754,802.6374,763.5531,-0.36505126953125,-0.02117919921875,0.93084716796875,4.029998779296875,-4.912261962890625,1.3458251953125,1,1.0,1.0,1.0,1.0,85.00
2021-04-12 09:12:28.747,0.58629096,-0.57083744,0.016662389,0.5332076,0.32275048,-0.48413083,-0.19602704,0.27251902,0.69232017,-0.13414463,-0.025051443,0.794102,0.29809713,-0.21783364,-0.14404522,0.23358166,0.0536633,-0.6084983,-0.36748934,-0.08397703,809.4872,807.47253,804.2491,801.02563,750.65936,-0.35858154296875,-0.020751953125,0.93829345703125,4.77020263671875,-4.553375244140625,1.443023681640625,1,1.0,1.0,1.0,1.0,85.00
2021-04-12 09:12:29.274,0.66050726,-0.05810049,0.3736088,0.639691,0.35561892,-0.13761097,0.0060912995,0.5074305,0.827221,-0.052195434,0.00833661,0.73146313,0.2072052,-0.15890972,-0.11955253,0.16862492,0.056254037,-0.5829875,-0.37188083,-0.09664846,814.7253,807.47253,801.8315,818.3516,656.3736,-0.361572265625,-0.0224609375,0.93389892578125,4.373931884765625,-5.106658935546875,1.00189208984375,1,1.0,1.0,1.0,1.0,85.00
2021-04-12 09:12:29.803,0.88502645,0.005385052,0.34080896,0.9090807,0.5246815,-0.08761244,0.016658071,0.6716625,0.83241826,0.081024475,0.026850818,0.70705736,0.2766899,-0.04120285,-0.11804577,0.15172681,0.08274647,-0.5497826,-0.40917665,-0.08020356,794.9817,807.0696,809.4872,799.81683,689.81683,-0.36138916015625,-0.020263671875,0.93450927734375,4.56085205078125,-4.329071044921875,1.368255615234375,1,1.0,1.0,1.0,1.0,85.00
2021-04-12 09:12:30.328,0.97951686,0.17339034,0.4282161,1.1118357,0.59507996,0.050431024,-0.13485542,0.7812453,0.82164925,0.081024475,0.10626666,0.7329913,0.29302198,0.005533178,-0.09310954,0.18339832,0.07142054,-0.58300304,-0.39951864,-0.05277559,819.9634,811.9048,794.17584,807.47253,801.4286,-0.35992431640625,-0.024658203125,0.9322509765625,4.762725830078125,-4.32159423828125,0.91217041015625,1,1.0,1.0,1.0,1.0,85.00
2021-04-12 09:12:30.840,0.9098299,0.24203824,0.42238364,1.035052,0.408635,0.07657774,-0.028143153,0.54527146,0.861561,0.2803826,0.2878681,0.7832958,0.24842738,0.056864385,-0.03175433,0.31801635,0.06487613,-0.6915096,-0.3769884,-0.07346585,823.5897,805.4579,801.8315,824.7985,715.6044,-0.3658447265625,-0.02410888671875,0.92962646484375,4.538421630859375,-3.99261474609375,1.009368896484375,1,1.0,1.0,1.0,1.0,85.00
2021-04-12 09:12:31.367,0.6201311,0.52803487,0.65761405,0.60157925,0.53527915,0.26567706,0.23076157,0.2829387,1.2312807,0.38799784,0.28437445,0.95622,0.32173598,0.07393118,-0.009885116,0.3987503,0.087939024,-0.6591995,-0.34126884,-0.11750184,823.1868,799.81683,790.9524,810.293,758.71796,-0.3773193359375,-0.03125,0.92633056640625,4.418792724609375,-3.985137939453125,0.695343017578125,1,1.0,1.0,1.0,1.0,85.00
2021-04-12 09:12:31.881,0.6152579,0.5166954,0.7106542,0.21304864,0.49277985,0.31530172,0.3885161,0.12489831,1.3524477,0.40046048,0.27978793,0.9561344,0.32262102,0.17259817,-0.05974403,0.35510164,0.037858516,-0.574159,-0.4168516,-0.16797443,827.619,817.1429,798.20514,812.3077,801.4286,-0.386962890625,-0.02362060546875,0.92645263671875,4.8150634765625,-3.910369873046875,1.48040771484375,1,1.0,1.0,1.0,1.0,85.00
2021-04-12 09:12:32.398,0.40907437,0.40108076,0.58852816,0.09105685,0.45967287,0.2985662,0.29972458,0.041759916,1.3524477,0.35594597,0.24191561,0.885286,0.32073158,0.16661137,-0.08300365,0.27588603,0.034912374,-0.5635415,-0.50584745,-0.1848364,805.05493,804.2491,809.89014,806.6667,737.76556,-0.39031982421875,-0.03155517578125,0.9205322265625,4.8150634765625,-4.209442138671875,1.039276123046875,1,1.0,1.0,1.0,1.0,90.00
2021-04-12 09:12:32.927,0.5988409,0.20063448,0.3301678,0.5409642,0.37262872,0.16468377,0.10302744,0.30445233,1.3376286,0.08598018,-0.011862143,0.8551335,0.3100309,0.10908164,-0.07851752,0.17966196,0.011232268,-0.54060763,-0.60946923,-0.2718127,809.0842,807.47253,794.57874,810.293,809.4872,-0.38958740234375,-0.02325439453125,0.9248046875,4.687957763671875,-4.71038818359375,0.34393310546875,1,1.0,1.0,1.0,1.0,90.00
2021-04-12 09:12:33.438,0.52162755,0.176363,-0.03533541,0.58723825,0.40917653,-0.09223558,-0.16721937,0.44516918,0.70286685,-0.20094013,-0.23628354,0.69941753,0.2788101,-0.14566381,-0.05949903,0.20557947,0.025916014,-0.5280491,-0.545617,-0.29575562,799.81683,806.26373,800.2198,790.54944,717.2161,-0.3902587890625,-0.0233154296875,0.92840576171875,4.964599609375,-5.323486328125,1.54022216796875,1,1.0,1.0,1.0,1.0,90.00
2021-04-12 09:12:33.965,0.52409136,0.20840426,-0.09942111,0.60296834,0.5008509,-0.18479079,-0.1855466,0.4928742,0.71829623,-0.17611581,-0.14231981,0.70275277,0.3367792,-0.16998957,-0.05573014,0.2317923,-0.02724204,-0.5299238,-0.45595348,-0.32242706,813.5165,811.9048,797.3993,809.89014,689.41394,-0.38677978515625,-0.0230712890625,0.92626953125,4.964599609375,-4.598236083984375,1.443023681640625,1,1.0,1.0,1.0,1.0,90.00
2021-04-12 09:12:34.475,0.07778366,-0.05664716,-0.23342492,0.21168391,0.30678093,-0.38504705,-0.19706072,0.5085129,0.5936898,-0.17411967,-0.03299878,0.5305155,0.2728228,-0.1544312,-0.09570226,0.24793075,-0.0746111,-0.587623,-0.4777488,-0.20308241,808.2784,807.0696,800.6227,799.011,850.18317,-0.38311767578125,-0.0264892578125,0.92218017578125,4.78515625,-4.38140869140625,1.6448974609375,1,1.0,1.0,1.0,1.0,90.00
2021-04-12 09:12:35.001,0.08287593,-0.063170925,-0.3952107,0.20211817,0.38305137,-0.08039727,-0.19503789,0.64179,0.56969744,0.070706256,-0.032013573,0.5538903,0.34651917,-0.04762277,-0.04956884,0.24504761,-0.13076386,-0.5951037,-0.45579594,-0.19113402,799.81683,809.4872,797.8022,803.44324,827.619,-0.38232421875,-0.02740478515625,0.92462158203125,3.790740966796875,-4.538421630859375,1.86920166015625,1,1.0,1.0,1.0,1.0,90.00
2021-04-12 09:12:35.527,0.14113511,0.03134149,-0.40998745,0.2541065,0.37304133,0.016484648,-0.19255218,0.6382626,0.54394674,0.08801785,0.039299093,0.67677647,0.4354611,-0.059189696,0.0820786,0.35540217,-0.13335589,-0.562869,-0.47223035,-0.101187184,810.696,809.4872,796.99634,804.2491,786.9231,-0.37908935546875,-0.02783203125,0.924560546875,4.732818603515625,-4.9346923828125,1.2261962890625,1,1.0,1.0,1.0,1.0,90.00
2021-04-12 09:12:36.029,0.24152417,0.056594554,-0.16197754,0.34466064,0.4085536,0.044589687,-0.19288558,0.5341808,0.5213805,0.06500074,0.15064973,0.5961407,0.44532388,-0.09469261,0.14249548,0.4221643,-0.10640513,-0.563894,-0.3663309,-0.11314604,807.0696,809.0842,797.3993,816.337,947.28937,-0.383544921875,-0.0286865234375,0.9267578125,4.897308349609375,-5.00946044921875,1.682281494140625,1,1.0,1.0,1.0,1.0,90.00
2021-04-12 09:12:36.551,0.32351327,-0.061046604,0.00269867,0.44561067,0.18011414,-0.19679897,-0.38807562,0.19973157,0.6672492,-0.055510543,0.17641173,0.6691159,0.42292744,-0.2044994,0.15032397,0.44830292,-0.060676545,-0.54761255,-0.27709854,-0.08991969,799.011,805.8608,790.9524,791.3553,722.0513,-0.38568115234375,-0.02618408203125,0.927978515625,4.78515625,-4.486083984375,1.547698974609375,1,1.0,1.0,1.0,1.0,90.00
2021-04-12 09:12:37.079,0.383718,-0.2555067,0.034701165,0.4977942,0.1290345,-0.19273378,-0.5627346,0.20253041,0.6768684,0.04086605,0.17285158,0.6800197,0.35896903,-0.16273436,0.039180256,0.37369627,-0.12058836,-0.5691211,-0.2805676,-0.15639415,796.1905,807.47253,810.696,798.20514,725.6777,-0.38031005859375,-0.0333251953125,0.92327880859375,4.605712890625,-4.358978271484375,1.48040771484375,1,1.0,1.0,1.0,1.0,90.00
2021-04-12 09:12:37.584,0.45190695,0.04916038,0.08732536,0.6703086,0.100282565,-0.03938885,-0.63107336,0.48174495,0.62132907,0.08815352,0.119975865,0.53511447,0.36816624,-0.1441787,-0.08330859,0.33282793,-0.16637796,-0.57321024,-0.36936265,-0.20205656,813.5165,810.293,800.2198,805.4579,740.58606,-0.37982177734375,-0.0325927734375,0.92108154296875,4.44122314453125,-4.463653564453125,1.428070068359375,1,1.0,1.0,1.0,1.0,90.00
2021-04-12 09:12:38.098,0.6240742,0.3027159,0.30059102,0.6790875,0.2610581,0.025124062,-0.4664636,0.54907215,0.70344836,0.2683787,-0.008563782,0.5881806,0.2543166,-0.069544174,-0.20153074,0.26588288,-0.16871677,-0.579933,-0.53618646,-0.25019804,814.7253,809.0842,803.44324,806.26373,696.26373,-0.37689208984375,-0.03607177734375,0.92572021484375,4.538421630859375,-4.628143310546875,1.24114990234375,1,1.0,1.0,1.0,1.0,90.00
2021-04-12 09:12:38.619,0.64412636,0.35185918,0.31498742,0.70059127,0.25998446,0.05803616,-0.19631557,0.55407155,0.6566914,0.2735693,0.20194443,0.6024298,0.3034803,-0.09339566,-0.1203144,0.27314994,-0.12992199,-0.57020885,-0.5178914,-0.30404657,819.5604,809.0842,802.23444,814.7253,745.42126,-0.37994384765625,-0.03314208984375,0.92425537109375,4.5758056640625,-5.540313720703125,0.538330078125,1,1.0,1.0,1.0,1.0,90.00
2021-04-12 09:12:39.123,0.6337804,0.26133445,0.28364325,0.61722445,0.22914967,0.03583124,-0.112114,0.40003702,0.66335285,0.25919524,0.19344667,0.61679447,0.32284197,-0.065757446,-0.024356939,0.2576116,-0.05672229,-0.5681876,-0.37815288,-0.36066583,812.71063,809.89014,800.2198,807.47253,724.87177,-0.378662109375,-0.02978515625,0.9246826171875,4.837493896484375,-4.80010986328125,0.755157470703125,1,1.0,1.0,1.0,1.0,90.00
2021-04-12 09:12:39.635,0.47063783,-0.004566965,-0.025126906,0.58768636,0.2060605,-0.027345384,-0.06428435,0.35234788,0.8118204,0.15862393,0.2167964,0.5445459,0.34291074,-0.10598057,-0.037419725,0.2837722,-0.04400619,-0.54590607,-0.37373453,-0.36944717,804.2491,799.41394,801.02563,802.23444,770.40295,-0.38275146484375,-0.03057861328125,0.92364501953125,4.777679443359375,-5.136566162109375,0.560760498046875,1,1.0,1.0,1.0,1.0,90.00
2021-04-12 09:12:40.140,0.44625813,-0.087377034,-0.1605019,0.6558233,0.28491065,-0.17293574,-0.1526388,0.38304165,0.975211,0.031991966,0.25624713,0.65414023,0.30631992,-0.12910244,-0.14049216,0.27923954,-0.02977612,-0.48768947,-0.41402614,-0.24309051,813.1135,803.44324,805.4579,828.8278,982.74725,-0.38336181640625,-0.03839111328125,0.916015625,5.443115234375,-3.820648193359375,1.30096435546875,1,1.0,1.0,1.0,1.0,90.00
2021-04-12 09:12:40.643,0.4236219,-0.31234446,-0.3444114,0.62977093,0.5234567,-0.3036625,-0.17067754,0.56615484,1.0093646,0.14290912,0.29604572,0.81233513,0.32629573,-0.2127398,-0.2161488,0.32072443,-0.08039381,-0.46865836,-0.5337876,-0.11316653,803.8461,805.05493,791.75824,803.0403,740.989,-0.37103271484375,-0.0269775390625,0.931640625,4.418792724609375,-5.1141357421875,1.12152099609375,1,1.0,1.0,1.0,1.0,90.00
2021-04-12 09:12:41.149,0.38945192,-0.4308866,-0.40365458,0.5753974,0.6151697,-0.20483373,-0.2985804,0.5751653,1.0185962,0.14786017,0.2822715,0.89451003,0.26737043,-0.24387239,-0.12326271,0.37434876,-0.15630023,-0.48333576,-0.372233,-0.08069847,809.89014,810.293,803.8461,809.0842,706.337,-0.37884521484375,-0.02947998046875,0.93927001953125,4.53094482421875,-4.5758056640625,0.5682373046875,1,1.0,1.0,1.0,1.0,90.00
2021-04-12 09:12:41.679,0.45722294,-0.50118226,-0.3999731,0.39404166,0.6368668,-0.16739726,-0.41133898,0.53045183,0.8977211,0.12346628,0.23751147,0.89370024,0.2166024,-0.26460418,-0.10745714,0.32405567,-0.18955986,-0.47137892,-0.27817369,-0.10193222,809.4872,807.8755,797.8022,807.0696,855.0183,-0.3619384765625,-0.02691650390625,0.935546875,4.687957763671875,-5.585174560546875,1.353302001953125,1,1.0,1.0,1.0,1.0,90.00
2021-04-12 09:12:42.183,0.38866144,-0.37115625,-0.44656876,0.30564862,0.59464604,-0.15871,-0.4267183,0.26789105,0.7714885,0.014694864,0.083352596,0.7293728,0.2764358,-0.15565172,-0.15644422,0.2635052,-0.24610332,-0.45520478,-0.21913224,-0.18411702,804.65204,811.9048,798.60803,793.7729,785.31134,-0.36126708984375,-0.03387451171875,0.931640625,3.7982177734375,-4.702911376953125,0.456085205078125,1,1.0,1.0,1.0,1.0,90.00
2021-04-12 09:12:42.706,0.3580129,-0.27842453,-0.3605909,0.2650685,0.5129044,-0.19473521,-0.22037083,0.21760444,0.7340285,-0.0753908,-0.0696601,0.6091101,0.46057266,-0.113766454,-0.16246419,0.15653569,-0.15971905,-0.48667663,-0.31491488,-0.21198288,808.2784,813.1135,804.65204,811.0989,724.87177,-0.36114501953125,-0.01922607421875,0.93975830078125,4.0972900390625,-5.031890869140625,1.398162841796875,1,1.0,1.0,1.0,1.0,90.00
2021-04-12 09:12:43.221,0.20944932,-0.004186353,-0.23506999,0.2711894,0.48502436,-0.22001176,-0.11844139,0.23163557,0.68775046,-0.06390417,-0.05662853,0.5524199,0.5142374,-0.044521,-0.061012056,0.22666113,-0.0534407,-0.53143877,-0.31600305,-0.26360974,801.4286,810.293,802.23444,798.60803,724.4689,-0.36572265625,-0.02972412109375,0.93206787109375,4.972076416015625,-4.000091552734375,1.308441162109375,1,1.0,1.0,1.0,1.0,90.00
2021-04-12 09:12:43.736,0.31716987,0.017620694,-0.19504718,0.45630473,0.33071658,-0.27400836,-0.09982398,0.22238068,0.47811657,-0.0033016098,-0.043912973,0.55509585,0.42358905,-0.051053323,-0.05811082,0.31645352,0.002381113,-0.57192,-0.40118036,-0.31056052,799.41394,812.3077,795.78754,804.65204,607.619,-0.3590087890625,-0.02789306640625,0.932861328125,4.792633056640625,-5.016937255859375,0.83740234375,1,1.0,1.0,1.0,1.0,90.00
2021-04-12 09:12:44.247,0.35010213,-0.029856583,-0.1196336,0.47674212,0.31810778,-0.19328752,-0.09323796,0.18651986,0.41396692,-0.014780032,-0.043912973,0.5083417,0.29244265,-0.09665153,-0.14027643,0.3328604,0.01235409,-0.5725615,-0.416262,-0.2920656,803.0403,808.68134,804.2491,806.6667,753.8828,-0.3583984375,-0.0289306640625,0.93402099609375,4.2169189453125,-4.18701171875,0.9271240234375,1,1.0,1.0,1.0,1.0,90.00
2021-04-12 09:12:44.771,0.62208176,-0.1955836,-0.02991305,0.662991,0.4515821,-0.12680018,-0.13142288,0.4555905,0.5977904,0.12859248,-0.06713,0.6264539,0.35945493,-0.13976237,-0.14358695,0.34313354,0.003926122,-0.65121746,-0.40207916,-0.20113802,813.91943,808.68134,802.6374,806.6667,770.40295,-0.3653564453125,-0.03173828125,0.9324951171875,4.478607177734375,-4.508514404296875,0.904693603515625,1,1.0,1.0,1.0,1.0,90.00
2021-04-12 09:12:45.278,0.7934235,-0.18550096,0.034529805,0.8081313,0.661432,-0.09081272,-0.19457655,0.5614267,0.76360095,0.19083259,-0.10934918,0.7146976,0.48985225,-0.13437046,-0.06248887,0.42115322,0.057689164,-0.57701856,-0.37614417,-0.18254331,817.1429,808.68134,796.99634,804.2491,823.5897,-0.36297607421875,-0.03253173828125,0.9285888671875,4.486083984375,-5.24871826171875,1.0467529296875,1,1.0,1.0,1.0,1.0,90.00
2021-04-12 09:12:45.786,0.8252147,-0.06809699,0.0060068816,0.8592663,0.63751066,-0.23058632,-0.3118484,0.6384354,0.791863,0.20056888,-0.10047789,0.74627906,0.48941195,-0.1577746,-0.010623869,0.45327035,0.034974836,-0.5384736,-0.33118773,-0.09447389,805.8608,810.696,807.47253,809.0842,767.5824,-0.36505126953125,-0.0291748046875,0.9326171875,4.844970703125,-3.895416259765625,0.889739990234375,1,1.0,1.0,1.0,1.0,90.00
2021-04-12 09:12:46.306,0.81195647,-0.024120582,0.021619152,0.86620194,0.6160365,-0.3416927,-0.2999578,0.5981704,0.7861128,0.1626657,-0.08197545,0.74489415,0.48117685,-0.13605766,-0.0042035715,0.48532084,-0.017910777,-0.39936686,-0.45453092,-0.095692135,792.5641,803.0403,809.89014,790.9524,765.56775,-0.365966796875,-0.02490234375,0.93206787109375,4.628143310546875,-5.136566162109375,1.7645263671875,1,1.0,1.0,1.0,1.0,90.00
2021-04-12 09:12:46.815,0.7485369,0.68399394,0.6419942,0.6484427,0.37587115,-0.42390537,-0.31651706,0.5324999,0.6162914,0.02602024,-0.21226047,0.62790585,0.4297264,-0.13056037,-0.018734554,0.37906706,-0.104230225,-0.39325038,-0.41778994,0.022511391,806.6667,824.7985,807.0696,804.65204,865.09155,-0.371337890625,-0.02471923828125,0.92901611328125,4.508514404296875,-4.104766845703125,1.443023681640625,1,1.0,1.0,1.0,1.0,90.00
2021-04-12 09:12:47.341,0.76366657,0.82490057,0.88296014,0.6217037,0.33097523,-0.34824395,-0.14711605,0.49286902,0.5463789,0.0836561,-0.14658074,0.55259454,0.4075606,0.03545016,0.014283902,0.33189175,-0.08890444,-0.36500213,-0.47314557,0.030631537,826.4103,803.8461,828.022,836.4835,762.3443,-0.37896728515625,-0.0252685546875,0.925048828125,4.6954345703125,-4.20196533203125,1.158905029296875,1,1.0,1.0,1.0,1.0,90.00
2021-04-12 09:12:47.859,0.9406312,1.0037653,1.1902481,0.8896582,0.4993663,-0.20821209,0.05320262,0.62119496,0.6840296,0.26973146,-0.090380855,0.48242995,0.45148596,0.18450855,0.12823868,0.2857705,0.15859455,-0.40435255,-0.48187307,-0.4018463,811.50183,817.9487,803.44324,807.47253,673.69965,-0.37652587890625,-0.02447509765625,0.92535400390625,4.344024658203125,-4.3963623046875,1.143951416015625,1,1.0,1.0,1.0,1.0,90.00
2021-04-12 09:12:48.362,0.89030933,0.95230466,1.2301706,0.7664151,0.65458834,-0.039583806,0.27937335,0.8381031,0.72935164,0.31155995,0.22637333,0.67196023,0.48344627,0.26001498,0.19565214,0.25491542,0.015499269,-0.400676,-0.49566016,-0.19819449,805.8608,811.50183,798.20514,801.4286,757.1062,-0.3778076171875,-0.02703857421875,0.92376708984375,4.56085205078125,-4.568328857421875,1.42059326171875,1,1.0,1.0,1.0,1.0,90.00
2021-04-12 09:12:48.879,0.73317325,1.2208425,1.2329296,0.6343686,0.6263467,0.1428757,0.5164357,0.81084114,0.98472244,0.39441153,0.4049875,0.70797515,0.48520815,0.28698376,0.24435507,0.31189123,-0.05355879,-0.49357465,-0.42975643,-0.12864973,783.69965,849.7802,796.1905,777.6557,775.2381,-0.38726806640625,-0.02716064453125,0.92486572265625,4.14215087890625,-4.62066650390625,1.3458251953125,1,1.0,1.0,1.0,1.0,90.00
2021-04-12 09:12:49.394,0.54036415,1.1756315,0.90748966,0.44530353,0.6885054,0.09028037,0.49449646,0.7799664,0.967785,0.3371443,0.4040672,0.7724743,0.5389325,0.23139288,0.12552586,0.36012998,-0.19828025,-0.59958255,-0.40016118,-0.10032103,798.20514,819.5604,808.2784,792.1612,695.8608,-0.38311767578125,-0.0238037109375,0.92645263671875,4.972076416015625,-5.091705322265625,0.897216796875,1,1.0,1.0,1.0,1.0,90.00
2021-04-12 09:12:49.908,0.23330277,1.1401434,0.65547687,0.29891127,0.873774,0.2588934,0.35478225,0.7076249,0.96607244,0.3413445,0.40896803,0.81056345,0.45604023,0.21073063,0.034670126,0.35085243,-0.15877043,-0.632005,-0.39651152,-0.17057294,810.696,814.3223,806.6667,803.0403,779.2674,-0.37994384765625,-0.026611328125,0.9261474609375,4.80010986328125,-4.50103759765625,0.680389404296875,1,1.0,1.0,1.0,1.0,90.00
2021-04-12 09:12:50.411,0.36214238,1.0111169,0.111102365,0.3206965,0.9989552,0.5210204,0.03735702,0.6716427,1.0247416,0.44673902,0.23805645,0.80745053,0.42198864,0.17954317,-0.16026501,0.25255704,-0.05169798,-0.67796415,-0.42227843,-0.25392735,795.38464,821.1722,800.2198,797.3993,874.7619,-0.3740234375,-0.024169921875,0.93096923828125,4.35150146484375,-4.254302978515625,0.8673095703125,1,1.0,1.0,1.0,1.0,90.00
2021-04-12 09:12:50.919,0.38396063,0.8943748,0.033916105,0.2666075,1.0091802,0.5576961,-0.07527165,0.6159678,0.90405625,0.38008967,0.21684264,0.80745053,0.32839134,0.07269532,-0.15295085,0.122019716,0.010691765,-0.65184313,-0.3325289,-0.21930002,800.6227,819.9634,803.44324,797.3993,724.0659,-0.3829345703125,-0.0242919921875,0.92706298828125,4.687957763671875,-4.987030029296875,0.25421142578125,1,1.0,1.0,1.0,1.0,90.00
2021-04-12 09:12:51.438,0.44565532,0.65650976,0.105252124,0.19579767,0.8076673,0.44088683,-0.03620659,0.41751018,0.9033682,0.26356196,0.14917903,0.66673845,0.41571304,-0.03519458,-0.16811028,0.06251479,0.04024571,-0.6194265,-0.23975044,-0.15506625,810.293,814.7253,803.8461,803.8461,794.57874,-0.38726806640625,-0.0262451171875,0.92529296875,4.78515625,-4.493560791015625,0.85235595703125,1,1.0,1.0,1.0,1.0,90.00
2021-04-12 09:12:51.947,0.4519961,0.20951016,0.4946115,0.24032429,0.51708215,0.13919589,-0.07600831,0.29907376,0.9302292,0.31205747,-0.034224518,0.61293626,0.40714076,-0.16362828,-0.07684121,0.058772556,0.11629129,-0.43987414,-0.1846992,-0.07135413,808.2784,816.337,803.44324,814.3223,762.3443,-0.38531494140625,-0.02508544921875,0.923583984375,4.568328857421875,-4.71038818359375,1.6748046875,1,1.0,1.0,1.0,1.0,90.00
2021-04-12 09:12:52.450,0.42031524,-0.0397644,0.6472353,0.30499688,0.21712893,-0.02047089,0.06962645,0.32820818,0.79527605,0.2580881,-0.041073266,0.6175292,0.35275254,-0.13371223,-0.076275945,0.085075684,0.12666589,-0.3927428,-0.19949964,-0.08470598,813.91943,812.3077,788.93774,805.4579,842.52747,-0.38580322265625,-0.03179931640625,0.92095947265625,4.598236083984375,-4.38140869140625,1.15142822265625,1,1.0,1.0,1.0,1.0,90.00
2021-04-12 09:12:52.957,0.68343735,0.3828198,0.85730433,0.41855294,0.3710507,0.20864767,0.20116724,0.33589292,0.78458434,0.2912842,0.06719523,0.6630267,0.42817047,-0.07673104,-0.028814135,0.18232135,0.13256066,-0.38191572,-0.23337702,-0.07886487,809.89014,806.26373,795.38464,807.47253,819.9634,-0.38531494140625,-0.02825927734375,0.9254150390625,4.68048095703125,-4.508514404296875,1.016845703125,1,1.0,1.0,1.0,1.0,85.00
2021-04-12 09:12:53.462,0.7302367,0.3566677,0.78876096,0.5542005,0.46663627,0.11542119,0.18051885,0.34910104,0.7718123,0.20735712,0.056443147,0.5002654,0.43619594,-0.09595424,0.026342945,0.28995973,-0.009934944,-0.45897594,-0.25775146,-0.16914241,790.14655,805.4579,794.9817,780.07324,667.25275,-0.3792724609375,-0.031005859375,0.92730712890625,4.85992431640625,-5.51788330078125,0.82244873046875,1,1.0,1.0,1.0,1.0,85.00
2021-04-12 09:12:53.966,0.9266619,0.29730296,0.7040325,0.8253994,0.6979561,0.13957806,-0.0017862184,0.43847293,1.0236468,0.2501673,0.0101120565,0.6778399,0.4773472,-0.025421523,0.0052495413,0.38461155,0.039409094,-0.3668556,-0.29365113,0.06275122,793.7729,805.8608,793.7729,792.96704,777.25275,-0.36248779296875,-0.03021240234375,0.93206787109375,4.17205810546875,-5.435638427734375,1.39068603515625,1,1.0,1.0,1.0,1.0,85.00
2021-04-12 09:12:54.477,0.9206408,-0.13671754,0.41885045,0.90763867,0.66073245,-0.052954618,-0.20773531,0.47182652,0.98635465,0.06715506,-0.12436018,0.5962551,0.42101845,0.10377067,0.0077027087,0.40811333,0.26957145,0.064553104,-0.2074416,0.113430806,823.5897,810.696,811.50183,817.5458,743.00366,-0.35504150390625,-0.0179443359375,0.9359130859375,5.1739501953125,-6.616973876953125,-0.186920166015625,1,1.0,1.0,1.0,1.0,85.00
2021-04-12 09:12:54.983,0.9591292,0.040745936,0.43974438,0.9894668,0.6629197,0.10211926,-0.057218574,0.72511864,0.97588164,0.15216856,-0.0078002475,0.7362875,0.5332766,0.10219406,-0.05804381,0.5861995,0.38109502,0.086064786,-0.16373152,0.33033004,799.011,805.05493,805.4579,813.5165,644.2857,-0.363037109375,-0.01849365234375,0.929931640625,4.538421630859375,-4.613189697265625,0.097198486328125,1,1.0,1.0,1.0,1.0,85.00
2021-04-12 09:12:55.505,0.812402,0.13386461,0.49794337,1.0760013,0.6555133,0.19194786,0.035695758,0.8846005,0.8867184,0.15920123,0.11365147,0.7133015,0.5707776,0.008503188,-0.07869764,0.584098,0.4526433,0.07783528,-0.16768427,0.3501356,812.71063,807.0696,796.1905,814.3223,766.77655,-0.38555908203125,-0.0185546875,0.926513671875,4.38140869140625,-5.39825439453125,0.7177734375,1,1.0,1.0,1.0,1.0,85.00
2021-04-12 09:12:56.012,0.671423,0.30690297,0.5362071,0.9433682,0.6765949,0.26147038,0.041143097,0.7842272,0.63727987,0.10139298,0.1766008,0.73336786,0.5743202,-0.23015565,-0.16998094,0.51142013,0.35404542,-0.4756725,-0.34977004,0.13521242,807.47253,788.5348,817.5458,805.4579,699.0842,-0.3760986328125,-0.02716064453125,0.92333984375,4.605712890625,-4.29168701171875,1.099090576171875,1,1.0,1.0,1.0,1.0,85.00
2021-04-12 09:12:56.537,0.48192707,0.47043484,0.42046493,0.70511913,0.6271808,0.2579923,-0.137076,0.49812275,0.6855803,0.31373364,0.37518966,0.6551275,0.4456375,-0.13779321,-0.1894504,0.3351401,0.26970467,-0.5711773,-0.5539349,-0.18186341,805.4579,807.8755,791.3553,799.41394,746.2271,-0.37579345703125,-0.02001953125,0.9263916015625,4.77020263671875,-4.90478515625,1.57012939453125,1,1.0,1.0,1.0,1.0,85.00
2021-04-12 09:12:57.044,0.4052298,0.5558763,0.2801967,0.18587205,0.39932284,0.19833623,-0.13118494,0.39222017,0.7949233,0.33359233,0.38995215,0.6740238,0.44313583,-0.09443628,-0.12167866,0.3527378,0.23001575,-0.5816079,-0.5663591,-0.18462622,819.15753,811.0989,805.05493,819.15753,788.5348,-0.369384765625,-0.02001953125,0.93463134765625,5.12908935546875,-4.88983154296875,1.68975830078125,1,1.0,1.0,1.0,1.0,85.00
2021-04-12 09:12:57.561,0.32362178,0.4810225,0.2044652,-0.16948786,0.22909461,0.07533806,-0.14232187,0.30265036,0.7436534,0.33359233,0.38995215,0.62238634,0.40379524,-0.101375215,-0.07592543,0.29198843,0.22288693,-0.5612869,-0.37198395,-0.14911266,808.68134,805.4579,796.1905,796.1905,700.696,-0.3648681640625,-0.01904296875,0.9329833984375,4.964599609375,-5.18890380859375,1.33087158203125,1,1.0,1.0,1.0,1.0,85.00
2021-04-12 09:12:58.074,0.3337268,0.2655301,0.039678913,-0.098461464,0.13277353,-0.1754999,-0.21757765,0.2713167,0.63330895,0.24864826,0.34517998,0.6488941,0.38286763,-0.132509,-0.0623436,0.31143156,0.16241762,-0.553849,-0.34606948,-0.23127374,784.5055,803.44324,801.8315,802.23444,784.10254,-0.371337890625,-0.0213623046875,0.93182373046875,4.65057373046875,-4.94964599609375,0.874786376953125,1,1.0,1.0,1.0,1.0,85.00
2021-04-12 09:12:58.582,0.49758112,0.051381364,-0.1379701,0.44767308,0.17516017,-0.24029025,-0.17338133,0.13294928,0.46124792,0.117840834,-0.076422624,0.55543363,0.39677012,-0.14171219,-0.09534734,0.35565612,0.1407171,-0.41479716,-0.3389354,-0.23985013,808.2784,819.5604,784.90845,789.34064,816.7399,-0.36785888671875,-0.02484130859375,0.93304443359375,4.717864990234375,-4.41131591796875,0.7177734375,1,1.0,1.0,1.0,1.0,85.00
2021-04-12 09:12:59.088,0.5428325,0.12961048,9.130704E-4,0.636378,0.1629391,-0.11325984,-0.06282084,0.21034308,0.44803452,0.13110338,0.21446978,0.6237803,0.4054527,-0.17738989,-0.0925495,0.35755327,0.13440429,-0.39930224,-0.44231945,-0.25362632,803.44324,801.8315,796.5934,801.8315,757.1062,-0.3701171875,-0.0228271484375,0.93072509765625,4.5458984375,-4.246826171875,0.889739990234375,1,1.0,1.0,1.0,1.0,85.00
2021-04-12 09:12:59.617,0.6500809,0.47583956,0.59262455,0.83384454,0.17236601,0.040452205,0.276493,0.2744761,0.7166874,0.1813729,0.19954424,0.76644653,0.38635334,-0.2511497,-0.0614696,0.33580604,0.13944443,-0.43466392,-0.471013,-0.14810383,818.7546,807.47253,792.5641,812.3077,724.0659,-0.3736572265625,-0.02044677734375,0.931396484375,4.725341796875,-4.20196533203125,0.9869384765625,1,1.0,1.0,1.0,1.0,85.00
2021-04-12 09:13:00.121,0.5469573,0.48210824,0.675507,0.841468,0.017350445,0.060217384,0.3102931,0.31326497,0.688742,0.19505359,0.17909434,0.7599689,0.28001636,-0.2594972,-0.08926125,0.25177097,0.13045597,-0.56596166,-0.39390674,-0.10591748,812.3077,805.4579,795.78754,817.9487,752.27106,-0.37835693359375,-0.02728271484375,0.928466796875,4.837493896484375,-3.805694580078125,1.517791748046875,1,1.0,1.0,1.0,1.0,85.00
2021-04-12 09:13:00.631,0.43104067,0.40110898,0.5888179,0.6837809,-0.087193064,-0.04952321,0.18049149,0.19485581,0.6942516,0.16797826,0.052595798,0.7087554,0.24875082,-0.23840566,-0.109985486,0.2521444,0.11137479,-0.5328679,-0.34365046,-0.035971932,815.12823,803.8461,795.78754,813.5165,691.02563,-0.38470458984375,-0.0260009765625,0.92230224609375,4.47113037109375,-4.358978271484375,1.06170654296875,1,1.0,1.0,1.0,1.0,85.00
2021-04-12 09:13:01.134,0.15820509,-0.029007155,0.06723431,0.2967221,-0.2261654,-0.18639205,-0.20994726,0.085294805,0.45334473,0.04144402,-0.12931739,0.40389812,0.19296871,-0.1933476,-0.07722544,0.24362683,0.12310462,-0.5081971,-0.3649603,-0.12043123,790.14655,787.326,811.0989,807.0696,730.9158,-0.380126953125,-0.02398681640625,0.9288330078125,4.65057373046875,-5.86181640625,0.35888671875,1,1.0,1.0,1.0,1.0,85.00
2021-04-12 09:13:01.649,0.40141338,0.21147802,0.021360328,0.16314003,0.26475245,0.14202882,-0.32683048,0.14489232,0.46183556,0.2968981,-0.021828124,0.42233202,0.33403516,-0.10548165,-0.011540824,0.30272418,0.092212625,-0.510172,-0.39073005,-0.11544058,808.2784,816.337,796.5934,805.4579,742.6007,-0.37847900390625,-0.02496337890625,0.92730712890625,4.844970703125,-4.792633056640625,0.82244873046875,1,1.0,1.0,1.0,1.0,85.00
2021-04-12 09:13:02.154,0.5838584,0.43117812,0.23614919,0.18756545,0.43261153,0.22624595,-0.21372648,0.22798805,0.3952689,0.33832532,0.005644921,0.3786129,0.39155582,-0.049843345,0.10352307,0.36234286,0.08362953,-0.6115913,-0.40666857,-0.103283904,784.90845,810.293,798.20514,779.2674,697.8755,-0.38116455078125,-0.02398681640625,0.92840576171875,4.388885498046875,-4.463653564453125,0.73272705078125,1,1.0,1.0,1.0,1.0,85.00
2021-04-12 09:13:02.668,0.63676745,0.46981654,0.3159396,0.32575598,0.45611197,0.24545811,-0.16369063,0.41981244,0.4321516,0.34927645,0.10117127,0.4553876,0.42188993,-0.053488765,0.13002409,0.44631633,0.075616695,-0.67686874,-0.35142544,-0.10144839,805.4579,799.011,793.7729,800.2198,775.64105,-0.37322998046875,-0.025390625,0.92315673828125,4.85992431640625,-3.656158447265625,0.934600830078125,1,1.0,1.0,1.0,1.0,85.00
2021-04-12 09:13:03.179,0.7443484,0.30001846,0.26020935,0.6170004,0.38053262,0.07967488,-0.13994521,0.49325648,0.76193565,0.30050233,0.06751118,0.6478817,0.36034998,-0.16020434,0.100118116,0.5024835,0.08828023,-0.57104224,-0.37341487,-0.07843827,796.5934,800.6227,796.1905,801.4286,715.6044,-0.377685546875,-0.02935791015625,0.929443359375,4.42626953125,-4.792633056640625,0.83740234375,1,1.0,1.0,1.0,1.0,85.00
2021-04-12 09:13:03.697,0.8888232,0.30344164,0.46820143,0.72511345,0.3600893,0.083603926,0.034351025,0.53734756,0.7726608,0.32411703,0.22573406,0.6067877,0.33933952,-0.22005454,-0.012500238,0.5470972,0.08389495,-0.43479335,-0.45056328,-0.11285856,819.15753,803.0403,799.41394,819.15753,798.20514,-0.38104248046875,-0.0272216796875,0.92730712890625,5.076751708984375,-5.00946044921875,1.697235107421875,1,1.0,1.0,1.0,1.0,85.00
2021-04-12 09:13:04.206,0.96960384,0.41192448,0.61841255,0.70685333,0.52856946,0.20885514,0.06541825,0.44158992,1.1275063,0.35439596,0.2810706,0.9964297,0.2709208,-0.2473929,-0.16279216,0.42206502,-0.023293508,-0.41143212,-0.49337947,-0.08212671,818.7546,805.4579,800.6227,812.3077,871.9414,-0.38372802734375,-0.03173828125,0.9267578125,4.643096923828125,-4.538421630859375,0.91217041015625,1,1.0,1.0,1.0,1.0,85.00
2021-04-12 09:13:04.735,0.7375956,0.36114186,0.5725978,0.17195101,0.61161315,0.111418486,-0.05028258,0.5645386,1.1359562,0.35439596,0.25653318,1.0393561,0.12504679,-0.25934702,-0.15751906,0.19721314,-0.1531623,-0.4667333,-0.5487063,-0.24528351,814.3223,810.696,807.0696,813.1135,765.9707,-0.378662109375,-0.03082275390625,0.92498779296875,4.62066650390625,-4.65057373046875,0.964508056640625,1,1.0,1.0,1.0,1.0,85.00
2021-04-12 09:13:05.260,0.49109516,0.18900374,0.29473877,0.26493976,0.5742895,-0.045447595,-0.37293673,0.49940318,1.1397696,0.23570515,0.2407115,1.0420036,0.16877772,-0.26203835,-0.2002213,0.17956938,-0.10253387,-0.45006803,-0.55642813,-0.23711334,818.3516,805.05493,803.8461,822.381,782.49084,-0.38446044921875,-0.0294189453125,0.9261474609375,4.65057373046875,-4.104766845703125,1.263580322265625,1,1.0,1.0,1.0,1.0,85.00
2021-04-12 09:13:05.768,0.7834542,0.17443436,-0.3972177,0.7877819,0.61663145,-0.39789617,-0.5706073,0.6028146,1.1492237,0.020684212,-0.036027215,1.0201654,0.26685068,-0.26288185,-0.12869662,0.31674707,-0.07007542,-0.48228806,-0.66406274,-0.26868635,822.381,811.9048,796.1905,816.337,802.6374,-0.3800048828125,-0.034912109375,0.92340087890625,4.7552490234375,-4.53094482421875,1.009368896484375,1,1.0,1.0,1.0,1.0,85.00
2021-04-12 09:13:06.284,0.77977294,0.22264838,-0.46964106,0.7996019,0.53611267,-0.29664108,-0.5742716,0.54222417,0.8389024,0.06576297,0.0069439234,0.81764156,0.23984358,-0.15093285,-0.23706876,0.31505919,0.057765488,-0.53167343,-0.6566067,-0.31792748,811.9048,809.89014,808.68134,811.0989,728.9011,-0.3721923828125,-0.02960205078125,0.927490234375,5.001983642578125,-5.45806884765625,0.58319091796875,1,1.0,1.0,1.0,1.0,85.00
2021-04-12 09:13:06.789,0.74804175,0.10707101,-0.1622257,0.7868236,0.5808275,-0.26629993,-0.440294,0.5822988,0.7269938,0.06958291,0.014102102,0.82485056,0.2525098,-0.1372715,-0.26250878,0.3607612,0.078574374,-0.6367821,-0.6382264,-0.3324727,806.26373,807.0696,802.6374,810.696,782.0879,-0.37762451171875,-0.0321044921875,0.92529296875,4.8150634765625,-4.658050537109375,0.91217041015625,1,1.0,1.0,1.0,1.0,85.00
2021-04-12 09:13:07.299,0.09447243,-0.27588362,-0.11706782,0.20454383,0.39386684,-0.3060006,-0.31258363,0.3785083,0.5964786,-0.06514163,0.1313613,0.67451966,0.1812677,-0.10341176,-0.38917732,0.28323945,0.05723153,-0.60811317,-0.43834984,-0.22462636,803.44324,807.47253,798.60803,801.4286,706.7399,-0.3765869140625,-0.03179931640625,0.927734375,4.658050537109375,-4.6356201171875,0.665435791015625,1,1.0,1.0,1.0,1.0,85.00
2021-04-12 09:13:07.828,0.7196372,-0.026912723,-0.014738567,0.13612263,0.2921328,-0.42629704,-0.13801809,0.24596287,0.67128503,-0.19982965,0.15260628,0.6906417,0.26478216,-0.13887537,-0.27429834,0.29827735,-0.020527022,-0.52953094,-0.36469972,-0.15714838,794.17584,801.4286,808.68134,800.6227,728.0952,-0.3778076171875,-0.03173828125,0.934326171875,4.762725830078125,-3.850555419921875,1.323394775390625,1,1.0,1.0,1.0,1.0,85.00
2021-04-12 09:13:08.335,0.9625736,0.390772,0.13238262,-0.022158526,0.09166827,-0.11017248,-0.09336126,-0.04302478,0.51867586,0.062583975,0.09047798,0.35373294,0.25523263,-0.1614321,-0.17571895,0.2547684,-0.06422955,-0.4471735,-0.350793,-0.08670558,821.5751,813.1135,793.36993,823.5897,859.45056,-0.37335205078125,-0.03155517578125,0.922119140625,5.121612548828125,-4.964599609375,1.33087158203125,1,1.0,1.0,1.0,1.0,85.00
2021-04-12 09:13:08.843,1.2127047,0.9845769,0.8773642,0.006106776,0.2417514,0.4843328,0.27134445,-0.01916119,0.51867586,0.4137344,0.20886482,0.35373294,0.3103593,-0.058779076,-0.03302795,0.22709736,-0.04574,-0.4041453,-0.36514306,-0.08919045,832.4542,814.3223,799.81683,809.89014,738.97437,-0.373046875,-0.0333251953125,0.9227294921875,4.66552734375,-5.39825439453125,0.844879150390625,1,1.0,1.0,1.0,1.0,85.00
2021-04-12 09:13:09.355,0.8467405,1.0112389,0.9276259,0.503681,0.030335225,0.5065184,0.27757204,0.25405067,0.49255246,0.4137344,0.20886482,0.30695716,0.3252453,-0.032752648,-0.04737289,0.28369686,-0.18654306,-0.45895812,-0.3828521,-0.27611288,813.1135,806.26373,800.6227,801.4286,686.99634,-0.370361328125,-0.03289794921875,0.9310302734375,4.807586669921875,-4.71038818359375,1.1663818359375,1,1.0,1.0,1.0,1.0,85.00
