TimeStamp,Delta_TP9,Delta_AF7,Delta_AF8,Delta_TP10,Theta_TP9,Theta_AF7,Theta_AF8,Theta_TP10,Alpha_TP9,Alpha_AF7,Alpha_AF8,Alpha_TP10,Beta_TP9,Beta_AF7,Beta_AF8,Beta_TP10,Gamma_TP9,Gamma_AF7,Gamma_AF8,Gamma_TP10,RAW_TP9,RAW_AF7,RAW_AF8,RAW_TP10,AUX_RIGHT,Accelerometer_X,Accelerometer_Y,Accelerometer_Z,Gyro_X,Gyro_Y,Gyro_Z,HeadBandOn,HSI_TP9,HSI_AF7,HSI_AF8,HSI_TP10,Battery,Elements
2021-04-21 09:17:09.161,0.81661016,-0.060462337,-0.29937205,0.59855413,0.23397833,-0.023682758,-0.20492122,0.57158804,0.72412133,0.5921483,0.10753859,0.21186388,0.22892182,1.2352903,-0.029772637,0.31035575,-0.1841012,1.0868895,-0.2092048,-0.107375264,819.15753,835.6777,814.7253,816.337,815.5311,-0.32171630859375,0.010498046875,0.954833984375,3.050537109375,-2.100982666015625,1.607513427734375,1,1.0,1.0,1.0,1.0,100.00
2021-04-21 09:17:09.671,0.84862137,-0.054046184,-0.46843505,0.68785834,0.20151408,0.03625822,-0.31096017,0.37990454,0.44526812,0.5921483,0.10261321,0.31621632,0.45363536,1.2554117,0.03523094,0.4145694,0.03271243,1.0719619,-0.17916812,0.116143756,834.0659,793.36993,804.2491,825.6044,827.2161,-0.296142578125,0.01348876953125,0.96087646484375,4.77020263671875,-5.420684814453125,1.487884521484375,1,1.0,1.0,1.0,1.0,100.00
2021-04-21 09:17:10.184,0.9255896,-0.16791989,-0.39367747,0.6546397,0.10458411,0.0981814,-0.34771675,0.15678135,0.5565281,0.5354141,0.056771,0.35136893,0.5227748,1.2719878,0.059428137,0.4841446,0.16937816,1.1183609,-0.13933282,0.21635343,817.9487,796.5934,802.23444,815.9341,740.989,-0.34954833984375,0.00396728515625,0.94342041015625,3.925323486328125,1.21124267578125,-3.050537109375,1,1.0,1.0,1.0,1.0,100.00
2021-04-21 09:17:10.691,0.9051277,-0.056973934,-0.3059264,0.6599425,0.3709185,0.16319253,-0.33317372,0.42798176,0.8483219,0.5230367,-0.014399147,0.8297633,0.5368401,1.2690561,0.0904121,0.46454802,0.16429555,1.1606086,-0.17329754,0.11812979,808.68134,848.1685,812.3077,812.71063,789.7436,-0.38153076171875,-1.8310546875E-4,0.9210205078125,4.717864990234375,-2.968292236328125,-0.8074951171875,1,1.0,1.0,1.0,1.0,100.00
2021-04-21 09:17:11.207,1.0558368,-0.056973934,-0.04465563,0.9576195,0.5656074,0.16319253,-0.22918016,0.6803741,0.89549387,0.5230367,-0.05539655,0.88359004,0.44366676,1.2690561,0.07290636,0.35620946,0.07800964,1.1606086,-0.28069356,-0.023780784,816.337,821.1722,813.91943,814.7253,771.6117,-0.376220703125,-0.00787353515625,0.9290771484375,4.897308349609375,-5.93658447265625,0.889739990234375,1,1.0,1.0,1.0,1.0,100.00
2021-04-21 09:17:11.736,0.93542403,-0.056973934,0.09792484,0.93335235,0.6228197,0.16319253,-0.22028925,0.6728634,0.8728583,0.5230367,-0.06027435,0.88803667,0.3781224,1.2690561,0.054285232,0.31823817,-0.120200865,1.1606086,-0.32329392,-0.06968074,808.68134,796.5934,805.05493,807.8755,783.69965,-0.35784912109375,7.32421875E-4,0.93658447265625,4.942169189453125,-6.6094970703125,1.435546875,1,1.0,1.0,1.0,1.0,100.00
2021-04-21 09:17:12.260,0.7736809,-0.056973934,0.12192731,0.81900746,0.4193904,0.16319253,-0.1623391,0.46354303,0.85639864,0.5230367,-0.090138316,0.88889396,0.19532865,1.2690561,0.022751577,0.2144833,-0.19954929,1.1606086,-0.3874914,0.030339725,812.3077,826.0073,809.4872,814.3223,726.8865,-0.3603515625,-0.00634765625,0.93865966796875,4.68048095703125,-4.8748779296875,0.276641845703125,1,1.0,1.0,1.0,1.0,100.00
2021-04-21 09:17:12.766,0.23712896,-0.056973934,0.029646028,0.21681291,-0.07588023,0.16319253,-0.22089551,-0.017803492,0.35423344,0.5230367,-0.18803684,0.33005425,0.14220175,1.2690561,-0.030151015,0.29361913,-0.2424529,1.1606086,-0.4393466,0.031629387,808.68134,786.52014,798.60803,799.011,765.56775,-0.341064453125,-0.00482177734375,0.94012451171875,4.62066650390625,-5.241241455078125,1.55517578125,1,1.0,1.0,1.0,1.0,100.00
2021-04-21 09:17:13.299,0.10106345,-0.056973934,-0.029672664,0.1596453,-0.19563435,0.16319253,-0.109672606,-0.05975536,0.44317076,0.5230367,0.03774714,0.56606215,0.23377652,1.2690561,-0.10417291,0.31244093,-0.19801836,1.1606086,-0.505934,0.017168097,827.2161,789.34064,805.4579,811.9048,780.4762,-0.347900390625,-0.0042724609375,0.9403076171875,4.08233642578125,-4.2767333984375,0.73272705078125,1,1.0,1.0,1.0,1.0,100.00
2021-04-21 09:17:13.812,0.08728355,-0.056973934,0.1060542,0.14398712,-0.053048976,0.16319253,-0.087879136,-0.070720166,0.5926495,0.5230367,0.1843282,0.65046924,0.27400994,1.2690561,-0.06558406,0.34720746,-0.1591396,1.1606086,-0.414749,0.035276078,801.8315,840.10986,817.9487,801.4286,805.05493,-0.349365234375,-0.00982666015625,0.9384765625,4.478607177734375,-4.44122314453125,1.375732421875,1,1.0,1.0,1.0,1.0,100.00
2021-04-21 09:17:14.316,0.41248938,-0.056973934,0.15720874,0.2675507,0.05783314,0.16319253,-0.114469014,0.07463422,0.6939972,0.5230367,0.20828442,0.7329233,0.25340793,1.2690561,-0.045611665,0.35255304,-0.124156885,1.1606086,-0.34966955,0.032466292,807.47253,834.4689,811.0989,808.2784,735.7509,-0.34832763671875,-0.010498046875,0.9365234375,4.822540283203125,-3.66363525390625,1.0467529296875,1,1.0,1.0,1.0,1.0,100.00
2021-04-21 09:17:14.823,0.5680619,-0.056973934,0.17388222,0.46356624,0.10569521,0.16319253,-0.102038026,0.20015465,0.8501919,0.5230367,0.15864512,0.8543167,0.18936749,1.2690561,-0.007803398,0.35499248,-0.15726788,1.1606086,-0.34953618,0.004881994,822.7839,811.9048,810.293,818.7546,846.9597,-0.35595703125,-0.0084228515625,0.93359375,4.762725830078125,-4.089813232421875,1.21124267578125,1,1.0,1.0,1.0,1.0,100.00
2021-04-21 09:17:15.336,0.7768693,-0.056973934,0.38581112,0.66097426,0.1616121,0.16319253,-0.11176257,0.3578642,0.8569718,0.5230367,0.17094849,0.79493463,0.17018156,1.2690561,0.045734458,0.4102807,-0.15335152,1.1606086,-0.42113543,-0.046592925,820.3663,856.2271,817.9487,815.12823,679.7436,-0.36334228515625,-0.006591796875,0.9383544921875,4.658050537109375,-4.089813232421875,1.084136962890625,1,1.0,1.0,1.0,1.0,100.00
2021-04-21 09:17:15.840,0.6842319,-0.056973934,0.42715093,0.7123585,0.27273878,0.16319253,-0.15901951,0.41443357,0.8657687,0.5230367,0.14464006,0.8595532,0.1964775,1.2690561,0.08011641,0.3691216,-0.12488248,1.1606086,-0.31218913,0.115709685,824.7985,799.81683,807.47253,828.4249,736.55676,-0.36712646484375,-0.0091552734375,0.93280029296875,4.643096923828125,-4.42626953125,0.897216796875,1,1.0,1.0,1.0,1.0,100.00
2021-04-21 09:17:16.348,0.595591,-0.056973934,0.4242984,0.6017251,0.31100804,0.16319253,-0.3278028,0.28071463,0.80707276,0.5230367,0.14465852,0.90224767,0.18370235,1.2690561,0.125767,0.28255555,-0.10324671,1.1606086,-0.21624207,0.106384546,828.4249,816.7399,813.1135,821.978,747.8388,-0.36572265625,-0.01385498046875,0.93212890625,4.50103759765625,-4.658050537109375,1.428070068359375,1,1.0,1.0,1.0,1.0,100.00
2021-04-21 09:17:16.865,0.33625853,-0.056973934,0.24026014,0.40289629,0.21498601,0.16319253,-0.42150775,0.151779,0.7536727,0.5230367,0.1266735,0.90165675,0.14051011,1.2690561,0.09198432,0.19034398,-0.12064884,1.1606086,-0.11341446,0.04591302,815.9341,838.0952,811.9048,816.337,711.978,-0.36041259765625,-0.0145263671875,0.9388427734375,5.046844482421875,-3.94775390625,1.368255615234375,1,1.0,1.0,1.0,1.0,100.00
2021-04-21 09:17:17.372,0.30298275,-0.056973934,0.09680988,0.1482417,0.08125148,0.16319253,-0.57040054,-0.15988348,0.57261103,0.5230367,-0.06955342,0.79901314,0.09489403,1.2690561,0.050770294,0.15071006,-0.18739997,1.1606086,-0.12940972,-0.13855653,806.26373,794.9817,815.12823,811.9048,743.4066,-0.353271484375,-0.00830078125,0.9368896484375,4.598236083984375,-4.97955322265625,1.263580322265625,1,1.0,1.0,1.0,1.0,100.00
2021-04-21 09:17:17.886,0.23282216,-0.056973934,0.029490797,0.07381915,-0.07991599,0.16319253,-0.51291907,-0.26966694,0.4601898,0.5230367,-0.014888876,0.54431987,0.0755606,1.2690561,0.032219604,0.13547915,-0.18127298,1.1606086,-0.21346068,-0.1865196,818.3516,816.337,809.0842,815.5311,786.1172,-0.350341796875,-0.0155029296875,0.9356689453125,4.702911376953125,-5.151519775390625,0.777587890625,1,1.0,1.0,1.0,1.0,100.00
2021-04-21 09:17:18.412,0.44675165,-0.056973934,0.29250628,0.3006066,0.3296539,0.16319253,-0.47156498,0.04521695,0.64229786,0.5230367,-0.017543651,0.40828288,0.1314585,1.2690561,0.12617743,0.083487645,-0.32690006,1.1606086,-0.2354513,-0.23978175,826.0073,836.4835,817.5458,820.7692,754.68866,-0.34332275390625,-0.01177978515625,0.93939208984375,5.316009521484375,-5.330963134765625,1.5850830078125,1,1.0,1.0,1.0,1.0,100.00
2021-04-21 09:17:18.914,0.31083643,-0.056973934,0.49718243,0.16900885,0.25258029,0.16319253,-0.44788575,-0.047908634,0.6422893,0.5230367,0.09677239,0.50306076,0.13754684,1.2690561,0.16341545,0.31608087,-0.19925553,1.1606086,-0.21667592,-0.23452307,826.4103,780.07324,814.3223,815.12823,863.8828,-0.3424072265625,0.00421142578125,0.92108154296875,7.035675048828125,-4.0673828125,0.9271240234375,1,1.0,1.0,1.0,1.0,100.00
2021-04-21 09:17:19.434,0.2181314,-0.056973934,0.4774494,0.11092365,0.2068025,0.16319253,-0.47030193,-0.06754379,0.6367893,0.5230367,0.059826944,0.5128512,0.15908757,1.2690561,0.20804873,0.30113322,-0.13692285,1.1606086,-0.17278245,-0.24389483,809.4872,804.65204,808.68134,820.3663,713.1868,-0.319091796875,-0.00390625,0.94769287109375,8.05999755859375,-5.615081787109375,6.437530517578125,1,1.0,1.0,1.0,1.0,100.00
2021-04-21 09:17:19.940,-0.014751835,-0.056973934,0.30032265,0.003373632,0.03158791,0.16319253,-0.53121537,-0.07831733,-0.020335108,0.5230367,0.10411456,0.44031656,0.18924347,1.2690561,0.12070379,0.27246276,-0.10591114,1.1606086,-0.256599,-0.18173356,824.7985,840.9158,813.91943,813.5165,732.1245,-0.323974609375,0.01556396484375,0.95404052734375,5.644989013671875,-3.7384033203125,2.444915771484375,1,1.0,1.0,1.0,1.0,100.00
2021-04-21 09:17:20.465,-0.08650541,-0.056973934,0.06420337,0.103434086,-0.009700207,0.16319253,-0.21429953,0.18857142,0.008994626,0.5230367,0.09923239,0.3283051,0.18413118,1.2690561,0.09463145,0.2088471,-0.17925963,1.1606086,-0.37618995,-0.03671087,813.91943,845.34796,811.9048,815.5311,614.87177,-0.35028076171875,0.0118408203125,0.93890380859375,4.912261962890625,-3.51409912109375,1.68975830078125,1,1.0,1.0,1.0,1.0,100.00
2021-04-21 09:17:20.967,0.20575161,-0.056973934,0.10470479,0.34027842,0.15310411,0.16319253,-0.12614623,0.34065136,0.6463199,0.5230367,0.1257011,0.5395842,0.17712688,1.2690561,-0.042680904,0.228674,-0.18209669,1.1606086,-0.4495655,0.06986819,806.26373,808.68134,814.3223,811.50183,781.685,-0.3399658203125,-0.01153564453125,0.947509765625,4.5458984375,-4.59075927734375,1.278533935546875,1,1.0,1.0,1.0,1.0,100.00
2021-04-21 09:17:21.479,0.44264627,-0.056973934,0.27726755,0.41471988,0.37534747,0.16319253,0.038878392,0.4131221,0.93192625,0.5230367,0.32549244,0.8208239,0.1289616,1.2690561,0.0046868776,0.23942867,-0.1998848,1.1606086,-0.3917499,0.07596734,819.15753,830.84247,810.696,807.47253,725.2747,-0.3416748046875,-0.00677490234375,0.9443359375,4.844970703125,-4.822540283203125,2.213134765625,1,1.0,1.0,1.0,1.0,100.00
2021-04-21 09:17:22.012,0.63696694,-0.056973934,0.49098358,0.45790917,0.57095915,0.16319253,0.13660917,0.48197916,1.0151826,0.5230367,0.33260682,0.86654055,0.17974238,1.2690561,0.07529297,0.18744947,-0.15198596,1.1606086,-0.3481637,0.03465729,800.6227,813.1135,802.23444,800.2198,683.36993,-0.33612060546875,-0.006591796875,0.938720703125,4.8748779296875,-3.611297607421875,1.12152099609375,1,1.0,1.0,1.0,1.0,100.00
2021-04-21 09:17:22.515,0.76418054,-0.056973934,0.66923416,0.3799414,0.6341266,0.16319253,0.26751962,0.50574034,1.0191859,0.5230367,0.33895433,0.85588926,0.19063582,1.2690561,0.17169575,0.08916733,-0.21329214,1.1606086,-0.37180796,-0.020274322,830.0366,764.35895,800.2198,813.5165,941.2454,-0.3447265625,-0.0137939453125,0.94354248046875,4.0972900390625,-6.11602783203125,0.5084228515625,1,1.0,1.0,1.0,1.0,100.00
2021-04-21 09:17:23.048,0.7755986,-0.056973934,0.7697361,0.29544324,0.5587648,0.16319253,0.3277205,0.5371985,1.0111076,0.5230367,0.3855592,0.8330892,0.22103623,1.2690561,0.22004713,0.18735786,-0.15255138,1.1606086,-0.4516101,-0.019846782,822.7839,819.9634,815.12823,819.9634,620.5128,-0.3309326171875,-0.0198974609375,0.940673828125,5.0244140625,-3.072967529296875,1.921539306640625,1,1.0,1.0,1.0,1.0,100.00
2021-04-21 09:17:23.558,0.4753132,-0.056973934,0.73575467,0.28098643,0.26488245,0.16319253,0.35899353,0.50238353,0.5252297,0.5230367,0.3639363,0.6376904,0.14844632,1.2690561,0.18622729,0.3331908,-0.09081963,1.1606086,-0.40737128,-0.062079493,830.84247,785.7143,807.8755,828.022,742.1978,-0.32769775390625,-0.004638671875,0.944091796875,4.418792724609375,-5.465545654296875,1.30096435546875,1,1.0,1.0,1.0,1.0,100.00
2021-04-21 09:17:24.068,0.46713108,-0.056973934,0.596589,0.28247032,0.26098514,0.16319253,0.24687068,0.38408726,0.589852,0.5230367,0.30832055,0.6483544,0.18499337,1.2690561,0.11437719,0.31609243,-0.12496066,1.1606086,-0.35538188,-0.08786765,813.5165,816.7399,804.2491,817.1429,741.79486,-0.32470703125,-0.0067138671875,0.95172119140625,4.224395751953125,-5.136566162109375,0.67291259765625,1,1.0,1.0,1.0,1.0,100.00
2021-04-21 09:17:24.593,0.43286148,-0.056973934,0.29026082,0.27831137,0.21075182,0.16319253,0.08116654,0.42414722,0.58931136,0.5230367,0.25157663,0.75679415,0.21873464,1.2690561,7.470096E-5,0.25252926,-0.09644574,1.1606086,-0.3026343,-0.08095522,803.8461,827.619,805.4579,799.81683,808.68134,-0.3123779296875,-0.003662109375,0.9534912109375,4.8150634765625,-5.929107666015625,2.67669677734375,1,1.0,1.0,1.0,1.0,100.00
2021-04-21 09:17:25.117,0.6127171,-0.056973934,-0.06302456,0.5360136,0.26619595,0.16319253,-0.26997167,0.31957307,0.64897215,0.5230367,0.07329352,0.7014559,0.34575105,1.2690561,-0.048494376,0.28299004,-0.06057912,1.1606086,-0.24392907,0.10364425,819.9634,790.54944,807.0696,801.02563,816.7399,-0.31048583984375,-6.103515625E-5,0.95086669921875,5.06927490234375,-5.510406494140625,1.9439697265625,1,1.0,1.0,1.0,1.0,100.00
2021-04-21 09:17:25.644,0.7579604,-0.056973934,-0.32486576,0.87373894,0.5134973,0.16319253,-0.4640282,0.51518965,0.57881373,0.5230367,-0.13487503,0.63788885,0.37362963,1.2690561,0.045469966,0.3494756,0.015713058,1.1606086,-0.12829445,0.27239197,837.6923,824.3956,809.89014,821.978,787.72894,-0.29962158203125,0.0203857421875,0.957763671875,6.587066650390625,-1.6448974609375,4.20196533203125,1,1.0,1.0,1.0,1.0,100.00
2021-04-21 09:17:26.151,0.9414036,-0.056973934,-0.08098808,1.1031945,0.69342434,0.16319253,-0.5844638,0.5272222,0.6898636,0.5230367,-0.109733894,0.547859,0.43613046,1.2690561,0.13063484,0.44575903,0.20523465,1.1606086,-0.06756958,0.38658494,783.2967,797.3993,798.20514,794.57874,733.73627,-0.3348388671875,0.00787353515625,0.9476318359375,4.912261962890625,-8.47869873046875,0.022430419921875,1,1.0,1.0,1.0,1.0,100.00
2021-04-21 09:17:26.681,0.9210331,-0.056973934,0.17316204,1.1920377,0.79585046,0.16319253,-0.4087559,0.5751848,0.67846996,0.5230367,0.33098078,0.45572335,0.38940653,1.2690561,0.19084376,0.4222252,0.33453318,1.1606086,-0.04007081,0.35445958,802.23444,736.55676,803.0403,817.5458,1106.4469,-0.3048095703125,0.00347900390625,0.95697021484375,5.36834716796875,-6.676788330078125,3.6187744140625,1,1.0,1.0,1.0,1.0,100.00
2021-04-21 09:17:27.208,1.0096419,-0.056973934,0.3635998,1.2713238,0.71301556,0.16319253,-0.024042863,0.47096023,0.593816,0.5230367,0.39677337,0.36494362,0.37206122,1.2690561,0.16502133,0.48479328,0.32130077,1.1606086,-0.0808254,0.3533292,833.663,851.39197,810.696,819.5604,784.10254,-0.31982421875,0.009033203125,0.9486083984375,4.50103759765625,-4.972076416015625,0.441131591796875,1,1.0,1.0,1.0,1.0,100.00
2021-04-21 09:17:27.712,0.7282643,-0.056973934,0.51876557,1.2713238,0.5192454,0.16319253,-0.00733495,0.47096023,0.4617847,0.5230367,0.40377033,0.36494362,0.31748155,1.2690561,0.101844706,0.48479328,-0.04734099,1.1606086,-0.15329434,0.3533292,807.47253,794.57874,812.3077,802.23444,766.77655,-0.31475830078125,-0.0018310546875,0.944580078125,4.358978271484375,-3.566436767578125,0.85235595703125,1,1.0,1.0,1.0,1.0,100.00
2021-04-21 09:17:28.244,0.6530269,-0.056973934,0.52933854,0.30574736,0.40735114,0.16319253,0.19484906,-0.061807524,0.5799193,0.5230367,0.39952582,0.29716527,0.3097508,1.2690561,-0.013392578,-0.021539444,-0.1662755,1.1606086,-0.27178195,0.023762472,803.0403,814.3223,818.7546,796.1905,754.68866,-0.32745361328125,0.00396728515625,0.94500732421875,4.613189697265625,-3.282318115234375,1.682281494140625,1,1.0,1.0,1.0,1.0,100.00
2021-04-21 09:17:28.751,0.2865955,-0.056973934,0.6474154,0.30574736,0.20670705,0.16319253,0.26904586,-0.061807524,0.54362833,0.5230367,0.15540592,0.29716527,0.34546766,1.2690561,0.016861977,-0.021539444,-0.23463033,1.1606086,-0.37768,0.023762472,822.7839,839.304,803.0403,815.5311,697.47253,-0.32977294921875,0.002197265625,0.94342041015625,4.209442138671875,-4.17205810546875,1.278533935546875,1,1.0,1.0,1.0,1.0,100.00
2021-04-21 09:17:29.265,0.36062098,-0.056973934,0.56627446,0.3361966,0.009841435,0.16319253,0.31256336,-0.122594275,0.42478138,0.5230367,0.19572829,0.20117824,0.3573233,1.2690561,0.10112411,-0.01659685,-0.16869426,1.1606086,-0.35238838,0.05922368,822.381,817.5458,801.02563,818.3516,795.38464,-0.3404541015625,-0.00335693359375,0.94427490234375,4.23187255859375,-4.41131591796875,0.485992431640625,1,1.0,1.0,1.0,1.0,100.00
2021-04-21 09:17:29.775,-0.078844756,-0.056973934,0.5581348,-0.75605184,0.02589065,0.16319253,0.1318005,-0.42469317,0.46268898,0.5230367,0.19572829,0.5726503,0.16310073,1.2690561,0.095528044,0.3719167,6.762425E-4,1.1606086,-0.27786794,0.06982259,819.5604,825.6044,806.6667,808.68134,718.8278,-0.34686279296875,-0.00677490234375,0.940185546875,4.927215576171875,-5.09918212890625,1.1065673828125,1,1.0,1.0,1.0,1.0,100.00
2021-04-21 09:17:30.286,-0.1376015,-0.056973934,0.3240915,-0.28087327,0.1478898,0.16319253,0.089468345,-0.3426873,0.53379583,0.5230367,0.05319179,0.6346218,0.052731693,1.2690561,0.044090133,0.4278625,-0.10266757,1.1606086,-0.21240455,0.056702986,826.0073,830.4396,803.0403,818.7546,724.0659,-0.3348388671875,0.00140380859375,0.94561767578125,5.14404296875,-4.882354736328125,1.27105712890625,1,1.0,1.0,1.0,1.0,100.00
2021-04-21 09:17:30.795,-0.10557137,-0.056973934,0.299753,-0.19445956,0.026684834,0.16319253,0.14532045,-0.21205376,0.5633856,0.5230367,-0.038533714,0.6346218,-0.034406807,1.2690561,-0.033349693,0.35918677,-0.15427843,1.1606086,-0.20500496,0.00524705,807.8755,746.2271,799.81683,822.381,1006.9231,-0.3211669921875,0.006591796875,0.94830322265625,4.747772216796875,-5.7720947265625,0.538330078125,1,1.0,1.0,1.0,1.0,100.00
2021-04-21 09:17:31.306,0.02957117,-0.056973934,0.5599841,0.17945069,-0.022005921,0.16319253,0.2473795,-0.033507362,0.44988108,0.5230367,0.047984693,0.43279898,-0.10639294,1.2690561,0.029117405,0.33499178,-0.32859504,1.1606086,-0.21747828,-0.023138545,811.0989,849.3773,801.8315,805.4579,736.9597,-0.32989501953125,0.00445556640625,0.94464111328125,4.613189697265625,-3.4991455078125,0.171966552734375,1,1.0,1.0,1.0,1.0,100.00
2021-04-21 09:17:31.816,0.18224044,-0.056973934,0.65721446,0.3482465,-0.26426074,0.16319253,0.18807183,0.16614538,0.24143538,0.5230367,0.15580946,-0.08693918,-0.07346161,1.2690561,0.13801295,0.2378084,-0.36913052,1.1606086,-0.27238086,-0.068990044,804.65204,803.44324,817.9487,801.4286,722.8571,-0.32525634765625,7.32421875E-4,0.94781494140625,4.314117431640625,-5.196380615234375,2.325286865234375,1,1.0,1.0,1.0,1.0,100.00
2021-04-21 09:17:32.330,0.65841526,-0.056973934,0.77971745,0.73926747,-0.062122818,0.16319253,0.42379826,0.23614316,0.34123626,0.5230367,0.17983906,0.3417724,0.031444993,1.2690561,0.1948902,0.26315486,-0.34754205,1.1606086,-0.3182167,-0.020931985,784.90845,722.8571,811.9048,808.68134,1060.9158,-0.33758544921875,-0.00360107421875,0.94677734375,4.747772216796875,-4.05242919921875,1.443023681640625,1,1.0,1.0,1.0,1.0,100.00
2021-04-21 09:17:32.838,0.7504674,-0.056973934,0.6259937,0.63828117,0.087617606,0.16319253,0.45136437,0.16912878,0.6212295,0.5230367,0.295347,0.38095668,0.024124758,1.2690561,0.17376415,0.22919992,-0.26032266,1.1606086,-0.38449544,-0.006862646,803.0403,841.31866,806.26373,795.78754,802.23444,-0.3245849609375,-0.00189208984375,0.94793701171875,4.5458984375,-5.510406494140625,0.859832763671875,1,1.0,1.0,1.0,1.0,100.00
2021-04-21 09:17:33.351,0.82116807,-0.056973934,0.6610056,0.6421734,0.13805407,0.16319253,0.4455104,0.083590016,0.63427246,0.5230367,0.28620204,0.4871265,-0.003571104,1.2690561,0.074007004,0.24602534,-0.116890304,1.1606086,-0.37160078,-0.04431904,815.9341,792.96704,794.57874,820.7692,691.8315,-0.3358154296875,-0.0086669921875,0.94195556640625,4.777679443359375,-5.764617919921875,0.411224365234375,1,1.0,1.0,1.0,1.0,100.00
2021-04-21 09:17:33.867,0.6066199,-0.056973934,0.49892154,0.47777575,0.15530957,0.16319253,0.13755502,-0.024669373,0.63251114,0.5230367,0.2739252,0.46213436,0.015878854,1.2690561,-0.009359267,0.2918404,-0.06151578,1.1606086,-0.33406416,-0.14279392,815.9341,749.45056,797.3993,818.3516,1102.4176,-0.33941650390625,-0.00238037109375,0.9443359375,4.91973876953125,-2.878570556640625,0.52337646484375,1,1.0,1.0,1.0,1.0,100.00
2021-04-21 09:17:34.389,0.462498,-0.056973934,0.43971133,0.4853684,0.11591316,0.16319253,-0.19798586,-0.07312276,0.61173415,0.5230367,0.10985638,0.46079263,0.030401373,1.2690561,-0.04257718,0.31403312,-0.036167867,1.1606086,-0.36318353,-0.22179492,802.6374,853.00366,812.71063,802.6374,696.26373,-0.3328857421875,0.03558349609375,0.94549560546875,9.876861572265625,-6.407623291015625,1.682281494140625,1,1.0,1.0,1.0,1.0,100.00
2021-04-21 09:17:34.895,0.19077025,-0.056973934,0.19751425,0.2976121,0.15450434,0.16319253,-0.26446837,-0.090598844,0.3159774,0.5230367,-0.049767237,0.45951462,0.12357202,1.2690561,-0.071575955,0.3085789,-0.16370776,1.1606086,-0.29252735,-0.1961372,784.10254,793.36993,812.71063,794.9817,750.65936,-0.293701171875,0.0606689453125,0.94927978515625,2.609405517578125,-4.246826171875,0.83740234375,1,1.0,1.0,1.0,1.0,100.00
2021-04-21 09:17:35.398,0.5834497,-0.056973934,0.13687621,0.45463085,0.19206457,0.16319253,-0.15747623,0.039488822,0.32676944,0.5230367,0.119068086,0.47553438,0.18890211,1.2690561,-0.060389817,0.239051,-0.17836481,1.1606086,-0.35449335,-0.11670521,799.011,814.3223,806.26373,808.2784,680.9524,-0.318115234375,0.01019287109375,0.96307373046875,1.39068603515625,-7.0281982421875,-1.188812255859375,1,1.0,1.0,1.0,1.0,100.00
2021-04-21 09:17:35.923,0.8756633,-0.056973934,0.5311097,0.7728982,0.36782882,0.16319253,0.07609724,0.34006053,0.5741311,0.5230367,0.122107066,0.47665802,0.23621485,1.2690561,-0.03936563,0.19948973,-0.22477578,1.1606086,-0.36313814,-0.16454017,830.0366,820.3663,798.60803,810.293,713.5897,-0.329345703125,0.01513671875,0.95330810546875,4.23187255859375,-2.983245849609375,1.12152099609375,1,1.0,1.0,1.0,1.0,95.00
2021-04-21 09:17:36.445,1.0886209,-0.056973934,0.61508083,0.9763083,0.5495348,0.16319253,0.18181722,0.40637594,0.82934934,0.5230367,0.2577211,0.56863207,0.26374698,1.2690561,0.017885441,0.29880142,-0.065057434,1.1606086,-0.3625778,-0.10252983,813.5165,755.4945,803.8461,820.3663,931.5751,-0.32861328125,0.00885009765625,0.9473876953125,4.77020263671875,-3.00567626953125,1.2261962890625,1,1.0,1.0,1.0,1.0,95.00
2021-04-21 09:17:36.957,0.972505,-0.056973934,0.7964283,0.94604903,0.55836165,0.16319253,0.26385045,0.37480387,0.82782006,0.5230367,0.3697905,0.6155244,0.2858408,1.2690561,0.12079967,0.437382,-0.14312242,1.1606086,-0.3275767,-0.15320425,801.8315,840.9158,807.8755,798.20514,719.2308,-0.3331298828125,0.00433349609375,0.94586181640625,4.6954345703125,-5.1141357421875,0.7476806640625,1,1.0,1.0,1.0,1.0,95.00
2021-04-21 09:17:37.466,0.7562847,-0.056973934,0.6782303,0.7687343,0.4221836,0.16319253,0.112068504,0.28187275,0.8671261,0.5230367,0.38913804,0.6750153,0.29717347,1.2690561,0.12011462,0.4695237,-0.15914369,1.1606086,-0.25775695,-0.1531355,796.1905,781.685,787.72894,807.47253,875.56775,-0.32623291015625,0.00506591796875,0.9443359375,5.420684814453125,-4.538421630859375,1.727142333984375,1,1.0,1.0,1.0,1.0,95.00
2021-04-21 09:17:37.992,0.53333557,-0.056973934,0.702405,0.56220615,0.18169975,0.16319253,-0.07622115,0.24205144,0.66510034,0.5230367,0.39489648,0.65070575,0.3190175,1.2690561,0.15792805,0.47736794,-0.13243915,1.1606086,-0.2855198,-0.29423067,788.93774,760.7326,771.2088,776.04395,987.5824,-0.316650390625,0.01739501953125,0.956787109375,4.762725830078125,-6.38519287109375,1.5252685546875,1,1.0,1.0,1.0,1.0,95.00
2021-04-21 09:17:38.501,0.6870767,-0.056973934,0.75173736,0.74650747,0.32801467,0.16319253,-0.0251404,0.43796647,0.8786266,0.5230367,0.3239405,0.6706302,0.31166735,1.2690561,0.12828417,0.40975243,-0.046644002,1.1606086,-0.28260776,-0.2296537,762.3443,786.52014,745.82416,756.7033,647.1062,-0.3084716796875,0.01458740234375,0.953857421875,4.538421630859375,-3.985137939453125,1.12152099609375,1,1.0,1.0,1.0,1.0,95.00
2021-04-21 09:17:39.010,0.7412189,-0.056973934,0.952611,0.84649867,0.42534655,0.16319253,0.20302087,0.5121549,0.911513,0.5230367,0.39226943,0.7274047,0.32105505,1.2690561,0.26650152,0.4107325,-0.004324983,1.1606086,-0.2447165,-0.08301267,748.6447,723.663,721.2454,757.1062,801.8315,-0.30670166015625,0.0118408203125,0.9525146484375,4.164581298828125,-4.9346923828125,0.8673095703125,1,1.0,1.0,1.0,1.0,95.00
2021-04-21 09:17:39.526,0.76385653,-0.056973934,1.0140651,0.879194,0.40808183,0.16319253,0.3690881,0.609405,0.9094951,0.5230367,0.3778367,0.71036017,0.26171678,1.2690561,0.26612255,0.32141927,-0.0908913,1.1606086,-0.24540545,-0.005216255,753.0769,801.4286,767.1795,739.3773,778.0586,-0.31280517578125,0.01123046875,0.9486083984375,4.358978271484375,-4.134674072265625,1.323394775390625,1,1.0,1.0,1.0,1.0,95.00
2021-04-21 09:17:40.032,0.8366499,-0.056973934,1.0378971,0.8670022,0.39209253,0.16319253,0.35286474,0.79110456,0.9906721,0.5230367,0.3775668,1.0142404,0.25114262,1.2690561,0.3104749,0.29021436,-0.040959362,1.1606086,-0.20496511,-0.0021261498,790.54944,832.0513,785.7143,773.22345,888.46155,-0.31805419921875,5.4931640625E-4,0.9525146484375,4.53094482421875,-2.893524169921875,0.95703125,1,1.0,1.0,1.0,1.0,95.00
2021-04-21 09:17:40.555,1.0249379,-0.056973934,1.1638228,1.2948483,0.630658,0.16319253,0.3831639,1.031039,0.9766931,0.5230367,0.20745063,1.109284,0.3112499,1.2690561,0.29607847,0.46739423,-0.055396017,1.1606086,-0.1323267,-0.033776186,788.93774,800.6227,790.54944,775.64105,655.56775,-0.32080078125,0.0059814453125,0.9473876953125,4.463653564453125,-5.5328369140625,0.994415283203125,1,1.0,1.0,1.0,1.0,95.00
2021-04-21 09:17:41.082,1.1361074,-0.056973934,1.1638228,1.300513,0.76799095,0.16319253,0.3831639,0.9928915,0.9739645,0.5230367,0.20745063,1.109284,0.3783226,1.2690561,0.29607847,0.44486517,-0.0060872245,1.1606086,-0.1323267,-0.036104128,791.75824,823.5897,799.81683,794.57874,763.95605,-0.32513427734375,0.00408935546875,0.94793701171875,4.9945068359375,-3.99261474609375,1.099090576171875,1,1.0,1.0,1.0,1.0,95.00
2021-04-21 09:17:41.606,1.2564683,-0.056973934,1.1638228,1.293344,0.79968554,0.16319253,0.3831639,0.8056004,0.95263135,0.5230367,0.20745063,1.0784577,0.43330967,1.2690561,0.29607847,0.41179934,-0.14933562,1.1606086,-0.1323267,-0.057640176,800.6227,803.44324,794.9817,799.011,704.7253,-0.32366943359375,0.00537109375,0.95098876953125,4.583282470703125,-3.656158447265625,0.979461669921875,1,1.0,1.0,1.0,1.0,95.00
2021-04-21 09:17:42.133,1.2817153,-0.056973934,1.0566825,1.2199535,0.6960078,0.16319253,0.5753626,0.5801565,0.7375224,0.5230367,0.40236327,0.5360274,0.3818172,1.2690561,0.15046245,0.2139632,-0.17433943,1.1606086,-0.25763083,-0.14454569,810.293,816.337,812.71063,826.0073,782.8938,-0.31884765625,0.00634765625,0.9486083984375,4.5159912109375,-4.344024658203125,1.263580322265625,1,1.0,1.0,1.0,1.0,95.00
2021-04-21 09:17:42.653,0.8532525,-0.056973934,0.778179,0.9502758,0.116229855,0.16319253,0.5376504,0.46107435,0.022129394,0.5230367,0.4153893,0.5571127,0.21252625,1.2690561,0.08429121,0.14911598,0.06608651,1.1606086,-0.32367644,-0.14059965,820.7692,829.2308,828.8278,809.4872,706.337,-0.31915283203125,0.00677490234375,0.94580078125,4.4561767578125,-5.136566162109375,0.994415283203125,1,1.0,1.0,1.0,1.0,95.00
2021-04-21 09:17:43.162,0.7628869,-0.056973934,0.733338,0.74212873,0.20028345,0.16319253,0.44050056,0.32379103,0.2386827,0.5230367,0.45729658,0.56045747,0.14012557,1.2690561,0.07978709,0.20393261,0.025659699,1.1606086,-0.3803458,-0.1156042,817.5458,806.26373,809.4872,817.1429,698.68134,-0.32293701171875,-0.00274658203125,0.9503173828125,4.912261962890625,-3.686065673828125,1.6748046875,1,1.0,1.0,1.0,1.0,95.00
2021-04-21 09:17:43.678,0.66351074,-0.056973934,0.6998476,0.63799,0.4815504,0.16319253,0.3498453,0.6159134,0.851982,0.5230367,0.5362528,0.8247154,0.11008035,1.2690561,0.0763649,0.24234651,-0.046498217,1.1606086,-0.3889133,-0.1504697,818.3516,823.5897,804.2491,811.0989,759.12085,-0.33099365234375,0.00164794921875,0.94403076171875,4.029998779296875,-4.807586669921875,1.353302001953125,1,1.0,1.0,1.0,1.0,95.00
2021-04-21 09:17:44.203,0.4599128,-0.056973934,0.6119527,0.42101187,0.5133888,0.16319253,0.084839955,0.58107644,0.96675736,0.5230367,0.4711763,0.81024194,0.047392022,1.2690561,0.14722805,0.2778012,-0.05719895,1.1606086,-0.3427203,-0.21828426,812.3077,840.5128,826.8132,815.9341,683.7729,-0.33056640625,-0.00128173828125,0.94488525390625,4.6356201171875,-4.104766845703125,1.158905029296875,1,1.0,1.0,1.0,1.0,95.00
2021-04-21 09:17:44.731,0.4111447,-0.056973934,0.57699275,0.41519502,0.5066879,0.16319253,0.049261868,0.64920413,0.9683835,0.5230367,0.4711763,0.81154,0.23045701,1.2690561,0.15676095,0.30894816,-0.06144193,1.1606086,-0.29181558,-0.1896727,795.38464,794.57874,829.2308,800.6227,828.8278,-0.3404541015625,5.4931640625E-4,0.9471435546875,4.762725830078125,-4.299163818359375,1.353302001953125,1,1.0,1.0,1.0,1.0,95.00
2021-04-21 09:17:45.233,0.75906366,-0.056973934,0.32969418,0.710678,0.27925473,0.16319253,-0.044274967,0.5799984,0.82356715,0.5230367,0.17240927,0.47650775,0.33840016,1.2690561,0.06828893,0.3416273,-0.104670614,1.1606086,-0.31029525,-0.057995174,812.3077,849.3773,826.4103,811.50183,690.6227,-0.329833984375,-0.0084228515625,0.9461669921875,4.50103759765625,-4.329071044921875,1.338348388671875,1,1.0,1.0,1.0,1.0,95.00
2021-04-21 09:17:45.744,0.890801,-0.056973934,0.27303943,0.82127976,0.28586653,0.16319253,-0.0124338055,0.6858021,0.5880154,0.5230367,0.06141145,0.5798909,0.3927957,1.2690561,0.07680852,0.3282554,-0.19224678,1.1606086,-0.30483907,0.012778317,820.3663,807.8755,809.4872,816.337,774.0293,-0.33026123046875,-0.0010986328125,0.9501953125,5.1141357421875,-4.08233642578125,1.009368896484375,1,1.0,1.0,1.0,1.0,100.00
2021-04-21 09:17:46.265,0.847775,-0.056973934,0.27743328,0.8140181,0.23024173,0.16319253,-0.018825864,0.5410475,0.48141778,0.5230367,0.16422266,0.5871586,0.23632112,1.2690561,0.10132109,0.2736242,-0.29687044,1.1606086,-0.31418192,-0.013643833,831.6484,817.9487,806.26373,817.1429,819.15753,-0.3323974609375,-7.32421875E-4,0.94427490234375,4.9945068359375,-4.882354736328125,1.009368896484375,1,1.0,1.0,1.0,1.0,100.00
2021-04-21 09:17:46.770,0.46449652,-0.056973934,0.27367595,0.42939004,0.019995537,0.16319253,-0.11855723,0.1490985,0.49230924,0.5230367,0.15185517,0.59517366,0.15908568,1.2690561,0.10025,0.3319629,-0.23898627,1.1606086,-0.3028763,-0.1317644,824.7985,835.6777,809.89014,813.91943,684.57874,-0.3348388671875,-0.00213623046875,0.94598388671875,4.725341796875,-4.239349365234375,1.42059326171875,1,1.0,1.0,1.0,1.0,100.00
2021-04-21 09:17:47.295,0.2973679,-0.056973934,0.2363184,0.29745758,0.2508502,0.16319253,-0.1538532,0.22482866,0.4892323,0.5230367,0.2850727,0.5632995,0.12061526,1.2690561,0.011196407,0.35926014,-0.22951601,1.1606086,-0.22605667,-0.16735776,816.7399,794.17584,817.5458,828.4249,803.8461,-0.32403564453125,-8.544921875E-4,0.94879150390625,4.314117431640625,-5.959014892578125,0.43365478515625,1,1.0,1.0,1.0,1.0,100.00
2021-04-21 09:17:47.809,0.2855059,-0.056973934,0.23009726,0.3686597,0.25131595,0.16319253,-0.13213806,0.23775443,0.47014043,0.5230367,0.3313315,0.5745539,0.14942352,1.2690561,-0.029063499,0.39592472,-0.18484637,1.1606086,-0.19525065,-0.18482357,810.293,757.50916,805.4579,814.3223,1033.9194,-0.31207275390625,-0.00177001953125,0.9482421875,5.562744140625,-4.3365478515625,2.415008544921875,1,1.0,1.0,1.0,1.0,100.00
2021-04-21 09:17:48.322,0.2719143,-0.056973934,0.24014652,0.5461458,0.37193555,0.16319253,-0.034455974,0.28898248,0.461614,0.5230367,0.3692382,0.6173783,0.13991424,1.2690561,0.049586967,0.39440143,-0.17709626,1.1606086,-0.15480542,0.099463314,806.6667,857.4359,817.1429,807.0696,644.2857,-0.37322998046875,0.00567626953125,0.9327392578125,5.973968505859375,-6.6693115234375,-0.725250244140625,1,1.0,1.0,1.0,1.0,100.00
2021-04-21 09:17:48.843,0.54093003,-0.056973934,0.2527502,0.7405912,0.3156902,0.16319253,-0.081249766,0.388348,0.75650615,0.5230367,0.36052412,0.6730259,0.6147687,1.2690561,0.08868745,0.48248425,0.2762924,1.1606086,-0.12201163,0.44672203,817.9487,801.4286,813.91943,825.2015,736.55676,-0.32391357421875,0.0379638671875,0.95458984375,3.22998046875,1.74957275390625,1.77947998046875,1,1.0,1.0,1.0,1.0,100.00
2021-04-21 09:17:49.347,0.56525886,-0.056973934,0.697034,0.80585396,0.46150723,0.16319253,0.04408333,0.4923021,0.75650615,0.5230367,0.1441677,0.5696472,0.8024424,1.2690561,0.13792084,0.5501916,0.48387724,1.1606086,-0.10132939,0.6373509,780.87915,861.06226,800.6227,750.65936,707.9487,-0.3509521484375,0.04974365234375,0.9490966796875,3.910369873046875,6.437530517578125,-2.04864501953125,1,1.0,1.0,1.0,1.0,100.00
2021-04-21 09:17:49.852,0.56525886,-0.056973934,0.7861016,0.7288123,0.46150723,0.16319253,0.14327821,0.52742887,0.75650615,0.5230367,0.16526826,0.54307514,0.8024424,1.2690561,0.12645657,0.5661439,0.48387724,1.1606086,-0.104978405,0.66645473,786.9231,801.02563,793.36993,787.326,633.8095,-0.3741455078125,0.01605224609375,0.931884765625,3.297271728515625,-2.332763671875,-1.4654541015625,1,1.0,1.0,1.0,1.0,100.00
2021-04-21 09:17:50.362,1.3078268,-0.056973934,0.90697426,0.7288123,0.72471905,0.16319253,0.26214755,0.52742887,0.5641452,0.5230367,0.16619028,0.54307514,0.3940866,1.2690561,0.19831567,0.5661439,0.07636098,1.1606086,-0.21961403,0.66645473,813.91943,821.978,814.7253,816.337,789.34064,-0.37542724609375,-0.00115966796875,0.92083740234375,5.2935791015625,-5.443115234375,0.01495361328125,1,1.0,1.0,1.0,1.0,100.00
2021-04-21 09:17:50.871,1.3078268,-0.056973934,0.5535552,0.7288123,0.72471905,0.16319253,0.0019405112,0.52742887,0.5641452,0.5230367,0.1389811,0.54307514,0.3940866,1.2690561,0.22288178,0.5661439,0.07636098,1.1606086,-0.20414358,0.66645473,811.0989,838.49817,817.9487,815.9341,719.2308,-0.3701171875,0.00103759765625,0.9371337890625,4.867401123046875,-5.973968505859375,1.09161376953125,1,1.0,1.0,1.0,1.0,100.00
2021-04-21 09:17:51.388,1.1032909,-0.056973934,0.4279362,1.226455,0.5201549,0.16319253,-0.14018738,0.7074292,0.5641452,0.5230367,0.08272058,0.4630494,0.3059225,1.2690561,0.2077304,0.4233477,0.010479585,1.1606086,-0.22134882,-0.14023964,819.5604,803.8461,813.91943,819.15753,743.4066,-0.3446044921875,0.00323486328125,0.94024658203125,5.203857421875,-6.332855224609375,1.801910400390625,1,1.0,1.0,1.0,1.0,100.00
2021-04-21 09:17:51.919,0.14704776,0.18128839,0.108103685,0.70837986,0.20357776,0.06629045,-0.2358844,0.36983705,0.22567137,0.3038444,-0.017301284,0.42484704,0.17971072,1.0774659,0.12183969,0.17420721,-0.15409702,0.9922559,-0.27242425,-0.15661865,816.337,824.3956,807.0696,805.4579,738.1685,-0.33843994140625,0.00885009765625,0.94207763671875,4.7552490234375,-4.777679443359375,1.054229736328125,1,1.0,1.0,1.0,1.0,100.00
2021-04-21 09:17:52.443,0.42807704,0.3615051,0.23170356,0.70054305,0.21236424,0.2596886,-0.02094036,0.29161635,0.5301035,0.33295283,0.011569072,0.43629986,0.2154553,1.0741951,0.14818898,0.169971,-0.16567008,0.9045218,-0.2893219,-0.20509417,806.26373,826.8132,812.71063,809.0842,894.5055,-0.34051513671875,0.00836181640625,0.942626953125,4.613189697265625,-4.059906005859375,1.016845703125,1,1.0,1.0,1.0,1.0,100.00
2021-04-21 09:17:52.968,0.673211,0.44003773,0.40687433,0.9824932,0.284252,0.28850016,-0.024440264,0.42563814,0.77214515,0.32248226,0.22281705,0.8027018,0.28801355,1.046982,0.17924502,0.32193166,-0.21781318,0.9041982,-0.2571107,-0.23686075,823.1868,776.4469,814.3223,824.3956,928.7546,-0.341796875,0.00872802734375,0.945556640625,5.14404296875,-3.805694580078125,1.293487548828125,1,1.0,1.0,1.0,1.0,100.00
2021-04-21 09:17:53.492,0.81237894,0.5626723,0.5088295,1.0296129,0.24250922,0.43796447,-0.035872135,0.4657718,0.78222793,0.27084044,0.33068222,0.8257079,0.3457705,1.0633302,0.27027607,0.4371312,-0.18038645,0.71673745,-0.21886893,-0.24913864,825.6044,807.47253,817.5458,823.1868,743.8095,-0.3411865234375,0.0059814453125,0.9423828125,4.78515625,-4.53094482421875,1.054229736328125,1,1.0,1.0,1.0,1.0,100.00
2021-04-21 09:17:53.994,0.75934666,0.5626723,0.34979263,0.89741,0.2721955,0.43796447,-0.2065567,0.41920102,0.85176253,0.27084044,0.31777686,0.85512316,0.31834567,1.0633302,0.16997693,0.41947266,-0.1323273,0.71673745,-0.19634835,-0.22103114,792.1612,811.9048,812.71063,791.3553,815.5311,-0.35162353515625,-9.1552734375E-4,0.9368896484375,4.269256591796875,-5.121612548828125,1.128997802734375,1,1.0,1.0,1.0,1.0,100.00
2021-04-21 09:17:54.513,0.9757138,0.5626723,0.13397846,0.5514237,0.21374013,0.43796447,-0.26190746,0.32458514,0.79808396,0.27084044,0.31214112,0.83658445,0.35190627,1.0633302,0.14234638,0.35230732,-0.13299952,0.71673745,-0.2084442,-0.1808713,837.6923,819.9634,796.99634,812.71063,718.4249,-0.35052490234375,0.0023193359375,0.93902587890625,4.62066650390625,-4.239349365234375,1.8841552734375,1,1.0,1.0,1.0,1.0,100.00
2021-04-21 09:17:55.021,1.1936036,0.5626723,0.14351887,0.3269282,0.23202701,0.43796447,-0.3171907,0.17800221,0.89584893,0.27084044,0.06710582,0.6313165,0.4626224,1.0633302,0.068150334,0.21446683,-0.21285787,0.71673745,-0.2619469,-0.14638448,816.7399,823.5897,799.41394,809.89014,693.8461,-0.35540771484375,-0.00384521484375,0.93756103515625,4.344024658203125,-4.5159912109375,0.97198486328125,1,1.0,1.0,1.0,1.0,100.00
2021-04-21 09:17:55.530,1.2061796,0.032794315,0.28531155,0.40495735,0.09665787,-0.22705662,-0.26353946,0.1858296,0.8941772,0.53608626,0.021642081,0.59535533,0.5082577,1.1502193,0.13958575,0.20755826,-0.2807793,0.7286255,-0.32264283,-0.14475228,825.2015,782.49084,799.41394,817.5458,904.17584,-0.34149169921875,6.103515625E-5,0.93853759765625,5.21881103515625,-6.048736572265625,1.92901611328125,1,1.0,1.0,1.0,1.0,100.00
2021-04-21 09:17:56.032,1.000774,0.032794315,0.30187982,-0.04098514,0.12362322,-0.22705662,-0.20197557,0.14973663,0.91469854,0.53608626,0.04423999,0.20518032,0.47131342,1.1502193,0.06524839,0.1631854,-0.23181781,0.7286255,-0.2862302,0.098933816,825.2015,803.44324,813.5165,828.4249,694.2491,-0.3388671875,-0.00311279296875,0.93658447265625,4.71038818359375,-4.9346923828125,2.31781005859375,1,1.0,1.0,1.0,1.0,100.00
2021-04-21 09:17:56.541,0.3964649,0.06308024,0.19199878,0.13169937,0.152669,-0.22123557,-0.24565038,0.23213293,0.695577,0.41249317,0.11215291,0.38469934,0.27475676,1.1638856,0.07757481,0.12805802,-0.15236314,0.77565086,-0.24649741,0.039410833,824.7985,842.9304,810.696,807.47253,652.74725,-0.34979248046875,0.0078125,0.93798828125,5.27862548828125,-4.164581298828125,1.472930908203125,1,1.0,1.0,1.0,1.0,95.00
2021-04-21 09:17:57.051,0.13152425,0.10105073,0.24729577,0.12105264,0.24193886,-0.25419027,-0.28991118,0.29462934,0.4815166,0.2656098,0.008792875,0.3929447,0.20545138,1.1647509,0.017506514,0.12433677,-0.11235302,0.8277533,-0.16315976,-0.0125598395,809.89014,818.3516,809.0842,808.68134,793.36993,-0.3258056640625,0.01080322265625,0.93927001953125,4.3365478515625,-5.854339599609375,6.587066650390625,1,1.0,1.0,1.0,1.0,95.00
2021-04-21 09:17:57.569,0.07110215,0.1026102,0.46785167,0.07347632,0.18052718,0.06852742,-0.20663536,0.23636608,0.520056,0.29163218,0.042949215,0.3811717,0.24274412,1.0755408,0.016172538,0.28357896,-0.10689027,0.7064488,-0.20107767,-0.13940354,815.5311,797.8022,800.2198,811.0989,850.58606,-0.37298583984375,0.048095703125,0.93695068359375,4.0972900390625,-4.299163818359375,7.3272705078125,1,1.0,1.0,1.0,1.0,95.00
2021-04-21 09:17:58.070,0.2594131,0.081661746,0.5099243,0.021500591,0.23712504,0.06462102,-0.08378231,0.12705866,0.5781757,0.42676198,0.22237207,0.65500796,0.3292541,1.0883468,-0.068406925,0.3451162,-0.11815174,0.7487745,-0.24933854,-0.18707535,809.0842,826.0073,817.9487,801.8315,716.8132,-0.31610107421875,0.037109375,0.93316650390625,9.861907958984375,-6.38519287109375,-0.725250244140625,1,1.0,1.0,1.0,1.0,95.00
2021-04-21 09:17:58.579,0.39010406,-0.13490394,0.45995307,0.218229,0.33367702,-0.039930347,0.10361657,0.048164103,0.7646511,0.4199527,0.42380142,0.7205918,0.36468688,1.0676211,0.027967272,0.4150426,-0.12065976,0.9271042,-0.36969453,-0.1555148,787.326,809.89014,831.2454,787.326,745.42126,-0.3380126953125,0.068115234375,0.9412841796875,2.61688232421875,-4.867401123046875,2.07855224609375,1,1.0,1.0,1.0,1.0,95.00
2021-04-21 09:17:59.100,0.50241715,-0.37781617,0.51306885,0.3465263,0.4544567,-0.1184156,0.17086357,0.14334573,0.75886905,0.357285,0.47140503,0.7205918,0.33069688,1.0969566,0.12558146,0.333774,-0.11477909,0.9587039,-0.33042553,-0.12776496,809.4872,792.1612,808.68134,815.5311,960.58606,-0.32879638671875,0.04412841796875,0.94439697265625,4.329071044921875,-5.18890380859375,0.7177734375,1,1.0,1.0,1.0,1.0,95.00
2021-04-21 09:17:59.605,0.41172376,-0.44668224,0.98344636,0.41803417,0.4269703,-0.14671254,0.26602095,0.2175685,0.75886905,0.35629624,0.4809642,0.7205918,0.28569952,1.0874676,0.118608974,0.3503297,-0.09339055,0.96116036,-0.18073244,-0.075376794,823.1868,831.2454,802.6374,809.89014,640.65936,-0.32080078125,0.018798828125,0.94970703125,4.77020263671875,-4.433746337890625,0.770111083984375,1,1.0,1.0,1.0,1.0,95.00
2021-04-21 09:18:00.117,0.44695055,-0.5692195,1.0070945,0.42479524,0.4701958,-0.18192224,0.14077307,0.30433947,0.75886905,0.17463136,0.20983714,0.4490349,0.27242678,1.0883904,0.04505521,0.34736633,-0.06968815,0.8296146,-0.07075481,-0.043488905,827.619,807.47253,826.0073,826.4103,746.2271,-0.3297119140625,0.02618408203125,0.94256591796875,4.568328857421875,-4.94964599609375,1.09161376953125,1,1.0,1.0,1.0,1.0,95.00
2021-04-21 09:18:00.628,0.5526775,-0.5692195,1.0878572,0.5347169,-0.034244,-0.18192224,0.0928169,-0.048257843,0.07103931,0.17463136,0.4121284,0.097839564,0.31338114,1.0883904,-0.109018035,0.12174795,-0.050404374,0.8296146,-0.055553604,-0.21273686,814.3223,840.5128,795.78754,807.47253,673.69965,-0.32769775390625,0.02392578125,0.94329833984375,4.882354736328125,-4.089813232421875,1.33087158203125,1,1.0,1.0,1.0,1.0,95.00
2021-04-21 09:18:01.152,0.55731165,-0.5692195,0.87936586,0.53168046,0.23089904,-0.18192224,-0.11722161,0.010433856,0.36272383,0.17463136,0.34593725,0.45175973,0.26551753,1.0883904,-0.11034441,0.1914869,-0.06578864,0.8296146,-0.09041849,-0.25360197,825.6044,823.5897,817.9487,827.2161,678.1319,-0.3189697265625,0.01983642578125,0.94573974609375,5.30853271484375,-6.557159423828125,0.157012939453125,1,1.0,1.0,1.0,1.0,95.00
2021-04-21 09:18:01.676,0.6762684,0.22407517,0.98803943,0.58605516,0.33204967,0.0023354827,-0.064709365,0.17802614,0.6750358,0.78674394,0.34400186,0.71584624,0.18734816,1.2310667,-0.11570683,0.17851865,-0.12842654,1.025399,-0.18741788,-0.286246,801.4286,728.49817,801.02563,811.50183,1089.5238,-0.33734130859375,0.03253173828125,0.94683837890625,4.41131591796875,-4.687957763671875,0.859832763671875,1,1.0,1.0,1.0,1.0,95.00
2021-04-21 09:18:02.189,0.83093697,0.22407517,0.7424128,0.92592484,0.5439411,0.0023354827,-0.2937678,0.6073529,0.70834965,0.78674394,-0.2154086,0.823158,0.09871133,1.2310667,0.08517392,0.17154348,-0.18369617,1.025399,-0.25466365,-0.32466847,828.4249,848.97437,815.12823,816.337,707.1429,-0.3299560546875,0.014404296875,0.9456787109375,3.84307861328125,-3.529052734375,0.059814453125,1,1.0,1.0,1.0,1.0,95.00
2021-04-21 09:18:02.716,0.94452494,0.22407517,0.6103268,0.98993564,0.54166406,0.0023354827,-0.18980226,0.6516834,0.77597314,0.78674394,-0.09425523,0.8182307,0.080062225,1.2310667,0.07511819,0.13948554,-0.2032085,1.025399,-0.2126573,-0.33244905,808.2784,797.8022,809.0842,820.3663,691.4286,-0.33843994140625,0.01446533203125,0.9425048828125,4.725341796875,-4.26177978515625,1.547698974609375,1,1.0,1.0,1.0,1.0,95.00
2021-04-21 09:18:03.233,0.82473147,0.22407517,0.14530768,0.97458583,0.41025856,0.0023354827,-0.15188473,0.6595807,0.6173507,0.78674394,0.06818889,0.79730874,0.2313051,1.2310667,0.07072964,0.137499,-0.028639616,1.025399,-0.21611264,-0.2572522,815.12823,819.9634,802.6374,815.12823,779.2674,-0.32427978515625,0.019775390625,0.9464111328125,4.358978271484375,-5.0244140625,0.964508056640625,1,1.0,1.0,1.0,1.0,95.00
2021-04-21 09:18:03.744,0.5311212,0.22407517,0.07411295,0.612632,0.22641048,0.0023354827,0.039874543,0.2818197,0.6750427,0.78674394,0.15874936,0.58179724,0.15590456,1.2310667,0.0815836,0.22484212,-0.06357764,1.025399,-0.29012436,-0.25467685,807.8755,813.5165,797.8022,804.2491,715.6044,-0.3238525390625,0.01153564453125,0.946533203125,4.149627685546875,-4.269256591796875,1.218719482421875,1,1.0,1.0,1.0,1.0,95.00
2021-04-21 09:18:04.250,0.45939893,-0.049283918,0.52556175,0.58129925,0.31483394,-0.15353568,0.087041795,0.21514434,0.6361307,0.52507114,0.16451186,0.5399625,0.13486741,1.0504218,0.17153528,0.26795962,-0.045326877,0.74249536,-0.3832541,-0.22846358,817.5458,808.2784,804.2491,810.293,759.5238,-0.31927490234375,0.01611328125,0.9490966796875,4.4561767578125,-5.226287841796875,1.1065673828125,1,1.0,1.0,1.0,1.0,95.00
2021-04-21 09:18:04.769,0.4713144,-0.049283918,0.7409651,0.5396957,0.3953483,-0.15353568,0.16361636,0.2602211,0.629275,0.52507114,0.13865842,0.53986937,0.13578635,1.0504218,0.23136163,0.31080374,-0.021985356,0.74249536,-0.3895205,-0.14852849,790.54944,797.8022,810.696,799.81683,730.5128,-0.310791015625,0.01287841796875,0.95458984375,4.912261962890625,-4.418792724609375,1.06170654296875,1,1.0,1.0,1.0,1.0,95.00
2021-04-21 09:18:05.271,0.54292107,-0.049283918,0.8142392,0.53482485,0.36778682,-0.15353568,0.15274633,0.25781214,0.65461445,0.52507114,0.1316639,0.47297943,0.20248447,1.0504218,0.2038135,0.29290107,0.023856012,0.74249536,-0.23563397,-0.02603883,815.9341,811.0989,811.9048,818.7546,742.1978,-0.32354736328125,0.01336669921875,0.948974609375,4.78515625,-4.478607177734375,1.016845703125,1,1.0,1.0,1.0,1.0,95.00
2021-04-21 09:18:05.781,0.52192444,-0.049283918,0.5737593,0.32568178,0.25707722,-0.15353568,-0.0047280053,0.23875391,0.5191851,0.52507114,0.06234051,0.3117594,0.23676568,1.0504218,0.19933678,0.25052765,0.053359434,0.74249536,-0.22871529,-0.033785515,813.5165,817.5458,807.47253,815.9341,783.2967,-0.32275390625,0.01861572265625,0.95074462890625,4.837493896484375,-4.59075927734375,1.86920166015625,1,1.0,1.0,1.0,1.0,95.00
2021-04-21 09:18:06.290,0.41279516,-0.049283918,0.33002713,0.2866486,0.17909968,-0.15353568,-0.0035128156,0.18327622,0.46753332,0.52507114,0.12073625,0.4749501,0.24507917,1.0504218,0.19785655,0.14270867,0.030266754,0.74249536,-0.25118494,-0.09276793,815.12823,839.304,811.50183,810.696,774.43225,-0.32476806640625,0.01153564453125,0.95086669921875,5.03936767578125,-4.448699951171875,1.375732421875,1,1.0,1.0,1.0,1.0,95.00
2021-04-21 09:18:06.808,0.356718,-0.049283918,0.24627718,0.43749836,0.13410425,-0.15353568,-0.087891795,0.30624673,0.40314138,0.52507114,0.06978102,0.5567586,0.2660261,1.0504218,0.18950966,0.06781012,-0.027482659,0.74249536,-0.3004253,-0.20525156,822.381,811.9048,819.9634,828.8278,761.13556,-0.32373046875,0.01544189453125,0.94537353515625,4.91973876953125,-4.762725830078125,1.54022216796875,1,1.0,1.0,1.0,1.0,100.00
2021-04-21 09:18:07.314,0.3095958,-0.049283918,0.3557118,0.41791368,0.109582655,-0.15353568,0.06497073,0.31651273,0.2835554,0.52507114,0.13775109,0.5773093,0.2748506,1.0504218,0.12863931,0.052697364,-0.0982018,0.74249536,-0.2705114,-0.26869965,812.71063,804.65204,807.8755,807.0696,761.53845,-0.337646484375,0.01580810546875,0.94384765625,4.35150146484375,-4.463653564453125,0.9869384765625,1,1.0,1.0,1.0,1.0,100.00
2021-04-21 09:18:07.819,0.38895336,0.15789841,0.4234999,0.40734127,-0.112881474,0.1430694,-0.03571027,0.24338,0.29443845,0.45778888,-0.023676971,0.5687407,0.19588234,1.0161619,0.029900964,0.06960162,-0.022924874,0.83822477,-0.26237088,-0.23822488,813.91943,827.2161,799.81683,803.44324,727.6923,-0.3341064453125,0.01043701171875,0.94580078125,4.687957763671875,-4.42626953125,0.800018310546875,1,1.0,1.0,1.0,1.0,100.00
2021-04-21 09:18:08.321,0.4284116,0.14347434,0.33939505,0.30923936,-0.047220293,0.08829575,-0.12641068,0.091562286,0.17690249,0.45791888,0.00488107,0.45018157,0.1894406,1.0049151,-0.082951814,0.15631899,-0.032212365,0.7992617,-0.29074013,-0.22124994,805.4579,798.60803,808.2784,789.34064,740.58606,-0.33746337890625,0.012451171875,0.943603515625,4.844970703125,-6.108551025390625,1.383209228515625,1,1.0,1.0,1.0,1.0,100.00
2021-04-21 09:18:08.830,0.76829505,-0.0097112665,0.49902296,0.6895139,-0.043815177,0.013216724,-0.16521484,0.17116627,0.4781687,0.36203885,-0.01423895,0.3248189,0.23344329,0.99245954,-0.061120357,0.27697667,-0.060475137,0.79402703,-0.2694108,-0.13815242,806.26373,805.4579,811.0989,810.696,952.52747,-0.331787109375,0.01287841796875,0.9453125,4.643096923828125,-4.478607177734375,0.58319091796875,1,1.0,1.0,1.0,1.0,100.00
2021-04-21 09:18:09.331,0.87271345,0.11701868,0.667765,0.7799313,0.038554326,-0.028175663,0.17595243,0.29769188,0.59596235,0.32336333,-0.06940144,0.4814192,0.26701763,0.98450404,-0.01688384,0.362493,-0.14014012,0.7213324,-0.2467574,-0.20611724,814.3223,825.6044,810.696,819.5604,633.8095,-0.33209228515625,0.01043701171875,0.9410400390625,4.388885498046875,-4.448699951171875,1.4056396484375,1,1.0,1.0,1.0,1.0,100.00
2021-04-21 09:18:09.842,0.97342014,-0.05279469,0.6756751,0.82594377,0.06165826,-0.0021478885,0.23452227,0.33923322,0.59596235,0.37377325,0.03829072,0.5312623,0.2539917,1.0967216,0.076215684,0.3479711,-0.11074914,0.64756936,-0.21568078,-0.3083133,802.6374,796.1905,803.44324,813.91943,767.5824,-0.33453369140625,0.00787353515625,0.94049072265625,4.41131591796875,-5.420684814453125,0.276641845703125,1,1.0,1.0,1.0,1.0,100.00
2021-04-21 09:18:10.351,0.700485,-0.15305972,0.48423454,0.6402849,0.041028086,-0.09853434,0.21583715,0.19976708,0.6537894,0.44935408,-0.0698802,0.5309398,0.22930782,1.0531121,0.0525256,0.30902123,-0.02147992,0.511701,-0.30461866,-0.46452004,813.91943,816.337,806.26373,811.50183,769.19415,-0.33807373046875,0.00946044921875,0.94427490234375,4.38140869140625,-5.061798095703125,0.829925537109375,1,1.0,1.0,1.0,1.0,100.00
2021-04-21 09:18:10.853,0.3909406,-0.14826156,0.04275458,0.50327504,0.15041704,-0.14693715,-0.0070416373,0.16335316,0.5639785,0.44935408,-0.026808659,0.4904113,0.16790718,1.0285197,0.017629465,0.25151318,0.07689904,0.5346083,-0.30382937,-0.29944625,821.5751,830.4396,815.5311,815.5311,737.76556,-0.33685302734375,0.00531005859375,0.944091796875,4.74029541015625,-4.0972900390625,1.039276123046875,1,1.0,1.0,1.0,1.0,100.00
2021-04-21 09:18:11.378,0.31491116,-0.01934073,0.041710168,0.32553875,0.4076138,-0.12685421,-0.008220421,0.30936417,0.88169277,0.35750797,-0.01900083,0.6354462,0.21881932,0.95571417,0.030558232,0.36688125,0.036980968,0.7096095,-0.3400942,-0.20985898,809.89014,766.77655,811.0989,808.2784,891.28204,-0.32403564453125,0.00775146484375,0.95025634765625,4.605712890625,-4.777679443359375,0.859832763671875,1,1.0,1.0,1.0,1.0,100.00
2021-04-21 09:18:11.878,0.42849633,0.18006012,0.07401129,0.35593322,0.480482,-0.09331259,-0.1164056,0.4016981,1.0321187,0.35929617,-0.02616388,0.9558048,0.2433429,0.88664675,0.09008879,0.31278262,-8.8041555E-4,0.9213331,-0.26832455,-0.114152394,815.9341,819.5604,812.71063,806.26373,869.5238,-0.33489990234375,0.00738525390625,0.94329833984375,4.284210205078125,-4.388885498046875,0.59814453125,1,1.0,1.0,1.0,1.0,100.00
2021-04-21 09:18:12.392,0.64565855,0.23191062,0.36929575,0.60307103,0.595522,-0.03402584,-0.15107048,0.6114661,1.0848256,0.35929617,-0.030075723,1.0435883,0.32442552,0.8841544,0.094521314,0.34492382,-0.026440302,0.97196746,-0.26348102,-0.15974113,823.5897,825.6044,809.4872,814.7253,666.8498,-0.3358154296875,0.0084228515625,0.94561767578125,4.83001708984375,-4.239349365234375,1.27105712890625,1,1.0,1.0,1.0,1.0,100.00
2021-04-21 09:18:12.908,0.83990633,0.2672583,0.502341,0.69049835,0.5405663,-0.118372284,-0.14342603,0.5962654,1.0483629,0.058475286,-0.1123401,1.0619688,0.35439023,0.86660033,0.003763371,0.20007198,-0.05234688,0.98383063,-0.13735518,-0.17645898,824.3956,809.0842,805.05493,807.47253,829.2308,-0.3330078125,0.00860595703125,0.94903564453125,5.390777587890625,-5.540313720703125,1.114044189453125,1,1.0,1.0,1.0,1.0,100.00
2021-04-21 09:18:13.417,0.76158303,0.2672583,0.50096136,0.56696975,0.541914,-0.118372284,-0.17874163,0.5748365,1.0430001,0.058475286,-0.19342855,1.0591868,0.3113966,0.86660033,-0.058463674,0.19036219,-0.05249227,0.98383063,-0.16827643,-0.20012198,807.0696,826.4103,809.0842,802.6374,689.011,-0.3280029296875,0.01177978515625,0.94976806640625,4.822540283203125,-3.87298583984375,1.21124267578125,1,1.0,1.0,1.0,1.0,100.00
2021-04-21 09:18:13.928,0.6215953,0.2672583,0.33771703,0.3448093,0.41980797,-0.118372284,-0.16213816,0.38463205,0.93782246,0.058475286,-0.15106653,0.90661234,0.2652138,0.86660033,-0.09353474,0.10609493,-0.0143354,0.98383063,-0.20021938,-0.13878392,823.9927,805.8608,811.0989,813.91943,738.97437,-0.3311767578125,0.01336669921875,0.9447021484375,3.94775390625,-5.57769775390625,1.136474609375,1,1.0,1.0,1.0,1.0,100.00
2021-04-21 09:18:14.429,0.20990948,0.124334306,0.035458036,0.15379989,0.2901679,-0.032933455,-0.19736373,0.26948017,0.70992786,0.3774046,0.12678625,0.64244175,0.20814127,1.0842533,-0.09137405,0.13073172,0.031397816,0.7326441,-0.25298312,-0.086009175,801.4286,814.3223,811.0989,799.011,819.5604,-0.3294677734375,0.01531982421875,0.94683837890625,4.80010986328125,-5.091705322265625,2.52716064453125,1,1.0,1.0,1.0,1.0,100.00
2021-04-21 09:18:14.946,0.46606547,0.1907693,0.054992516,0.48198998,0.18208528,0.14689294,-0.025900383,0.21563606,0.7150741,0.59950733,0.19586734,0.6095494,0.2785186,1.0834535,-0.19432703,0.15836947,0.020263283,0.73520315,-0.26819462,-0.026607735,805.4579,832.8571,803.8461,800.2198,738.5714,-0.31097412109375,0.01239013671875,0.95062255859375,5.181427001953125,-5.682373046875,2.093505859375,1,1.0,1.0,1.0,1.0,100.00
2021-04-21 09:18:15.460,0.79619956,0.1617458,0.24600749,0.7232139,0.07685028,0.173488,0.11803323,0.1496947,0.6431686,0.5337042,0.23077415,0.71598953,0.26708513,1.0847691,-0.035549168,0.19708559,-0.13337716,0.65485084,-0.2903406,-0.01939079,812.71063,788.93774,819.9634,813.91943,777.25275,-0.30596923828125,0.0126953125,0.9525146484375,4.897308349609375,-3.880462646484375,1.973876953125,1,1.0,1.0,1.0,1.0,100.00
2021-04-21 09:18:15.980,0.80738956,0.28706434,0.5273868,0.7301639,0.011838116,0.3491971,0.17544982,0.07377036,0.5637751,0.46489486,0.25108448,0.65969646,0.26306152,1.0820503,0.08977877,0.17390849,-0.111004435,0.7396456,-0.27574658,-0.02571773,819.9634,779.67035,802.6374,811.9048,977.9121,-0.30621337890625,0.01287841796875,0.95166015625,4.568328857421875,-4.964599609375,1.256103515625,1,1.0,1.0,1.0,1.0,100.00
2021-04-21 09:18:16.503,0.6543145,0.30253628,0.61231965,0.5469836,0.049230233,0.2141705,0.16010396,0.17975762,0.543552,0.21219014,0.12157441,0.72741985,0.16788425,0.9850571,0.15371375,0.19130136,-0.01331144,0.936705,-0.16016276,-0.0945904,801.4286,824.7985,805.8608,800.2198,757.1062,-0.31683349609375,0.01318359375,0.95074462890625,4.5758056640625,-5.465545654296875,0.6878662109375,1,1.0,1.0,1.0,1.0,100.00
2021-04-21 09:18:17.009,0.5689284,0.30253628,0.586429,0.6996845,0.47187942,0.2141705,0.028176982,0.354422,0.8255445,0.21219014,0.09425968,0.85586834,0.3302278,0.9850571,0.18980685,0.28049672,0.06211386,0.936705,-0.16174659,-0.15433241,799.011,796.99634,807.47253,815.9341,763.95605,-0.3101806640625,0.01483154296875,0.94879150390625,4.5159912109375,-3.39447021484375,1.293487548828125,1,1.0,1.0,1.0,1.0,100.00
2021-04-21 09:18:17.527,0.7402784,0.34865192,0.2624082,0.81914705,0.691712,0.26441425,-0.12893882,0.5023275,0.8484947,0.4758924,0.05281817,0.84954214,0.44498172,0.9496895,0.14454147,0.38006482,0.07802237,0.8422698,-0.25810266,-0.14615759,812.71063,834.0659,812.3077,815.9341,770.40295,-0.3118896484375,0.0146484375,0.9515380859375,4.478607177734375,-4.373931884765625,1.173858642578125,1,1.0,1.0,1.0,1.0,100.00
2021-04-21 09:18:18.030,0.78917116,0.5139784,0.20163283,0.81610453,0.71204334,0.40913644,-0.054239728,0.5155226,0.8484947,0.53740287,0.2040691,0.83524084,0.44076887,0.9140117,0.20368776,0.43101877,0.08176109,0.7474348,-0.37043762,-0.14194939,818.7546,817.5458,802.6374,808.2784,702.3077,-0.32647705078125,0.01177978515625,0.94744873046875,4.897308349609375,-3.96270751953125,1.5252685546875,1,1.0,1.0,1.0,1.0,100.00
2021-04-21 09:18:18.546,0.60181516,0.5139784,0.032205716,0.41300198,0.41818896,0.40913644,-6.407776E-4,0.31078306,0.7115864,0.53740287,0.28919032,0.5824794,0.30495858,0.9140117,0.18267886,0.35836673,0.041990347,0.7474348,-0.38338676,-0.086326785,806.26373,809.89014,808.2784,813.5165,782.0879,-0.3258056640625,0.01495361328125,0.945556640625,4.4561767578125,-3.7384033203125,0.97198486328125,1,1.0,1.0,1.0,1.0,100.00
2021-04-21 09:18:19.054,0.41355827,0.5139784,-0.0067849015,0.27825215,0.2703407,0.40913644,-0.007020362,0.2980267,0.6698792,0.53740287,0.32033858,0.36294523,0.22835508,0.9140117,0.20933159,0.28218278,0.002493327,0.7474348,-0.3273405,-0.11991991,806.26373,821.5751,799.81683,804.2491,667.25275,-0.3226318359375,0.010498046875,0.94818115234375,4.957122802734375,-4.942169189453125,1.614990234375,1,1.0,1.0,1.0,1.0,100.00
2021-04-21 09:18:19.566,0.37295908,0.5139784,0.27268255,0.3587936,0.26760116,0.40913644,0.03959145,0.30800396,1.0474654,0.53740287,0.22423585,0.885182,0.27046412,0.9140117,0.20361678,0.21155532,-0.039940476,0.7474348,-0.20961778,-0.059112083,814.7253,818.7546,807.8755,817.1429,673.69965,-0.32611083984375,0.0157470703125,0.9454345703125,4.762725830078125,-4.149627685546875,1.398162841796875,1,1.0,1.0,1.0,1.0,100.00
2021-04-21 09:18:20.071,0.6181114,0.5139784,0.5876511,0.50912356,0.6034677,0.40913644,0.19793546,0.46528175,1.1267715,0.53740287,0.12979475,0.9302549,0.25680754,0.9140117,0.19768244,0.24757588,-0.03521136,0.7474348,-0.09446042,-0.028339427,823.1868,806.6667,814.7253,824.3956,776.8498,-0.33349609375,0.01556396484375,0.94354248046875,4.8748779296875,-4.104766845703125,0.800018310546875,1,1.0,1.0,1.0,1.0,100.00
2021-04-21 09:18:20.598,0.57014287,-0.21607707,0.5784021,0.46782798,0.5690736,0.04362189,0.18875816,0.48264652,1.1250936,-0.024239473,0.17810649,0.9302549,0.19679923,1.014857,0.15687819,0.25334346,-0.027787358,0.66763896,-0.08746788,0.011739451,831.6484,829.2308,810.293,819.5604,760.32965,-0.3277587890625,0.0076904296875,0.94647216796875,4.717864990234375,-4.358978271484375,1.65985107421875,1,1.0,1.0,1.0,1.0,100.00
2021-04-21 09:18:21.101,0.46505347,-0.15199375,0.41198662,0.53709465,0.4865112,-0.017276661,0.22676635,0.49002028,1.1139789,-0.004140638,0.23293707,0.861915,0.104294926,1.0143738,0.09855113,0.26526716,0.011179163,0.6314572,-0.15674962,-0.023819564,817.9487,778.0586,805.4579,825.6044,863.47986,-0.3372802734375,0.0111083984375,0.9437255859375,4.007568359375,-4.927215576171875,0.829925537109375,1,1.0,1.0,1.0,1.0,100.00
2021-04-21 09:18:21.610,0.29397076,-0.15199375,-0.21416698,0.47886482,0.044140775,-0.017276661,0.08935656,0.3611679,0.33630547,-0.004140638,0.23293707,0.4917705,0.06785651,1.0143738,0.077557795,0.23388068,-0.0048199124,0.6314572,-0.23931696,-0.08586094,808.68134,751.4652,802.6374,815.9341,1069.7803,-0.33563232421875,0.01251220703125,0.94189453125,4.56085205078125,-3.880462646484375,1.398162841796875,1,1.0,1.0,1.0,1.0,100.00
2021-04-21 09:18:22.113,0.3160263,0.17774718,-0.013857479,0.4130927,0.27708682,-0.024632176,0.049793642,0.39984348,0.34016404,0.16121407,0.21673454,0.51335186,0.17913282,0.9441541,0.04892597,0.2669434,-0.06406427,1.023952,-0.2653856,-0.035879217,813.1135,831.6484,805.8608,812.3077,765.9707,-0.33514404296875,0.00830078125,0.943603515625,4.628143310546875,-3.985137939453125,0.964508056640625,1,1.0,1.0,1.0,1.0,100.00
2021-04-21 09:18:22.622,0.2789263,0.17774718,0.017691324,0.089923956,0.2633259,-0.024632176,-0.2737414,0.2212279,0.20643142,0.16121407,0.16766527,0.35448855,0.1853034,0.9441541,-0.060758825,0.32616618,-0.16500825,1.023952,-0.2901016,-0.088472135,807.8755,791.3553,813.5165,813.1135,838.0952,-0.33526611328125,0.0067138671875,0.94476318359375,4.538421630859375,-4.538421630859375,0.814971923828125,1,1.0,1.0,1.0,1.0,100.00
2021-04-21 09:18:23.151,0.21966024,0.17774718,0.01476843,0.046847984,0.3005506,-0.024632176,-0.3550394,0.23211761,0.34501785,0.16121407,0.103370816,0.4240259,0.22947353,0.9441541,-0.15427674,0.37183654,-0.21737954,1.023952,-0.28936094,-0.06601139,780.4762,820.7692,821.5751,781.685,655.56775,-0.3380126953125,0.0064697265625,0.9434814453125,5.196380615234375,-3.94775390625,0.979461669921875,1,1.0,1.0,1.0,1.0,100.00
2021-04-21 09:18:23.657,0.27087763,0.17774718,0.16031414,0.07353689,0.17360528,-0.024632176,-0.2692701,0.14077666,0.34501785,0.16121407,0.097525865,0.32004023,0.18890867,0.9441541,-0.091391966,0.4031524,-0.205475,1.023952,-0.28214106,-0.14225523,811.50183,826.4103,827.619,807.8755,649.12085,-0.342041015625,0.00640869140625,0.9420166015625,4.643096923828125,-4.583282470703125,1.457977294921875,1,1.0,1.0,1.0,1.0,100.00
2021-04-21 09:18:24.184,0.47346938,0.17774718,0.77251637,0.4435219,0.27317077,-0.024632176,-0.04029728,0.4226123,0.8136428,0.16121407,0.14039026,0.69936514,0.19770621,0.9441541,-0.02599663,0.33961827,-0.2539076,1.023952,-0.2349895,-0.010537134,825.2015,814.3223,806.26373,823.1868,715.6044,-0.339599609375,0.00762939453125,0.94140625,4.65057373046875,-4.702911376953125,0.70281982421875,1,1.0,1.0,1.0,1.0,100.00
2021-04-21 09:18:24.696,0.46460643,0.17774718,0.851294,0.43161982,0.1645384,-0.024632176,0.07202453,0.4314352,0.7996419,0.16121407,0.05578753,0.7528462,0.4298136,0.9441541,0.12075577,0.40461072,0.119315006,1.023952,-0.31449378,-0.10210521,812.71063,826.8132,809.4872,810.696,710.7692,-0.33740234375,0.0086669921875,0.94207763671875,5.06927490234375,-5.809478759765625,1.218719482421875,1,1.0,1.0,1.0,1.0,100.00
2021-04-21 09:18:25.216,0.40168425,-0.06206477,0.7610335,0.41716987,0.053702578,0.14855388,0.10629974,0.35511458,0.80718595,0.07975839,0.16103674,0.79088396,0.3573741,0.9726156,0.17536029,0.37355188,0.062207494,0.89069736,-0.30735284,-0.13489623,827.619,783.69965,805.4579,821.5751,792.1612,-0.33270263671875,0.00537109375,0.94091796875,5.061798095703125,-4.358978271484375,0.79254150390625,1,1.0,1.0,1.0,1.0,100.00
2021-04-21 09:18:25.738,0.3623344,0.007474979,0.4170477,0.3373445,-0.10189878,0.17955157,0.14129397,0.18351455,0.52896166,0.28283295,0.25294176,0.5612844,0.3441398,0.93215615,0.162747,0.36445045,0.057097517,0.81460816,-0.32810962,-0.10560958,819.5604,808.2784,807.47253,799.81683,682.1612,-0.3236083984375,0.00897216796875,0.94677734375,4.777679443359375,-6.093597412109375,0.46356201171875,1,1.0,1.0,1.0,1.0,100.00
2021-04-21 09:18:26.256,0.5422876,0.052054137,0.36437663,0.4423782,-0.08356227,0.09730709,0.13065721,0.16506867,0.4915213,0.372447,0.25294176,0.5015317,0.30178088,0.92299163,0.08971025,0.30388016,0.0018503297,0.8613102,-0.2115354,0.06249169,803.8461,839.707,813.1135,806.6667,732.9304,-0.3372802734375,0.01641845703125,0.95166015625,4.9945068359375,-2.43743896484375,1.256103515625,1,1.0,1.0,1.0,1.0,100.00
2021-04-21 09:18:26.772,0.6932109,0.15480413,0.32927012,0.68843675,0.030039355,0.03799083,0.04105628,0.19439551,0.544399,0.3692828,0.19578987,0.4074257,0.30322018,0.9035718,0.059752274,0.34653988,0.082775004,0.8366578,-0.22162116,0.1655357,817.9487,805.05493,811.0989,817.5458,807.0696,-0.32135009765625,0.01837158203125,0.95269775390625,5.21881103515625,-1.263580322265625,1.86920166015625,1,1.0,1.0,1.0,1.0,100.00
2021-04-21 09:18:27.288,0.78137404,0.22752945,0.4342171,0.82172275,0.066170715,-0.24666367,0.34095365,0.26061696,0.50319344,0.3251764,0.14666289,0.37954405,0.29564905,0.919036,0.05420407,0.39352152,0.13388442,0.9270962,-0.26259074,0.2695452,811.0989,819.5604,794.17584,799.41394,775.64105,-0.36090087890625,7.32421875E-4,0.929931640625,3.63372802734375,-0.829925537109375,0.2392578125,1,1.0,1.0,1.0,1.0,100.00
2021-04-21 09:18:27.791,0.8319834,0.26925328,0.5853338,0.86260587,0.19992927,-0.24072595,0.48388168,0.55321115,0.32358667,0.27680588,0.25008726,0.50836104,0.27791873,0.9154486,0.06457434,0.45192316,0.2555364,0.9209744,-0.38631094,0.11238467,813.1135,785.7143,808.2784,820.3663,709.15753,-0.38421630859375,-0.0020751953125,0.92266845703125,4.179534912109375,-5.330963134765625,0.10467529296875,1,1.0,1.0,1.0,1.0,100.00
2021-04-21 09:18:28.294,1.3627925,0.26925328,0.858952,1.0191594,0.55654216,-0.24072595,0.55651,0.6216885,0.50798947,0.27680588,0.3451201,0.4119475,0.43049398,0.9154486,0.06923607,0.32956168,0.058255553,0.9209744,-0.43356374,0.07145242,813.91943,771.2088,805.4579,815.5311,1071.7949,-0.37176513671875,0.0054931640625,0.93658447265625,4.867401123046875,-3.887939453125,1.33087158203125,1,1.0,1.0,1.0,1.0,100.00
2021-04-21 09:18:28.801,1.1940686,0.26925328,0.7770892,0.91831,0.43236732,-0.24072595,0.3961912,0.5547234,0.5819947,0.27680588,0.34118164,0.4319122,0.35381335,0.9154486,0.113425404,0.2995779,0.04493689,0.9209744,-0.40852964,-0.001287459,813.1135,820.3663,815.5311,818.7546,758.71796,-0.366943359375,-0.0029296875,0.9359130859375,4.508514404296875,-5.4132080078125,0.979461669921875,1,1.0,1.0,1.0,1.0,100.00
2021-04-21 09:18:29.312,1.0866983,0.26925328,0.694901,0.8441734,0.3685346,-0.24072595,0.21614775,0.4789374,0.5943406,0.27680588,0.20365399,0.38968685,0.34290203,0.9154486,0.13178685,0.18359378,-0.024456296,0.9209744,-0.46149507,-0.07016391,809.4872,822.381,807.8755,807.47253,671.685,-0.35003662109375,0.0045166015625,0.94122314453125,5.181427001953125,-4.9346923828125,1.338348388671875,1,1.0,1.0,1.0,1.0,100.00
2021-04-21 09:18:29.835,0.15248281,0.26925328,0.22698353,0.01640802,0.13387704,-0.24072595,0.013675965,0.23795334,0.53085953,0.27680588,0.07191942,0.43591303,0.1526416,0.9154486,0.09797701,0.092849806,-0.06306499,0.9209744,-0.4250883,-0.123574525,817.5458,813.1135,799.81683,810.293,795.78754,-0.35174560546875,0.00714111328125,0.940185546875,5.0543212890625,-4.47113037109375,1.375732421875,1,1.0,1.0,1.0,1.0,100.00
2021-04-21 09:18:30.364,0.0389733,0.26925328,0.059506554,0.03175715,0.09538065,-0.24072595,-0.18087555,0.17652749,0.5194813,0.27680588,-0.10055121,0.47008142,0.12987146,0.9154486,0.048055522,0.17815024,-0.048606563,0.9209744,-0.40660438,-0.060602523,807.8755,811.0989,800.6227,803.8461,729.707,-0.34033203125,0.00811767578125,0.939697265625,4.987030029296875,-5.1141357421875,1.3458251953125,1,1.0,1.0,1.0,1.0,100.00
2021-04-21 09:18:30.869,0.20085198,0.26925328,-0.10991398,0.13682094,0.26018152,-0.24072595,-0.17286849,0.07012172,0.5404067,0.27680588,0.14507934,0.44823366,0.057430193,0.9154486,0.010183567,0.30006728,-0.040265217,0.9209744,-0.32425627,-0.095179066,816.7399,811.9048,808.68134,809.4872,660.0,-0.34344482421875,0.01080322265625,0.939453125,4.66552734375,-5.301055908203125,1.30096435546875,1,1.0,1.0,1.0,1.0,100.00
2021-04-21 09:18:31.379,0.5864931,0.26925328,-0.20315397,0.300266,0.31476873,-0.24072595,-0.0949622,0.15140794,0.6450777,0.27680588,0.24097376,0.61193866,0.33511928,0.9154486,0.09509973,0.42005026,0.036112987,0.9209744,-0.33622786,-0.09780748,804.65204,828.8278,815.9341,803.8461,749.0476,-0.3408203125,0.010498046875,0.94036865234375,4.5458984375,-4.598236083984375,0.46356201171875,1,1.0,1.0,1.0,1.0,100.00
2021-04-21 09:18:31.891,0.6923427,0.26925328,-0.27455354,0.5663168,0.37383115,-0.24072595,-0.073984645,0.28348526,0.62995136,0.27680588,0.27282774,0.59567595,0.3760656,0.9154486,0.19171198,0.4313613,0.006409905,0.9209744,-0.3434294,-0.14199328,818.7546,807.8755,811.9048,813.91943,759.5238,-0.34515380859375,0.01068115234375,0.9439697265625,4.777679443359375,-3.75335693359375,1.293487548828125,1,1.0,1.0,1.0,1.0,100.00
2021-04-21 09:18:32.395,0.81463176,0.26925328,-0.037686225,0.8037405,0.31970367,-0.24072595,-0.10505427,0.34239,0.59953934,0.27680588,0.29774782,0.7602365,0.44623008,0.9154486,0.1925521,0.45314762,0.047664072,0.9209744,-0.38564664,0.008359628,809.0842,803.8461,795.78754,805.05493,756.7033,-0.34783935546875,0.00933837890625,0.94140625,4.9346923828125,-4.9945068359375,1.532745361328125,1,1.0,1.0,1.0,1.0,100.00
2021-04-21 09:18:32.913,0.75091076,0.26925328,0.29870296,0.8451305,0.44209552,-0.24072595,0.008902669,0.5098832,0.5337392,0.27680588,0.34994382,0.7141815,0.41165614,0.9154486,0.18975113,0.33791777,0.0014098624,0.9209744,-0.37647268,0.020142801,798.60803,795.38464,805.8608,805.8608,830.4396,-0.364990234375,0.01324462890625,0.93402099609375,4.553375244140625,-4.314117431640625,1.2261962890625,1,1.0,1.0,1.0,1.0,100.00
2021-04-21 09:18:33.414,0.78126067,0.26925328,0.5223789,0.7192491,0.39444938,-0.24072595,0.12227312,0.3999605,0.5363001,0.27680588,0.23293045,0.6859102,0.42392877,0.9154486,0.24271418,0.25730208,0.04746272,0.9209744,-0.37284076,-0.022194503,800.6227,818.7546,803.0403,796.5934,696.6667,-0.35894775390625,0.01495361328125,0.933349609375,4.388885498046875,-4.08233642578125,1.45050048828125,1,1.0,1.0,1.0,1.0,100.00
2021-04-21 09:18:33.936,0.858222,0.26925328,0.6683023,0.67119193,0.45478538,-0.24072595,0.23448336,0.48618743,0.73263425,0.27680588,0.25005352,0.79094607,0.359785,0.9154486,0.32191533,0.330566,-0.0045418837,0.9209744,-0.33385652,-0.10445774,815.5311,794.9817,810.293,816.7399,864.2857,-0.3587646484375,0.01165771484375,0.93463134765625,4.6954345703125,-5.33843994140625,-0.01495361328125,1,1.0,1.0,1.0,1.0,100.00
2021-04-21 09:18:34.445,0.7599679,0.26925328,0.6394296,0.56159955,0.35882786,-0.24072595,0.16990706,0.3896569,0.78328305,0.27680588,0.32713857,0.73906994,0.21187502,0.9154486,0.2540995,0.38082236,-0.068024784,0.9209744,-0.21563263,-0.13875024,803.8461,828.8278,822.381,804.65204,818.7546,-0.36395263671875,0.01141357421875,0.9344482421875,4.53094482421875,-5.0244140625,0.49346923828125,1,1.0,1.0,1.0,1.0,100.00
2021-04-21 09:18:34.966,0.5837096,0.3010294,0.57555884,0.4822687,0.31326795,-0.19997197,0.062334504,0.42278263,0.7888376,0.22368754,0.32713857,0.7502752,0.15463552,0.71641594,0.08818311,0.4359919,-0.13725409,0.7802218,-0.21322423,-0.07488033,809.89014,822.381,837.6923,798.60803,678.93774,-0.35455322265625,0.00732421875,0.93377685546875,4.80010986328125,-4.20196533203125,1.256103515625,1,1.0,1.0,1.0,1.0,100.00
2021-04-21 09:18:35.478,-0.08852176,0.2078899,0.9180008,0.26099187,0.27518642,0.18254651,-0.07557378,0.32173455,0.83938414,0.55368745,0.264512,0.6592223,0.2110705,0.7906514,0.014257058,0.3634672,-0.17588368,0.701765,-0.16347024,-0.038907822,805.4579,753.47986,803.44324,816.337,1123.37,-0.34881591796875,0.0111083984375,0.93646240234375,4.269256591796875,-4.388885498046875,0.441131591796875,1,1.0,1.0,1.0,1.0,100.00
2021-04-21 09:18:35.979,-0.014317929,0.33754635,1.0719666,0.45567808,0.19696909,0.24250028,0.20528992,0.32957143,0.71964353,0.57195127,0.12748669,0.60993254,0.26026538,0.8056328,0.11773899,0.36728507,-0.18236102,0.7069486,-0.22070123,0.0035313268,795.38464,833.663,806.26373,778.86444,670.4762,-0.36187744140625,0.01019287109375,0.9342041015625,4.50103759765625,-4.179534912109375,0.83740234375,1,1.0,1.0,1.0,1.0,100.00
2021-04-21 09:18:36.510,0.47956932,0.38444158,1.1185672,0.76583886,0.29650465,0.48110935,0.2775187,0.36045808,0.7264045,0.55700696,0.15106651,0.44811746,0.26026094,0.8711101,0.17322919,0.25450477,-0.21076363,0.66018695,-0.29215226,-0.013417138,815.5311,759.5238,815.9341,825.6044,892.49084,-0.36224365234375,0.00714111328125,0.93145751953125,4.822540283203125,-3.895416259765625,1.188812255859375,1,1.0,1.0,1.0,1.0,100.00
2021-04-21 09:18:37.024,0.7372043,0.38444158,0.99316543,0.9265938,0.15053764,0.48110935,0.22108722,0.3328876,0.63844645,0.55700696,0.14600655,0.3546717,0.2357706,0.8711101,0.08493291,0.27132407,-0.18863462,0.66018695,-0.30902353,-0.0036554136,795.78754,796.1905,804.65204,808.68134,989.19415,-0.36395263671875,0.0064697265625,0.9405517578125,4.882354736328125,-3.87298583984375,1.278533935546875,1,1.0,1.0,1.0,1.0,100.00
2021-04-21 09:18:37.527,0.84192604,0.38444158,0.79780835,0.86423516,0.37176082,0.48110935,-0.011372564,0.49630693,0.5408776,0.55700696,0.12792557,0.6778603,0.19023275,0.8711101,0.012227987,0.097051255,-0.14710462,0.66018695,-0.2501882,-0.13583502,810.696,827.619,802.23444,807.8755,655.56775,-0.3585205078125,0.0072021484375,0.93719482421875,4.486083984375,-4.8150634765625,1.1065673828125,1,1.0,1.0,1.0,1.0,95.00
2021-04-21 09:18:38.057,0.6941869,0.38444158,0.70349276,0.45361552,0.37611908,0.48110935,0.014088473,0.53584343,0.55102414,0.55700696,0.098456725,0.776285,0.11682909,0.8711101,0.019326387,-0.026800185,-0.21260914,0.66018695,-0.1464005,-0.16818914,821.978,805.8608,818.7546,810.293,818.7546,-0.3604736328125,0.00701904296875,0.9375,4.7552490234375,-4.538421630859375,1.816864013671875,1,1.0,1.0,1.0,1.0,95.00
2021-04-21 09:18:38.583,0.41321987,0.0023507483,0.6857629,0.19385692,0.39221203,0.29021248,0.15208589,0.5516217,0.8735479,0.2394844,0.18608636,0.9221803,0.13513866,0.8365839,0.036028516,0.04676894,-0.28261167,0.8065464,-0.14380921,-0.14151494,811.9048,822.7839,811.0989,807.8755,688.60803,-0.36785888671875,0.00555419921875,0.92962646484375,4.5758056640625,-5.241241455078125,1.24114990234375,1,1.0,1.0,1.0,1.0,95.00
2021-04-21 09:18:39.106,0.14178203,0.11406192,0.7153246,0.22953126,0.30054563,0.2122692,0.06436585,0.44604912,0.9139276,0.27995834,0.27288467,0.9167969,0.17266381,0.9047163,0.09373461,0.09456488,-0.26361975,0.82379293,-0.20052035,-0.08468296,808.68134,803.0403,815.5311,796.1905,755.09155,-0.3480224609375,0.00994873046875,0.93328857421875,5.6524658203125,-7.46185302734375,2.9010009765625,1,1.0,1.0,1.0,1.0,95.00
2021-04-21 09:18:39.611,0.37383538,0.14837256,0.80360264,0.4372441,0.34828177,0.20287009,0.12504718,0.46355683,0.9214925,0.29180634,0.2613133,0.9563117,0.26616454,0.9333191,0.14640242,0.24786721,-0.1499621,0.80691713,-0.29306835,-0.12664469,820.3663,805.8608,814.7253,812.3077,750.65936,-0.3583984375,0.02532958984375,0.935546875,5.644989013671875,-4.6954345703125,2.295379638671875,1,1.0,1.0,1.0,1.0,95.00
2021-04-21 09:18:40.129,0.48572502,0.2551057,0.56104696,0.5376227,0.3545977,0.08172071,-0.0071062976,0.4303617,0.7234867,0.15615404,0.22594514,0.49360204,0.29949892,0.9969825,0.12274922,0.35497743,-0.090263896,0.81577617,-0.32189733,-0.15866971,783.2967,811.0989,782.49084,773.22345,739.3773,-0.3592529296875,0.00567626953125,0.9375,4.38140869140625,-4.32159423828125,1.398162841796875,1,1.0,1.0,1.0,1.0,95.00
2021-04-21 09:18:40.655,0.7736084,0.34550244,0.76483846,0.72569275,0.48437646,0.026604129,0.124437064,0.5373519,0.79039735,0.056711994,0.3826551,0.9207165,0.34660125,1.0452744,0.053431522,0.4803552,-0.07395401,0.76403487,-0.32250705,-0.18518251,765.16486,736.55676,752.27106,759.92676,850.18317,-0.36456298828125,0.01025390625,0.93023681640625,4.882354736328125,-5.151519775390625,0.665435791015625,1,1.0,1.0,1.0,1.0,95.00
2021-04-21 09:18:41.163,0.8532004,0.34550244,0.82890385,0.9333837,0.6698339,0.026604129,0.11034427,0.58911985,0.93149394,0.056711994,0.35913178,0.9757476,0.35508385,1.0452744,-0.052152663,0.5887606,-0.06638717,0.76403487,-0.30737674,-0.07909482,736.55676,768.3883,741.79486,724.87177,761.13556,-0.369873046875,0.0057373046875,0.9339599609375,5.166473388671875,-4.239349365234375,1.7645263671875,1,1.0,1.0,1.0,1.0,95.00
2021-04-21 09:18:41.691,0.86756784,0.34550244,1.0670865,0.968075,0.80527765,0.026604129,0.26385748,0.8405614,1.0063595,0.056711994,0.35913178,1.0649563,0.55590785,1.0452744,0.025716353,0.6679971,-0.012875154,0.76403487,-0.2810809,-0.0030520165,788.5348,790.14655,821.978,773.22345,674.90845,-0.3624267578125,0.0057373046875,0.9337158203125,4.837493896484375,-5.076751708984375,1.48040771484375,1,1.0,1.0,1.0,1.0,95.00
2021-04-21 09:18:42.199,0.78554296,0.34550244,1.0670865,0.90104103,0.86947495,0.026604129,0.26385748,1.0100983,1.0185305,0.056711994,0.35913178,1.0702668,0.51417017,1.0452744,0.025716353,0.5572852,-0.13114282,0.76403487,-0.2810809,-0.030239323,772.01465,753.0769,786.1172,772.01465,860.65936,-0.352294921875,0.00775146484375,0.93658447265625,5.18890380859375,-5.7421875,0.037384033203125,1,1.0,1.0,1.0,1.0,95.00
2021-04-21 09:18:42.703,0.75166327,0.34550244,1.0670865,0.7812967,0.8221932,0.026604129,0.26385748,0.96956855,1.0016876,0.056711994,0.35913178,1.065385,0.46367723,1.0452744,0.025716353,0.44000167,-0.18842185,0.76403487,-0.2810809,-0.06792797,803.0403,822.7839,819.9634,799.41394,724.4689,-0.35791015625,0.01141357421875,0.93243408203125,5.061798095703125,-5.316009521484375,1.5252685546875,1,1.0,1.0,1.0,1.0,95.00
2021-04-21 09:18:43.213,0.8830947,0.34550244,1.0670865,0.7378765,0.7540619,0.026604129,0.26385748,0.8559911,0.9296405,0.056711994,0.35913178,0.99334574,0.193858,1.0452744,0.025716353,0.22655009,-0.28624338,0.76403487,-0.2810809,-0.13125885,775.2381,813.5165,828.8278,779.67035,734.94507,-0.35595703125,0.0067138671875,0.93682861328125,4.78515625,-4.029998779296875,0.91217041015625,1,1.0,1.0,1.0,1.0,95.00
2021-04-21 09:18:43.723,1.0634078,0.34550244,1.0670865,0.8830008,0.988351,0.026604129,0.26385748,0.76917976,0.8434343,0.056711994,0.35913178,0.81624866,0.30638418,1.0452744,0.025716353,0.30858484,-0.15174033,0.76403487,-0.2810809,-0.15962051,797.8022,788.93774,799.011,798.60803,778.46155,-0.35052490234375,0.0093994140625,0.9344482421875,5.1141357421875,-4.38140869140625,1.368255615234375,1,1.0,1.0,1.0,1.0,95.00
2021-04-21 09:18:44.235,1.0522116,0.34550244,1.0670865,1.1375648,1.0748407,0.026604129,0.26385748,0.98027015,0.91324687,0.056711994,0.35913178,0.87653464,0.44362846,1.0452744,0.025716353,0.5210662,-0.017805304,0.76403487,-0.2810809,-0.16454922,799.011,818.3516,794.9817,804.65204,763.95605,-0.3541259765625,0.009521484375,0.9349365234375,4.71038818359375,-4.463653564453125,1.45050048828125,1,1.0,1.0,1.0,1.0,95.00
2021-04-21 09:18:44.745,0.9039437,0.34550244,1.1241223,1.056832,1.0360076,0.026604129,0.67541796,1.0529386,1.1686475,0.056711994,0.88285416,1.102387,0.47857195,1.0452744,0.38403597,0.5546413,-0.07425304,0.76403487,-0.23493852,-0.10589389,773.22345,804.2491,819.9634,774.0293,757.50916,-0.3634033203125,0.0087890625,0.93670654296875,4.78515625,-3.775787353515625,1.278533935546875,1,1.0,1.0,1.0,1.0,95.00
2021-04-21 09:18:45.276,0.7384967,0.34550244,1.1241223,0.92751586,0.89537066,0.026604129,0.67541796,0.95347786,1.2005312,0.056711994,0.88285416,1.1410043,0.52454036,1.0452744,0.38403597,0.6364286,-0.11999905,0.76403487,-0.23493852,-0.038845334,790.9524,795.38464,873.95605,783.69965,690.2198,-0.3623046875,0.00927734375,0.93426513671875,5.084228515625,-4.553375244140625,1.6748046875,1,1.0,1.0,1.0,1.0,95.00
2021-04-21 09:18:45.792,1.0639349,0.34550244,1.1241223,0.9964783,0.83313996,0.026604129,0.67541796,0.90334153,1.1994025,0.056711994,0.88285416,1.1410043,0.5562967,1.0452744,0.38403597,0.6389347,-0.2743654,0.76403487,-0.23493852,-0.08477277,835.2747,852.1978,888.86444,832.0513,751.8681,-0.3603515625,0.00860595703125,0.92840576171875,4.344024658203125,-5.562744140625,1.7645263671875,1,1.0,1.0,1.0,1.0,95.00
2021-04-21 09:18:46.326,1.2360276,0.34550244,1.1253071,1.0423865,0.8502641,0.026604129,0.59834385,0.68594426,1.1559609,0.056711994,0.8406136,1.0369232,0.55361897,1.0452744,0.4698659,0.6403962,-0.29222673,0.76403487,0.03836117,-0.13884097,813.91943,764.35895,845.7509,810.293,948.0952,-0.35699462890625,0.01153564453125,0.9356689453125,4.583282470703125,-4.792633056640625,1.517791748046875,1,1.0,1.0,1.0,1.0,95.00
2021-04-21 09:18:46.835,1.337711,0.34550244,1.2835783,1.2105049,0.85838306,0.026604129,0.5322922,0.76356506,1.1246616,0.056711994,0.92026526,0.8764484,0.43942514,1.0452744,0.48031092,0.45212033,-0.15332548,0.76403487,0.08793368,-0.29062203,833.2601,821.5751,861.4652,832.4542,1009.34064,-0.3612060546875,0.00860595703125,0.93438720703125,4.7552490234375,-4.32159423828125,0.95703125,1,1.0,1.0,1.0,1.0,95.00
2021-04-21 09:18:47.348,1.2039618,0.34550244,1.3198034,1.2368876,0.7563562,0.026604129,0.6219024,0.80244744,0.416894,0.056711994,0.9828031,0.67026156,0.2752098,1.0452744,0.41834125,0.3066332,-0.10516659,0.76403487,0.07003619,-0.1646526,827.2161,808.68134,861.06226,836.08057,775.2381,-0.36468505859375,0.0010986328125,0.93133544921875,4.448699951171875,-5.7421875,0.814971923828125,1,1.0,1.0,1.0,1.0,95.00
2021-04-21 09:18:47.867,1.0990971,0.34550244,1.233297,1.1612669,0.6062046,0.026604129,0.6252445,0.78911835,0.7088557,0.056711994,0.9828031,0.7640028,0.22885402,1.0452744,0.36697495,0.28494835,-0.120832674,0.76403487,0.12906232,-0.2621754,809.89014,808.68134,849.7802,803.8461,823.9927,-0.3555908203125,0.00994873046875,0.93475341796875,5.084228515625,-4.90478515625,1.614990234375,1,1.0,1.0,1.0,1.0,95.00
2021-04-21 09:18:48.394,1.0104783,0.7395015,1.0846281,1.1747714,0.7016931,0.32412747,0.6041981,0.7937972,1.254466,0.5706125,0.84258574,1.1279137,0.10311514,0.8737458,0.30771884,0.37645745,-0.21095124,0.7420223,0.04439085,-0.28396586,834.0659,852.1978,842.52747,826.8132,728.49817,-0.359375,0.006103515625,0.93621826171875,4.80010986328125,-4.3365478515625,1.502838134765625,1,1.0,1.0,1.0,1.0,95.00
2021-04-21 09:18:48.909,0.8645292,0.7395015,0.7868935,1.0292875,0.69199055,0.32412747,0.39174998,0.780414,1.254466,0.5706125,0.52610093,1.1290482,0.10144267,0.8737458,0.26593527,0.44956294,-0.2677866,0.7420223,-0.07842584,-0.22455391,834.87177,816.337,817.1429,830.4396,721.2454,-0.345703125,0.00341796875,0.939208984375,4.433746337890625,-4.9346923828125,0.85235595703125,1,1.0,1.0,1.0,1.0,95.00
2021-04-21 09:18:49.432,0.9026303,0.6456514,0.7873113,1.012997,0.7004517,0.27949476,0.18500142,0.7276692,1.2467427,0.54101056,0.19497629,1.1256882,0.13862275,0.9111478,0.16670911,0.4304593,-0.27912685,0.7471539,-0.22774507,-0.14685856,810.293,814.3223,803.44324,808.68134,916.26373,-0.34918212890625,0.0045166015625,0.9359130859375,4.8150634765625,-5.196380615234375,0.46356201171875,1,1.0,1.0,1.0,1.0,95.00
2021-04-21 09:18:49.944,0.8291027,0.6456514,0.7148127,0.8144257,0.2822993,0.27949476,-0.088682145,0.46368554,1.1035155,0.54101056,0.0903581,0.9494956,0.19125968,0.9111478,0.13027701,0.29719144,-0.36488867,0.7471539,-0.08676952,-0.17832205,831.6484,830.4396,810.696,836.8865,697.47253,-0.3570556640625,0.002197265625,0.93975830078125,4.777679443359375,-4.478607177734375,1.24114990234375,1,1.0,1.0,1.0,1.0,95.00
2021-04-21 09:18:50.467,0.89814186,0.6456514,0.7046593,0.8510925,0.24641632,0.27949476,0.06680607,0.50181824,0.43983978,0.54101056,0.12030874,0.6389727,0.1601834,0.9111478,0.14385124,0.12692297,-0.436275,0.7471539,-0.003123628,-0.15290622,826.0073,770.40295,797.8022,829.6337,954.5421,-0.3509521484375,0.00469970703125,0.93060302734375,4.85992431640625,-4.119720458984375,0.889739990234375,1,1.0,1.0,1.0,1.0,95.00
2021-04-21 09:18:50.971,0.8831771,0.6456514,0.61684227,0.8428347,0.24477221,0.27949476,0.19835931,0.4451218,0.46793887,0.54101056,0.15658519,0.6877689,0.15313397,0.9111478,0.1786557,0.20824672,-0.40526506,0.7471539,0.043756165,-0.14622203,815.9341,823.9927,805.4579,813.5165,655.56775,-0.35467529296875,0.00360107421875,0.9395751953125,4.6954345703125,-4.78515625,1.054229736328125,1,1.0,1.0,1.0,1.0,95.00
2021-04-21 09:18:51.477,0.7905125,0.6456514,0.42991298,0.78150415,0.5236631,0.27949476,0.20660631,0.6028699,0.61086804,0.54101056,0.16234347,0.7495091,0.18013127,0.9111478,0.1545183,0.25718507,-0.37413794,0.7471539,-0.013382229,-0.16764867,830.84247,839.304,807.0696,817.9487,647.9121,-0.3544921875,0.00299072265625,0.93267822265625,4.80010986328125,-4.613189697265625,1.323394775390625,1,1.0,1.0,1.0,1.0,95.00
2021-04-21 09:18:51.990,0.6424098,0.6456514,0.47826794,0.57764584,0.56117654,0.27949476,0.072865844,0.4824392,0.6632105,0.54101056,0.19021182,0.7495091,0.26067215,0.9111478,0.12784727,0.27102026,-0.335929,0.7471539,-0.009215895,-0.32099602,796.99634,779.2674,808.2784,815.12823,957.3626,-0.34619140625,0.00360107421875,0.937744140625,5.390777587890625,-3.850555419921875,1.21124267578125,1,1.0,1.0,1.0,1.0,95.00
2021-04-21 09:18:52.500,0.5259374,0.6456514,0.3542707,0.4159012,0.60986686,0.27949476,-0.07901715,0.6037442,0.63071984,0.54101056,0.07869974,0.67501915,0.2620977,0.9111478,0.09343407,0.18865909,-0.34939927,0.7471539,0.008774505,-0.39575598,817.5458,843.73627,799.011,811.9048,735.7509,-0.36663818359375,0.01690673828125,0.931884765625,5.921630859375,-3.27484130859375,1.65985107421875,1,1.0,1.0,1.0,1.0,95.00
2021-04-21 09:18:53.010,0.63574314,0.6456514,0.54333186,0.36721417,0.5482583,0.27949476,0.082418814,0.53039837,0.59926635,0.54101056,0.16992687,0.60612965,0.27904758,0.9111478,0.15715583,0.117454775,-0.32304472,0.7471539,0.030834349,-0.3756916,816.7399,800.6227,803.0403,811.50183,781.685,-0.37713623046875,0.01190185546875,0.92840576171875,3.267364501953125,-6.519775390625,0.680389404296875,1,1.0,1.0,1.0,1.0,95.00
2021-04-21 09:18:53.515,0.58883923,0.6456514,0.5393124,0.28836614,0.40273923,0.27949476,0.20819457,0.5493501,0.4604563,0.54101056,0.14559567,0.59878576,0.26251817,0.9111478,0.22767153,0.08050621,-0.25822926,0.7471539,-0.02472749,-0.34257206,827.619,814.3223,792.5641,823.9927,763.95605,-0.37603759765625,0.00250244140625,0.92816162109375,4.568328857421875,-4.97955322265625,0.291595458984375,1,1.0,1.0,1.0,1.0,95.00
2021-04-21 09:18:54.020,0.4639601,0.6456514,0.5049102,0.4671544,0.374506,0.27949476,0.16972794,0.39592433,0.24652062,0.54101056,0.13358593,0.24377538,0.3173103,0.9111478,0.23475157,0.30866054,-0.08225777,0.7471539,-0.13693509,-0.12449219,825.2015,822.381,796.1905,817.1429,603.5897,-0.37451171875,-7.32421875E-4,0.9266357421875,4.65057373046875,-6.1309814453125,0.381317138671875,1,1.0,1.0,1.0,1.0,95.00
2021-04-21 09:18:54.541,0.4178856,0.42421818,0.5722398,0.42354104,0.35647523,0.17844148,-0.026686309,0.3348512,0.5689977,0.35241422,0.072749905,0.43657577,0.28148577,0.7412802,0.19528346,0.27707005,-0.1606799,0.84942144,-0.28031787,-0.10751713,828.4249,813.91943,809.89014,817.9487,689.41394,-0.3765869140625,0.00433349609375,0.9276123046875,4.807586669921875,-4.388885498046875,0.889739990234375,1,1.0,1.0,1.0,1.0,95.00
2021-04-21 09:18:55.072,0.3582787,0.33011773,0.50523186,0.33513394,0.2584361,0.22814965,-0.22775714,0.26946124,0.6068235,0.4375594,0.022344314,0.5439223,0.31333154,0.806809,0.15040714,0.2340499,-0.1360724,0.7798378,-0.33734563,-0.101581,828.8278,823.5897,809.0842,826.8132,742.1978,-0.37628173828125,0.00433349609375,0.92828369140625,4.605712890625,-4.598236083984375,0.934600830078125,1,1.0,1.0,1.0,1.0,95.00
2021-04-21 09:18:55.597,0.3221803,0.23267166,0.46920606,0.40473437,0.2678878,0.17563179,-0.26172596,0.22106636,0.64887035,0.4536862,0.24205942,0.70368683,0.27671838,0.8259733,0.15453629,0.12467251,0.007232502,0.78626484,-0.27671883,-0.08902764,795.78754,792.96704,825.2015,811.50183,650.7326,-0.36431884765625,2.44140625E-4,0.9312744140625,4.725341796875,-5.211334228515625,0.650482177734375,1,1.0,1.0,1.0,1.0,95.00
2021-04-21 09:18:56.121,0.50385994,0.07060448,0.3164016,0.4280248,0.38163176,0.17532976,0.1259362,0.21564381,1.0640012,0.4522728,0.46814623,0.691519,0.30149254,0.86115336,0.105765715,0.061607428,0.16575,0.75531614,-0.21693267,-0.09114972,819.5604,788.5348,807.8755,823.5897,785.31134,-0.37451171875,-1.8310546875E-4,0.92657470703125,4.403839111328125,-4.867401123046875,0.485992431640625,1,1.0,1.0,1.0,1.0,95.00
2021-04-21 09:18:56.646,0.55166173,-0.049509276,0.6111226,0.6898617,0.4895773,0.061871476,0.17939596,0.31793714,1.0967199,0.18947992,0.47994024,0.9664539,0.31792244,0.8499066,0.09931925,-0.013402289,0.18271314,0.8104877,-0.26104194,-0.13558444,839.304,826.0073,813.91943,823.9927,716.0073,-0.3721923828125,0.00115966796875,0.92822265625,4.65057373046875,-4.284210205078125,1.2261962890625,1,1.0,1.0,1.0,1.0,95.00
2021-04-21 09:18:57.174,0.50855577,-0.09738295,0.71191394,0.60818744,0.4951208,0.17153898,0.21702906,0.34381792,1.0998776,0.090810776,0.44905594,0.94570255,0.3972984,0.7332015,0.116938755,0.020198457,0.055926204,0.5657625,-0.40501377,-0.2364062,825.6044,843.3333,807.47253,812.3077,698.68134,-0.372802734375,0.001953125,0.927490234375,4.717864990234375,-3.63372802734375,1.368255615234375,1,1.0,1.0,1.0,1.0,95.00
2021-04-21 09:18:57.677,0.33850116,-0.23731095,0.5671137,0.4677964,0.2743188,-0.01736412,-0.065211006,0.27067125,0.8636518,0.12332895,0.17254175,0.8362153,0.37654442,0.81337017,0.10542461,0.014851806,-0.0648466,0.52843034,-0.38888216,-0.2071606,812.3077,767.5824,798.60803,819.15753,1114.9084,-0.3681640625,-0.00115966796875,0.92974853515625,4.725341796875,-5.09918212890625,1.51031494140625,1,1.0,1.0,1.0,1.0,95.00
2021-04-21 09:18:58.188,0.15242775,-0.3215028,0.19149718,0.12805104,0.041506246,-0.11989907,-0.09345832,0.25468364,0.62232864,0.24468842,0.04669086,0.6294634,0.31225955,0.8390319,-0.020217873,0.053164676,-0.1049054,0.662547,-0.304808,-0.13929996,809.4872,817.5458,813.5165,821.5751,677.72894,-0.37237548828125,-8.544921875E-4,0.92626953125,4.732818603515625,-4.74029541015625,0.9869384765625,1,1.0,1.0,1.0,1.0,95.00
2021-04-21 09:18:58.706,0.058467437,0.09182355,-0.0045799036,-0.033197038,0.008859255,-0.12481595,-0.08649757,0.13084173,0.7844905,0.65641034,0.19828542,0.61288106,0.2550209,0.8593554,-0.049037155,0.051761243,-0.09841093,0.64950293,-0.28146312,-0.09394299,810.293,795.38464,808.68134,816.7399,746.63007,-0.368408203125,9.765625E-4,0.92901611328125,4.38140869140625,-5.061798095703125,1.218719482421875,1,1.0,1.0,1.0,1.0,95.00
2021-04-21 09:18:59.212,0.34685394,0.21793306,0.1011372,0.11283178,0.16018428,-0.06837129,-0.010797936,0.052445807,0.7956144,0.6508859,0.22545272,0.62560743,0.21256053,0.8548091,0.079303935,0.16485934,-0.12825684,0.7097536,-0.2882119,-0.09897566,811.50183,821.1722,807.47253,811.50183,784.10254,-0.36334228515625,0.001708984375,0.93133544921875,4.8150634765625,-4.463653564453125,1.218719482421875,1,1.0,1.0,1.0,1.0,95.00
2021-04-21 09:18:59.718,0.42868915,0.41709656,0.07076524,0.3263267,0.25167313,0.1350885,0.029911472,0.38651907,0.7956144,0.68679726,0.20774142,0.716785,0.11804887,0.8757755,0.11952537,0.17996159,-0.11748393,0.5871636,-0.2662211,-0.15989678,823.9927,819.15753,808.68134,823.9927,723.663,-0.3720703125,0.00341796875,0.9296875,3.78326416015625,-5.8319091796875,1.71966552734375,1,1.0,1.0,1.0,1.0,95.00
2021-04-21 09:19:00.227,0.3991099,0.21222869,0.09619849,0.41888738,0.27211383,0.062328942,-0.015198704,0.4433118,0.6107159,0.43154615,0.14274871,0.7000643,0.035781138,0.88750464,0.11110175,0.16222166,-0.04587512,0.6717257,-0.2267396,-0.21666056,800.6227,806.6667,810.293,796.99634,740.58606,-0.3681640625,0.0050048828125,0.92926025390625,4.88983154296875,-4.80010986328125,2.10845947265625,1,1.0,1.0,1.0,1.0,95.00
2021-04-21 09:19:00.730,0.42024007,0.16851944,-0.021875007,0.48240814,0.22961403,-0.027794758,-0.10444753,0.49129984,0.4403301,0.50366515,0.100843765,0.67521834,0.039271135,0.87960076,-0.051229544,0.07651896,-0.004365687,0.7071554,-0.1859019,-0.27983662,762.74725,821.1722,818.7546,759.92676,679.7436,-0.3570556640625,0.00311279296875,0.93548583984375,4.77020263671875,-4.613189697265625,1.472930908203125,1,1.0,1.0,1.0,1.0,95.00
2021-04-21 09:19:01.232,0.47789627,0.12966473,0.21936712,0.5450748,0.24848713,-0.100043766,-0.09853539,0.25553387,0.32070893,0.44403452,0.042623404,0.6841635,0.069833584,0.86712843,-0.0073316195,0.06586916,0.042071983,0.7533713,-0.17967585,-0.27478677,839.304,835.6777,802.6374,824.7985,705.12823,-0.36236572265625,0.01007080078125,0.93255615234375,4.448699951171875,-5.899200439453125,1.487884521484375,1,1.0,1.0,1.0,1.0,95.00
2021-04-21 09:19:01.738,1.0660025,0.2764851,0.35903162,0.670294,0.44298682,-0.061087366,-0.10729142,0.3253156,0.83155406,0.45907745,0.25967878,0.6692309,0.14584966,0.895638,0.06495057,0.11845081,-0.02656679,0.7676802,-0.20751765,-0.26845506,834.4689,821.5751,813.5165,839.707,747.8388,-0.3505859375,0.00946044921875,0.9364013671875,4.0972900390625,-4.9346923828125,0.7177734375,1,1.0,1.0,1.0,1.0,95.00
2021-04-21 09:19:02.248,1.1458232,0.38806558,0.47924468,0.68506217,0.6189306,0.11403525,-0.004007458,0.32608616,0.9640032,0.45717046,0.25967878,0.91066355,0.24178624,0.8865512,0.20357877,0.2641394,-0.15045005,0.7622974,-0.29168496,-0.05841369,814.7253,828.4249,807.47253,821.1722,934.3956,-0.34814453125,0.00897216796875,0.94097900390625,4.628143310546875,-4.598236083984375,1.5850830078125,1,1.0,1.0,1.0,1.0,95.00
2021-04-21 09:19:02.784,0.82596254,0.30816454,0.3773375,0.1962167,0.40077427,0.031480838,-0.054174297,0.19225644,0.9736033,0.4023894,0.33402094,0.9174655,0.1532243,0.86931646,0.17848593,0.2018279,-0.14104676,0.7298302,-0.41689262,0.040274385,813.5165,814.7253,806.6667,812.3077,682.96704,-0.3538818359375,0.00518798828125,0.93817138671875,4.553375244140625,-4.35150146484375,1.1663818359375,1,1.0,1.0,1.0,1.0,95.00
2021-04-21 09:19:03.290,0.18894228,0.18066348,0.18417451,0.09282159,0.24418813,-0.09332957,-0.13276961,0.19034937,0.968077,0.42066753,0.26035166,0.9281442,0.21091308,0.83508617,0.20362447,0.3227887,-0.21505888,0.64296335,-0.42209882,-0.060113255,817.1429,819.9634,813.1135,820.3663,718.4249,-0.35345458984375,0.006103515625,0.9432373046875,5.62255859375,-5.27862548828125,2.370147705078125,1,1.0,1.0,1.0,1.0,95.00
2021-04-21 09:19:03.792,-0.056370854,0.01605435,-0.012765684,-0.23570865,0.10297933,-0.40410984,-0.25747284,0.14612964,0.77073646,0.62108755,0.28811446,0.896605,0.17609166,0.87280744,0.1644459,0.30253714,-0.23102297,0.57295144,-0.32641396,-0.104649596,808.68134,820.3663,807.8755,811.9048,774.83514,-0.347412109375,0.00970458984375,0.94287109375,4.68048095703125,-4.62066650390625,1.3458251953125,1,1.0,1.0,1.0,1.0,95.00
2021-04-21 09:19:04.312,0.15709285,0.27873704,-0.12859869,-0.11512583,0.2591239,0.16948149,-0.33332714,0.20162836,0.7360305,0.6389328,0.28071645,0.53082156,0.20286925,0.8838103,0.18893228,0.29960313,-0.3204871,0.67437863,-0.170717,-0.21686295,827.2161,801.8315,813.5165,814.7253,768.7912,-0.349609375,0.00299072265625,0.93695068359375,4.74029541015625,-4.44122314453125,1.069183349609375,1,1.0,1.0,1.0,1.0,95.00
2021-04-21 09:19:04.833,0.26215565,0.25870198,0.0025849608,0.050579585,0.2547595,0.23215334,-0.25886545,0.11177382,0.8382458,0.61907434,0.30510205,0.48993427,0.09921409,0.90085024,0.17559452,0.20821974,-0.3333918,0.85192007,-0.11844712,-0.18563828,816.7399,805.4579,811.9048,812.71063,756.7033,-0.347900390625,0.00311279296875,0.93646240234375,5.263671875,-3.985137939453125,1.188812255859375,1,1.0,1.0,1.0,1.0,95.00
2021-04-21 09:19:05.350,0.29374433,0.43231654,-0.07799687,0.11042065,0.35296214,0.31534272,-0.29889032,0.04618827,0.8700497,0.3972466,0.31315315,0.5068918,0.088825464,0.8371206,0.2186318,0.15753055,-0.37564272,0.95613694,-0.16747487,-0.15372393,798.60803,837.6923,811.9048,785.31134,691.8315,-0.35638427734375,0.002197265625,0.93255615234375,4.777679443359375,-4.448699951171875,0.31402587890625,1,1.0,1.0,1.0,1.0,95.00
2021-04-21 09:19:05.851,0.29285905,0.40868714,0.12251725,0.14125429,0.28696322,0.21065511,-0.19506298,-0.077399455,0.7857053,0.37892196,0.2460609,0.4681417,0.04737153,0.81589967,0.1944627,0.13466346,-0.3621808,0.95197785,-0.24260224,-0.14831549,807.0696,808.2784,811.0989,809.4872,825.6044,-0.353515625,-0.00274658203125,0.936767578125,4.927215576171875,-4.583282470703125,1.4056396484375,1,1.0,1.0,1.0,1.0,95.00
2021-04-21 09:19:06.364,1.0626373,0.5912501,0.43284985,0.011815329,0.54987,0.34572446,-0.13752984,0.008270576,0.8291453,0.27676588,0.16841365,0.45533568,0.032722633,0.7339143,0.15260066,-0.011027566,-0.36518878,0.89395964,-0.3524813,-0.11790164,826.0073,816.7399,797.3993,827.619,694.65204,-0.357666015625,-0.00347900390625,0.931396484375,5.196380615234375,-4.3963623046875,1.248626708984375,1,1.0,1.0,1.0,1.0,95.00
2021-04-21 09:19:06.890,1.0940936,0.19186908,0.46268374,0.06143211,0.63822377,0.32762733,-0.18714873,0.03267465,0.7566695,0.57835,0.14532383,0.3852085,0.07258,0.89831406,0.046168797,-0.089683056,-0.30640242,0.63203204,-0.290995,-0.09178412,809.4872,804.65204,812.3077,816.337,808.68134,-0.36016845703125,-0.00396728515625,0.9344482421875,4.65057373046875,-4.523468017578125,1.06170654296875,1,1.0,1.0,1.0,1.0,95.00
2021-04-21 09:19:07.393,1.0026548,0.24993284,0.39645496,0.85409456,0.70602614,0.09491121,-0.17581353,0.5481746,0.75548536,0.6263707,0.17868751,0.7853151,0.10546919,0.9035163,0.11741264,0.25312155,-0.2921556,0.65305704,-0.28274265,-0.1931708,821.1722,795.38464,811.50183,811.50183,954.94507,-0.35687255859375,-6.103515625E-4,0.93780517578125,4.987030029296875,-4.239349365234375,1.55517578125,1,1.0,1.0,1.0,1.0,95.00
2021-04-21 09:19:07.935,0.72533834,0.19879524,0.28593633,0.7736401,0.57723844,0.0025019958,-0.10826082,0.4651553,0.72558624,0.6354417,0.2459944,0.8152167,0.06470317,0.8960124,0.1469184,0.24340707,-0.27777472,0.6707678,-0.26041996,-0.14623483,826.0073,833.663,816.337,811.50183,689.011,-0.36041259765625,-0.00537109375,0.93536376953125,4.837493896484375,-5.510406494140625,0.276641845703125,1,1.0,1.0,1.0,1.0,95.00
2021-04-21 09:19:08.468,0.73652524,0.2124501,0.30214563,0.7248279,0.53354174,-0.20912057,-0.058540706,0.38400003,0.71215343,0.6230214,0.22867334,0.8111373,-0.035797298,0.8180645,0.17478617,0.21427009,-0.33472958,0.7823129,-0.34322983,-0.12538913,818.7546,801.8315,805.05493,817.5458,741.79486,-0.36456298828125,-0.0037841796875,0.9344482421875,4.53094482421875,-5.061798095703125,0.994415283203125,1,1.0,1.0,1.0,1.0,100.00
2021-04-21 09:19:08.978,0.60880405,0.14905468,0.27893758,0.55026376,0.3282127,-0.2507326,-0.14241737,0.34617501,0.5956178,0.6122694,0.1823877,0.6863188,-0.0639967,0.81259865,0.20364152,0.2731785,-0.46294695,0.7583885,-0.2447362,-0.11743028,804.65204,821.1722,811.0989,789.7436,771.6117,-0.3609619140625,-0.001708984375,0.93328857421875,4.867401123046875,-4.42626953125,1.024322509765625,1,1.0,1.0,1.0,1.0,100.00
2021-04-21 09:19:09.502,0.38654596,0.1532419,0.09616648,0.5307841,0.378432,-0.25684005,-0.29237166,0.34236616,0.4636639,0.5614075,0.026363,0.64596885,0.038924906,0.75148463,0.17494014,0.3268774,-0.4801916,0.77228236,-0.20145,-0.10595328,803.8461,819.5604,815.5311,809.4872,696.26373,-0.3594970703125,-0.00927734375,0.93316650390625,4.6356201171875,-4.059906005859375,1.816864013671875,1,1.0,1.0,1.0,1.0,100.00
2021-04-21 09:19:10.006,0.44669464,-0.048253927,0.09715418,0.58940166,0.41850564,-0.3864005,-0.171861,0.31378594,0.5887299,0.18409437,0.07187602,0.49418494,0.0904528,0.73922217,0.13212377,0.30611584,-0.3673734,0.64393103,-0.17387101,-0.17381836,818.3516,792.5641,809.0842,813.5165,911.02563,-0.3555908203125,-0.00262451171875,0.93719482421875,4.628143310546875,-4.844970703125,0.9869384765625,1,1.0,1.0,1.0,1.0,100.00
2021-04-21 09:19:10.516,0.55822843,-0.24363472,0.23002754,0.6557244,0.45868564,-0.2872362,-0.20192122,0.28267413,0.7415731,0.30976617,0.1160434,0.61394006,0.14110729,0.8475757,0.050811805,0.24857587,-0.29990664,0.6902635,-0.20029989,-0.16828851,816.337,815.9341,808.2784,817.1429,730.10986,-0.36273193359375,-0.00164794921875,0.93408203125,4.867401123046875,-4.837493896484375,1.27105712890625,1,1.0,1.0,1.0,1.0,100.00
2021-04-21 09:19:11.031,0.5569315,-0.25484297,0.26920065,0.62215894,0.41004235,-0.34668037,-0.14646225,0.36606574,0.74787277,0.27328357,0.10049953,0.7668411,0.18047096,0.8169635,0.04208953,0.30494395,-0.3729617,0.76931614,-0.21277508,-0.24371845,825.2015,800.6227,807.47253,817.5458,693.8461,-0.36138916015625,-0.00653076171875,0.93438720703125,4.673004150390625,-3.686065673828125,0.7177734375,1,1.0,1.0,1.0,1.0,100.00
2021-04-21 09:19:11.537,0.45437855,-0.10610952,0.21319683,0.6220176,0.30889422,-0.25121817,-0.10915401,0.4230814,0.6931403,0.42251977,0.1188648,0.983523,0.20619027,0.7911591,0.14450324,0.3729093,-0.40312475,0.87490344,-0.17239408,-0.1642203,740.989,788.1319,821.978,749.45056,941.2454,-0.36151123046875,-0.00653076171875,0.93560791015625,4.65057373046875,-4.643096923828125,1.308441162109375,1,1.0,1.0,1.0,1.0,100.00
2021-04-21 09:19:12.043,0.19123419,0.39093497,0.47682106,0.8146167,0.21617372,0.20064496,0.08840199,0.5937175,0.6085758,0.5363781,0.25549108,1.0209261,0.16067043,0.7662447,0.1295343,0.3879828,-0.42052498,0.90713626,-0.12967871,-0.19595756,815.5311,823.5897,813.1135,808.2784,732.52747,-0.3642578125,0.0023193359375,0.9263916015625,8.03009033203125,-1.973876953125,2.848663330078125,1,1.0,1.0,1.0,1.0,100.00
2021-04-21 09:19:12.556,0.13643046,0.52365845,0.66001683,0.9568239,-0.005963031,0.31076446,0.12567617,0.6504862,0.37945873,0.52770454,0.22555533,0.96075344,0.097172275,0.7896314,0.08030275,0.3190064,-0.31979042,0.9279747,-0.0788542,-0.12934056,826.0073,808.2784,813.91943,819.5604,716.4103,-0.46978759765625,0.09356689453125,0.8885498046875,10.7965087890625,3.386993408203125,-0.157012939453125,1,1.0,1.0,1.0,1.0,100.00
2021-04-21 09:19:13.074,0.13643046,0.7119058,0.67285186,1.1647133,-0.005963031,0.50248367,0.078693055,0.8459493,0.37945873,0.52417916,0.21231496,0.96075344,0.097172275,0.8730654,-0.022240773,0.31778216,-0.31979042,0.8760985,-0.11258732,-0.1455166,822.7839,807.8755,809.89014,819.5604,747.8388,-0.4329833984375,0.03564453125,0.89935302734375,3.51409912109375,-5.659942626953125,2.94586181640625,1,1.0,1.0,1.0,1.0,100.00
2021-04-21 09:19:13.604,0.13643046,0.059808675,0.41458765,0.46098515,-0.005963031,0.060582165,-0.15759884,-0.1811626,0.37945873,0.15442455,0.17910297,0.18381539,0.097172275,0.828008,0.024433594,0.12649834,-0.31979042,0.75256306,-0.1975246,-0.1499252,820.7692,813.1135,805.8608,814.7253,747.4359,-0.4549560546875,0.0382080078125,0.89288330078125,0.127105712890625,-6.160888671875,3.03558349609375,1,1.0,1.0,1.0,1.0,100.00
2021-04-21 09:19:14.126,0.79285264,0.005556696,0.12263579,0.6932259,0.49522546,0.07138633,0.01639401,0.565331,0.4670396,0.28436127,0.46968234,0.561006,0.16691047,0.87045103,0.14435054,0.10952569,-0.49098983,0.70599675,-0.23718725,-0.19363497,815.12823,815.9341,807.0696,802.23444,762.3443,-0.43572998046875,0.00384521484375,0.89764404296875,3.252410888671875,-3.342132568359375,2.70660400390625,1,1.0,1.0,1.0,1.0,100.00
2021-04-21 09:19:14.627,0.76444924,0.09004675,0.21969111,0.64215237,0.40699452,0.08349638,0.29250696,0.48724455,0.6690904,0.38977745,0.5082181,0.69111794,0.19829538,0.8815823,0.12700212,0.15026431,-0.42961222,0.70671433,-0.12825459,-0.27162746,814.3223,797.8022,798.20514,809.89014,1028.2784,-0.41143798828125,0.0037841796875,0.90869140625,4.14215087890625,-5.704803466796875,0.650482177734375,1,1.0,1.0,1.0,1.0,100.00
2021-04-21 09:19:15.132,0.71743876,0.3080619,0.2144312,0.65333396,0.40564132,0.09978552,0.33654463,0.5619232,0.6876089,0.42363074,0.5346323,0.7102331,0.19738758,0.8181023,0.06797139,0.19737856,-0.37829897,0.6814036,-0.15322165,-0.30607954,803.44324,804.65204,806.26373,808.68134,698.68134,-0.4046630859375,0.00347900390625,0.91131591796875,4.403839111328125,-4.553375244140625,0.755157470703125,1,1.0,1.0,1.0,1.0,100.00
2021-04-21 09:19:15.637,0.7081384,0.4278147,0.26907614,0.6085659,0.23391266,0.042497065,0.26837492,0.2755981,0.703351,0.4282555,0.5276902,0.65016043,0.18503115,0.802575,-0.053326778,0.19307743,-0.35901344,0.60613626,-0.1695458,-0.3668922,803.0403,791.75824,798.60803,804.2491,825.2015,-0.40106201171875,-0.00128173828125,0.91766357421875,4.927215576171875,-5.48797607421875,1.398162841796875,1,1.0,1.0,1.0,1.0,100.00
2021-04-21 09:19:16.145,0.66228366,0.3740391,0.23818447,0.5559106,0.292219,0.010311377,-0.029077971,0.17510577,0.6980228,0.39605078,0.33198825,0.62380165,0.22627644,0.8444057,-0.014357714,0.20278955,-0.37273562,0.6172694,-0.179142,-0.32451162,815.5311,816.7399,798.20514,812.3077,667.6557,-0.401611328125,-1.8310546875E-4,0.91522216796875,4.613189697265625,-3.805694580078125,0.8673095703125,1,1.0,1.0,1.0,1.0,100.00
2021-04-21 09:19:16.653,0.6227828,0.4850977,0.321525,0.5241136,0.29350707,-0.05230224,-0.035781443,0.13410664,0.6220138,0.3467584,0.2210066,0.39505535,0.26313692,0.8127833,8.170267E-4,0.25908276,-0.34771013,0.69410956,-0.167982,-0.2752703,809.89014,811.50183,800.6227,815.12823,687.8022,-0.396484375,0.00115966796875,0.916748046875,4.598236083984375,-4.777679443359375,1.203765869140625,1,1.0,1.0,1.0,1.0,100.00
2021-04-21 09:19:17.157,0.3566996,0.45513007,0.24494968,0.27967182,0.22079237,-0.023420993,-0.029144077,0.16391738,0.60456717,0.36923948,0.22738548,0.40692666,0.3172227,0.8082881,0.009466038,0.3117142,-0.30899724,0.6899317,-0.18689416,-0.24230483,807.47253,789.34064,803.44324,813.5165,884.0293,-0.3931884765625,5.4931640625E-4,0.9183349609375,4.77020263671875,-4.964599609375,1.0467529296875,1,1.0,1.0,1.0,1.0,100.00
2021-04-21 09:19:17.669,0.22379018,0.38167197,0.14088966,0.17131259,0.042126093,-0.037274923,0.0103370175,0.2219448,0.51472306,0.36319605,0.20854992,0.40862328,0.26223442,0.74128133,-0.01615128,0.2794351,-0.2961911,0.7040733,-0.3239548,-0.26905644,811.0989,825.2015,803.0403,807.47253,678.93774,-0.3944091796875,5.4931640625E-4,0.926513671875,4.6954345703125,-5.196380615234375,2.011260986328125,1,1.0,1.0,1.0,1.0,100.00
2021-04-21 09:19:18.201,0.50612175,0.35776925,0.11112702,0.10849024,0.2294602,-0.0016363724,0.16829272,0.100897565,0.69352317,0.26725522,0.18162294,0.56196564,0.19283499,0.7597174,-0.043803364,0.231362,-0.35329828,0.6424114,-0.25914288,-0.28480244,811.50183,810.293,798.60803,808.68134,770.80585,-0.39300537109375,-0.002685546875,0.920166015625,4.94964599609375,-4.179534912109375,1.607513427734375,1,1.0,1.0,1.0,1.0,100.00
2021-04-21 09:19:18.712,0.5792101,0.36223865,0.17391635,0.19651377,0.22522597,0.03912414,0.15872587,0.1143682,0.72739506,0.29774433,0.074443445,0.60928506,0.031166574,0.76890284,-0.11799336,0.16272667,-0.37688947,0.6535163,-0.26020136,-0.27975467,770.80585,794.57874,803.8461,774.83514,804.2491,-0.39202880859375,-0.00506591796875,0.92156982421875,4.5458984375,-4.77020263671875,0.9271240234375,1,1.0,1.0,1.0,1.0,100.00
2021-04-21 09:19:19.220,0.678211,0.5478204,0.22796588,0.29747742,0.3374625,0.04741434,0.05032968,0.09083563,0.72667086,0.35013393,0.091328986,0.60928506,-0.057632484,0.7629635,-0.055213567,0.18427902,-0.39466074,0.56677485,-0.26215172,-0.22177655,803.0403,825.6044,808.2784,791.3553,693.0403,-0.388427734375,-0.0057373046875,0.922119140625,4.90478515625,-5.45806884765625,-0.0299072265625,1,1.0,1.0,1.0,1.0,100.00
2021-04-21 09:19:19.748,0.5596243,0.52026033,0.31543246,1.1983416,0.12151186,0.023267634,-0.045681346,0.5751416,1.0096828,0.3317598,0.2998455,0.9807799,-0.096253894,0.7750499,0.051314794,0.18577762,-0.29126075,0.5489997,-0.26187322,-0.20412582,812.71063,795.78754,808.2784,812.3077,802.6374,-0.3988037109375,-0.006591796875,0.91925048828125,4.927215576171875,-4.583282470703125,0.61309814453125,1,1.0,1.0,1.0,1.0,100.00
2021-04-21 09:19:20.273,0.57240075,0.748049,0.50221336,1.2886591,0.45671043,0.22303566,0.06918406,0.6890648,1.0177306,0.40160158,0.30010957,0.94458705,0.057007182,0.7601844,0.104187325,0.23638983,-0.30736068,0.47623459,-0.2776175,-0.11848126,815.9341,823.9927,796.99634,808.68134,752.674,-0.39788818359375,-0.00457763671875,0.91876220703125,4.807586669921875,-4.269256591796875,1.278533935546875,1,1.0,1.0,1.0,1.0,100.00
2021-04-21 09:19:20.782,0.6753599,0.7084632,0.6235564,1.1626385,0.47586158,0.42576998,0.19768775,0.6582946,1.0184724,0.550954,0.30088076,0.9612979,0.14530301,0.72266513,0.05844324,0.2878165,-0.3851009,0.31902766,-0.23675528,-0.1458979,817.5458,805.4579,805.4579,818.3516,775.64105,-0.3994140625,-0.00469970703125,0.92047119140625,4.433746337890625,-3.48419189453125,0.964508056640625,1,1.0,1.0,1.0,1.0,100.00
2021-04-21 09:19:21.304,0.55355835,0.5001663,0.5739934,0.8162431,0.3997985,0.26368922,0.027713116,0.50858444,0.7496433,0.55270535,0.18783446,0.8737578,0.18688005,0.7784618,0.022218738,0.26753187,-0.5090267,0.43030834,-0.29697418,-0.18034092,810.696,814.7253,805.8608,809.0842,734.1392,-0.39312744140625,-0.0081787109375,0.9210205078125,4.508514404296875,-4.65057373046875,1.1663818359375,1,1.0,1.0,1.0,1.0,100.00
2021-04-21 09:19:21.811,0.45427373,0.17827997,0.46273476,0.6538943,0.27550536,0.154025,-0.1795083,0.39388508,0.61720526,0.5288031,0.070788965,0.87243044,0.20372798,0.8101382,0.080534175,0.3541363,-0.53817195,0.51822114,-0.2529743,-0.18839902,826.8132,833.663,822.381,815.5311,662.4176,-0.39697265625,-0.00604248046875,0.91546630859375,4.844970703125,-4.717864990234375,0.979461669921875,1,1.0,1.0,1.0,1.0,100.00
2021-04-21 09:19:22.319,0.046200372,0.0034578748,0.2606112,0.049770486,0.032261662,-0.018467631,-0.49851242,0.158812,0.59868324,0.40404773,-0.01282533,0.8443127,0.115558855,0.8427752,0.13499498,0.35011247,-0.4363798,0.6234622,-0.30722076,-0.20480952,811.9048,804.65204,811.0989,805.8608,715.6044,-0.39434814453125,-0.0068359375,0.916259765625,4.4561767578125,-4.725341796875,1.21124267578125,1,1.0,1.0,1.0,1.0,100.00
2021-04-21 09:19:22.835,0.30643892,-0.005567683,0.3506883,0.046316557,-0.073633954,-0.021715878,-0.41892162,0.040704716,0.55029154,0.3505428,-0.15834066,0.52930087,0.057304867,0.8128646,0.08729809,0.3326777,-0.42009676,0.6178192,-0.25725815,-0.28110906,808.68134,802.6374,808.2784,794.9817,757.9121,-0.392578125,-0.0059814453125,0.92266845703125,4.83001708984375,-4.5758056640625,1.158905029296875,1,1.0,1.0,1.0,1.0,100.00
2021-04-21 09:19:23.362,0.5555865,0.05353604,0.26673037,0.5429807,0.04372234,0.007720694,-0.40213013,0.08426974,0.75026864,0.2763285,-0.15187964,0.58527654,-0.02815898,0.73414636,0.05161601,0.24229097,-0.41486934,0.687355,-0.284947,-0.4140408,809.89014,821.1722,807.47253,800.2198,711.978,-0.397705078125,-0.0068359375,0.918212890625,4.1571044921875,-5.682373046875,1.188812255859375,1,1.0,1.0,1.0,1.0,100.00
2021-04-21 09:19:23.867,0.87303656,0.2441951,0.26953635,0.9111718,0.3366178,0.118120104,-0.322126,0.37923673,0.8005072,0.39857444,-0.12869258,0.6668213,0.08089773,0.6762139,-0.010324448,0.16477141,-0.48142043,0.68740034,-0.19686148,-0.45817873,800.2198,812.71063,796.99634,792.96704,760.7326,-0.39593505859375,-0.0018310546875,0.91937255859375,4.418792724609375,-4.53094482421875,1.39068603515625,1,1.0,1.0,1.0,1.0,100.00
2021-04-21 09:19:24.373,0.82407343,0.22705969,0.14835444,0.94761235,0.34615406,0.17874697,-0.41056424,0.49741828,0.8005072,0.555899,0.0021145497,0.7137404,0.12574096,0.726189,-0.02455776,0.17624415,-0.49530107,0.70150864,-0.29312354,-0.32438558,819.9634,809.0842,797.8022,812.3077,866.7033,-0.39154052734375,-0.00396728515625,0.9217529296875,4.643096923828125,-4.366455078125,1.173858642578125,1,1.0,1.0,1.0,1.0,100.00
2021-04-21 09:19:24.882,0.65370965,0.12845373,0.22369367,0.77791893,0.17072879,0.062390868,-0.24437717,0.47662017,0.7122533,0.56570923,0.2068683,0.6778943,0.075206585,0.7191472,-0.17440748,0.13688822,-0.5155241,0.6447827,-0.26165342,-0.2651532,814.7253,831.6484,805.4579,805.05493,731.31866,-0.38275146484375,-0.00665283203125,0.92303466796875,4.598236083984375,-4.605712890625,1.831817626953125,1,1.0,1.0,1.0,1.0,100.00
2021-04-21 09:19:25.389,0.23355862,-0.1515311,0.24053118,0.4643127,-0.059343323,0.03735191,-0.29032207,0.3301043,0.51626104,0.55652326,0.2068683,0.629984,0.034172542,0.73907477,-0.25559354,0.07591031,-0.5170994,0.5527062,-0.28837702,-0.3148869,815.5311,800.6227,805.05493,806.6667,746.2271,-0.3885498046875,-0.00677490234375,0.92010498046875,4.725341796875,-5.106658935546875,0.7177734375,1,1.0,1.0,1.0,1.0,100.00
2021-04-21 09:19:25.892,0.0345629,-0.2875161,0.0990552,0.23372035,-0.10468658,0.012783243,-0.33755064,0.1085047,0.5375666,0.5008135,0.21155174,0.5986596,0.08955063,0.78353214,-0.24074213,0.13347183,-0.47611144,0.57726586,-0.24338426,-0.35114437,811.0989,789.7436,805.05493,823.9927,1132.6373,-0.39190673828125,-0.004150390625,0.92218017578125,4.47113037109375,-4.762725830078125,1.21124267578125,1,1.0,1.0,1.0,1.0,100.00
2021-04-21 09:19:26.393,0.09364154,-0.22574328,-0.07866802,0.07827533,-0.023536397,-0.07522277,-0.42521,-0.095924295,0.485351,0.47346917,-0.20647521,0.5143444,0.15338504,0.8123803,-0.12632453,0.18809314,-0.47486362,0.6287945,-0.2630036,-0.22419092,812.3077,833.2601,814.3223,809.4872,670.4762,-0.38946533203125,-0.00543212890625,0.92205810546875,4.732818603515625,-3.775787353515625,1.136474609375,1,1.0,1.0,1.0,1.0,100.00
2021-04-21 09:19:26.899,0.1055848,-0.11753094,-0.12633173,0.004400138,0.02343709,-0.14001873,-0.2510078,0.015026893,0.7178403,0.4828272,-0.069887616,0.53073746,0.15637797,0.7896685,-0.049960963,0.23681186,-0.5712716,0.71205145,-0.24822193,-0.12869817,811.0989,817.5458,807.0696,805.4579,760.32965,-0.386474609375,-0.0064697265625,0.927001953125,4.9945068359375,-5.7421875,2.4822998046875,1,1.0,1.0,1.0,1.0,100.00
2021-04-21 09:19:27.405,0.10010589,0.16552864,-0.08776265,0.06898008,0.07329479,-0.12541728,-0.23841766,0.08973256,0.7670058,0.42716235,0.08286666,0.44811666,0.09915053,0.7271732,-0.024443021,0.21860808,-0.5755065,0.7008297,-0.25971413,-0.12264768,810.293,813.5165,801.02563,788.93774,784.90845,-0.37078857421875,0.00494384765625,0.930419921875,4.78515625,-6.228179931640625,1.30096435546875,1,1.0,1.0,1.0,1.0,100.00
2021-04-21 09:19:27.916,-0.071335256,0.256195,0.35727295,0.04226339,0.07275466,-0.059951764,-0.11394738,0.17735174,0.7670058,0.33753282,0.08170833,0.43428108,0.10176312,0.7210081,0.105069146,0.20757185,-0.54296756,0.6832708,-0.250772,-0.1930763,818.7546,815.12823,802.6374,805.05493,682.5641,-0.36529541015625,-8.544921875E-4,0.931884765625,5.09918212890625,-4.3365478515625,1.60003662109375,1,1.0,1.0,1.0,1.0,100.00
2021-04-21 09:19:28.418,-0.14195065,0.39686564,0.44432202,0.20470764,0.012296036,0.027536383,-0.18563902,0.06369508,0.751279,0.16003636,0.11642904,0.3386848,0.143948,0.7339998,0.24995378,0.13002476,-0.42172718,0.64539266,-0.107838884,-0.34787938,815.9341,799.011,802.6374,815.9341,837.28937,-0.36077880859375,-0.00103759765625,0.9344482421875,4.538421630859375,-4.59075927734375,0.904693603515625,1,1.0,1.0,1.0,1.0,100.00
2021-04-21 09:19:28.926,0.030357143,0.06039505,0.42432418,0.33966938,0.15947683,-0.45217058,-0.107461676,-0.046550136,0.76114845,0.14813611,0.13441573,0.3251463,0.1806529,0.7825829,0.31508744,0.08840521,-0.42975673,0.6664976,-0.004732827,-0.110519394,812.71063,820.3663,806.6667,806.6667,712.381,-0.36273193359375,-0.008056640625,0.9364013671875,4.65057373046875,-5.600128173828125,-0.04486083984375,1,1.0,1.0,1.0,1.0,100.00
2021-04-21 09:19:29.447,-0.017455384,-0.06283806,0.10057395,0.27581525,0.110676974,-0.45242894,-0.28203475,-0.008529183,0.77046096,0.24095076,0.13092558,0.48841852,0.14030577,0.7883757,0.24510694,0.111098535,-0.5103074,0.633998,0.01877525,-0.09645302,806.26373,824.7985,811.50183,800.2198,630.58606,-0.3770751953125,0.0025634765625,0.92950439453125,5.106658935546875,-3.476715087890625,1.1065673828125,1,1.0,1.0,1.0,1.0,100.00
2021-04-21 09:19:29.959,-0.037632264,-0.1311726,0.18676193,0.21489811,0.10668449,-0.31641722,-0.19237077,0.07968221,0.77179587,0.3395198,0.05975365,0.52434134,0.13894548,0.7795304,0.18499856,0.09701429,-0.5272661,0.6841905,-0.067855634,-0.10919529,817.1429,805.05493,798.60803,810.696,863.47986,-0.3740234375,-0.001220703125,0.931884765625,4.837493896484375,-3.90289306640625,1.57012939453125,1,1.0,1.0,1.0,1.0,100.00
2021-04-21 09:19:30.464,-0.10375324,0.062662795,0.761661,0.09700804,0.05718896,-0.100776754,0.114397295,0.15162484,0.3548204,0.37319797,0.16183674,0.5015352,0.10084194,0.7654877,0.17996235,0.10306081,-0.6295136,0.68515486,-0.15252997,-0.10825197,804.65204,817.9487,797.3993,807.0696,760.32965,-0.38323974609375,-0.0078125,0.92333984375,4.822540283203125,-4.762725830078125,1.136474609375,1,1.0,1.0,1.0,1.0,100.00
2021-04-21 09:19:30.976,-0.16726628,0.22382417,0.86078745,0.18038328,0.09525321,0.04898392,0.19806403,0.27443552,0.34973887,0.3022221,0.16343659,0.36223125,0.14118214,0.75387996,0.21017839,0.05897728,-0.62455696,0.7634562,-0.056189448,-0.17071861,814.3223,795.38464,815.5311,813.91943,730.10986,-0.37286376953125,-0.00201416015625,0.93194580078125,4.493560791015625,-4.867401123046875,0.919647216796875,1,1.0,1.0,1.0,1.0,100.00
2021-04-21 09:19:31.497,0.17519782,0.27834478,0.86814934,0.353608,-0.03477043,0.21444947,0.14212804,0.25973582,0.07833042,0.39542258,0.16988844,0.30451784,-0.025678102,0.87415045,0.15053707,0.09957025,-0.48434326,0.88823086,-0.036052227,-0.17287117,816.7399,793.36993,807.8755,821.1722,962.6007,-0.3818359375,-0.0072021484375,0.92950439453125,4.83001708984375,-5.031890869140625,0.919647216796875,1,1.0,1.0,1.0,1.0,100.00
2021-04-21 09:19:32.007,0.21055037,0.021915337,0.64435416,0.30541965,-0.09193997,0.19518305,-0.14613767,0.1939546,0.24956751,0.38212672,-0.16372828,0.5224844,-0.0030273914,0.8646772,0.13344142,0.14429182,-0.5017507,0.7836712,-0.074824445,-0.18573883,818.7546,822.7839,803.0403,806.6667,686.99634,-0.37603759765625,-0.003173828125,0.929931640625,4.9945068359375,-4.85992431640625,1.2860107421875,1,1.0,1.0,1.0,1.0,100.00
2021-04-21 09:19:32.534,0.17113502,0.021262255,0.6091439,0.31985882,-0.07024132,0.09062693,-0.2533188,0.18967502,0.21844275,0.37985143,-0.20413889,0.52210575,-0.0020255705,0.87386125,0.07927064,0.14011948,-0.5266011,0.7958553,-0.2700544,-0.17486209,836.8865,805.4579,811.50183,824.7985,807.8755,-0.385009765625,-0.01031494140625,0.9281005859375,5.824432373046875,-2.519683837890625,-0.306549072265625,1,1.0,1.0,1.0,1.0,100.00
2021-04-21 09:19:33.040,0.21771248,0.113389954,0.8810447,0.27224594,-0.071413204,0.053836066,-0.011032353,0.13475373,0.19729216,0.30954495,-0.090480305,0.52210575,-0.0029725283,0.8659796,0.14318182,0.15821618,-0.4926569,0.7279147,-0.32347178,-0.16949396,826.0073,811.0989,810.696,821.1722,932.7839,-0.41217041015625,0.01312255859375,0.9134521484375,4.942169189453125,-3.581390380859375,2.3028564453125,1,1.0,1.0,1.0,1.0,100.00
2021-04-21 09:19:33.555,0.20171556,0.2736102,0.82728267,0.2744127,0.030080354,-0.2094456,-0.029550573,0.20446245,0.14158861,0.07611129,-0.03346125,0.47882214,-0.052129548,0.8893983,0.10616833,0.073125914,-0.46857178,0.83945286,-0.31885004,-0.14695321,806.6667,828.8278,813.1135,807.0696,717.619,-0.3961181640625,0.0010986328125,0.92169189453125,4.65057373046875,-7.70111083984375,0.590667724609375,1,1.0,1.0,1.0,1.0,100.00
2021-04-21 09:19:34.069,0.456827,0.51245856,0.66493607,0.098622836,0.21702552,0.0072528454,-0.123190954,0.4909044,0.6228475,0.31846887,-0.040288527,0.78137106,0.09718991,0.8091737,0.06390149,0.0016541976,-0.20718959,0.74913764,-0.27729234,-0.09097628,812.71063,810.696,807.8755,812.71063,820.7692,-0.37786865234375,-0.005615234375,0.927001953125,4.553375244140625,-4.5458984375,0.650482177734375,1,1.0,1.0,1.0,1.0,100.00
2021-04-21 09:19:34.572,0.2837129,0.49029246,-0.2633885,0.052139223,0.23834777,0.058519434,-0.4152607,0.4455581,0.66332555,0.3944169,-0.038995393,0.81812763,0.1076297,0.7951689,-7.818773E-4,0.015302374,-0.3119963,0.7118399,-0.27913272,-0.06749633,817.5458,834.0659,811.50183,812.71063,749.85345,-0.38311767578125,-0.00152587890625,0.92340087890625,4.852447509765625,-4.9346923828125,0.979461669921875,1,1.0,1.0,1.0,1.0,100.00
2021-04-21 09:19:35.078,0.17302361,0.33815774,-0.26793802,-0.08466164,0.27848896,-0.014649019,-0.3907704,0.3882758,0.6684375,0.3944169,0.007237901,0.81812763,0.09739303,0.7485613,0.08508949,0.07376646,-0.31824383,0.66329,-0.17502694,-0.09356447,811.9048,804.2491,790.9524,815.5311,690.6227,-0.37445068359375,0.00146484375,0.92974853515625,4.66552734375,-4.972076416015625,1.457977294921875,1,1.0,1.0,1.0,1.0,100.00
2021-04-21 09:19:35.595,-0.26727146,0.16592234,0.09942059,-0.22900207,0.3103669,-0.106853634,-0.4181352,0.301818,0.6504161,0.33826703,0.13549733,0.6003991,0.0834143,0.70918787,0.118783884,0.06442965,-0.29529333,0.6406666,-0.12943122,-0.119156055,819.5604,796.99634,807.47253,819.15753,711.978,-0.379638671875,-0.00323486328125,0.92279052734375,4.77020263671875,-3.775787353515625,0.82244873046875,1,1.0,1.0,1.0,1.0,100.00
2021-04-21 09:19:36.109,-0.15233326,-0.1304613,0.40424827,-0.43768734,0.2317145,-0.2953558,-0.33765846,0.18546528,0.41502276,0.2320523,0.2897167,0.4332545,0.15901838,0.7451149,0.123450495,0.06321465,-0.31159335,0.6921688,-0.1365964,-0.23360874,800.2198,818.7546,805.05493,799.41394,753.8828,-0.3800048828125,0.0023193359375,0.92559814453125,4.478607177734375,-3.940277099609375,0.844879150390625,1,1.0,1.0,1.0,1.0,100.00
