TimeStamp,Delta_TP9,Delta_AF7,Delta_AF8,Delta_TP10,Theta_TP9,Theta_AF7,Theta_AF8,Theta_TP10,Alpha_TP9,Alpha_AF7,Alpha_AF8,Alpha_TP10,Beta_TP9,Beta_AF7,Beta_AF8,Beta_TP10,Gamma_TP9,Gamma_AF7,Gamma_AF8,Gamma_TP10,RAW_TP9,RAW_AF7,RAW_AF8,RAW_TP10,AUX_RIGHT,Accelerometer_X,Accelerometer_Y,Accelerometer_Z,Gyro_X,Gyro_Y,Gyro_Z,HeadBandOn,HSI_TP9,HSI_AF7,HSI_AF8,HSI_TP10,Battery,Elements
2021-04-06 09:45:23.977,0.66869426,1.280823,0.54347163,1.9440848,0.8909309,0.6188583,0.2058837,1.4163858,0.90275496,0.5915893,0.102193356,1.2857709,1.3148217,0.3160564,0.28205362,0.93926287,0.688494,-0.45254266,-0.10383921,0.32671314,812.3077,771.6117,804.2491,816.7399,786.1172,0.21124267578125,0.06231689453125,0.980712890625,4.78515625,-5.136566162109375,0.919647216796875,1,1.0,1.0,1.0,1.0,90.00
2021-04-06 09:45:24.062,0.66869426,1.280823,0.5248607949999,1.9440848,0.8909309,0.6188583,0.19461473,1.4163858,0.90275496,0.5915893,0.039339906,1.2857709,1.3148217,0.3160564,0.27874606,0.93926287,0.688494,-0.45254266,-0.097241837,0.32671314,826.61175,883.22342,883.02198,,,,,,,,,,,,,,,/muse/elements/blink
2021-04-06 09:45:24.483,0.66869426,1.280823,0.50624996,1.9440848,0.8909309,0.6188583,0.18334576,1.4163858,0.90275496,0.5915893,-0.023513544,1.2857709,1.3148217,0.3160564,0.2754385,0.93926287,0.688494,-0.45254266,-0.090644464,0.32671314,840.9158,994.83514,961.79486,837.28937,736.1539,0.21087646484375,0.07098388671875,0.9759521484375,5.682373046875,-6.093597412109375,1.1065673828125,1,1.0,1.0,1.0,1.0,90.00
2021-04-06 09:45:24.992,0.66869426,1.280823,0.32765698,1.9440848,0.8909309,0.6188583,0.002446805,1.4163858,0.90275496,0.5915893,-0.059851944,1.2857709,1.3148217,0.3160564,0.30381754,0.93926287,0.688494,-0.45254266,0.043024957,0.32671314,809.4872,519.3773,758.315,807.0696,772.4176,0.21514892578125,0.07061767578125,0.979736328125,2.265472412109375,-4.837493896484375,3.5888671875,1,2.0,4.0,1.0,2.0,90.00
2021-04-06 09:45:25.507,0.66869426,1.280823,0.25805226,1.9440848,0.8909309,0.6188583,-0.088214904,1.4163858,0.90275496,0.5915893,-0.21742293,1.2857709,1.3148217,0.3160564,0.37522846,0.93926287,0.688494,-0.45254266,0.13839602,0.32671314,821.5751,562.8938,789.34064,823.5897,756.30035,0.23236083984375,0.03680419921875,0.96990966796875,3.162689208984375,-5.12908935546875,-1.98883056640625,1,2.0,2.0,1.0,2.0,90.00
2021-04-06 09:45:26.035,0.66869426,1.280823,0.25805226,1.9440848,0.8909309,0.6188583,-0.088214904,1.4163858,0.90275496,0.5915893,-0.21742293,1.2857709,1.3148217,0.3160564,0.37522846,0.93926287,0.688494,-0.45254266,0.13839602,0.32671314,892.0879,873.1502,812.3077,880.80585,910.6227,0.2098388671875,0.06072998046875,0.96722412109375,9.218902587890625,-17.577972412109375,-17.144317626953125,1,2.0,2.0,1.0,2.0,90.00
2021-04-06 09:45:26.537,0.66869426,1.280823,0.7642984,1.9440848,0.8909309,0.6188583,0.112684116,1.4163858,0.90275496,0.5915893,0.28474092,1.2857709,1.3148217,0.3160564,0.37581003,0.93926287,0.688494,-0.45254266,0.16566762,0.32671314,751.4652,1018.20514,829.6337,868.71796,880.80585,0.3780517578125,0.16094970703125,0.91876220703125,8.25439453125,-7.9852294921875,-4.44122314453125,1,2.0,2.0,1.0,2.0,90.00
2021-04-06 09:45:27.053,0.66869426,1.280823,0.7642984,1.9440848,0.8909309,0.6188583,0.112684116,1.4163858,0.90275496,0.5915893,0.28474092,1.2857709,1.3148217,0.3160564,0.37581003,0.93926287,0.688494,-0.45254266,0.16566762,0.32671314,810.696,746.2271,788.5348,819.5604,781.28204,0.32977294921875,0.18212890625,0.93621826171875,3.050537109375,-4.209442138671875,-3.267364501953125,1,2.0,2.0,1.0,2.0,80.00
2021-04-06 09:45:27.554,0.66869426,1.280823,0.7642984,1.9440848,0.8909309,0.6188583,0.112684116,1.4163858,0.90275496,0.5915893,0.28474092,1.2857709,1.3148217,0.3160564,0.37581003,0.93926287,0.688494,-0.45254266,0.16566762,0.32671314,1082.674,832.8571,769.19415,996.8498,813.91943,0.32232666015625,0.157470703125,0.933837890625,7.858123779296875,-7.977752685546875,1.682281494140625,1,2.0,2.0,1.0,2.0,80.00
2021-04-06 09:45:27.586,0.66869426,1.280823,0.7628209,1.9440848,0.8909309,0.6188583,0.117409858,1.4163858,0.90275496,0.5915893,0.27862556,1.2857709,1.3148217,0.3160564,0.36253068,0.93926287,0.688494,-0.45254266,0.177281505,0.32671314,963.4066,822.5824,788.937745,,,,,,,,,,,,,,,/muse/elements/blink
2021-04-06 09:45:28.056,0.66869426,1.280823,0.7613434,1.9440848,0.8909309,0.6188583,0.1221356,1.4163858,0.90275496,0.5915893,0.2725102,1.2857709,1.3148217,0.3160564,0.34925133,0.93926287,0.688494,-0.45254266,0.18889539,0.32671314,844.1392,812.3077,808.68134,828.4249,819.15753,0.352783203125,0.17279052734375,0.93157958984375,3.342132568359375,-5.4132080078125,-1.547698974609375,1,2.0,2.0,1.0,2.0,80.00
2021-04-06 09:45:28.337,0.66869426,1.280823,0.7613434,1.9440848,0.8909309,0.6188583,0.1221356,1.4163858,0.90275496,0.5915893,0.2725102,1.2857709,1.3148217,0.3160564,0.34925133,0.93926287,0.688494,-0.45254266,0.18889539,0.32671314,839.50548499999,763.95605,811.09891999999,,,,,,,,,,,,,,,/muse/elements/blink
2021-04-06 09:45:28.558,0.66869426,1.280823,0.7613434,1.9440848,0.8909309,0.6188583,0.1221356,1.4163858,0.90275496,0.5915893,0.2725102,1.2857709,1.3148217,0.3160564,0.34925133,0.93926287,0.688494,-0.45254266,0.18889539,0.32671314,834.87177,715.6044,813.5165,819.15753,834.0659,0.39825439453125,0.238525390625,0.89031982421875,8.650665283203125,-6.975860595703125,-0.2691650390625,1,2.0,2.0,1.0,2.0,80.00
2021-04-06 09:45:29.069,0.66869426,1.280823,0.71497595,1.9440848,0.8909309,0.6188583,0.13267808,1.4163858,0.90275496,0.5915893,0.26629174,1.2857709,1.3148217,0.3160564,0.14094466,0.93926287,0.688494,-0.45254266,-0.20225412,0.32671314,836.4835,747.03296,817.9487,836.08057,792.5641,0.38330078125,0.23040771484375,0.8868408203125,4.553375244140625,-5.084228515625,0.545806884765625,1,2.0,1.0,1.0,2.0,80.00
2021-04-06 09:45:29.578,0.66869426,1.280823,0.5855404,1.9440848,0.8909309,0.6188583,0.100770384,1.4163858,0.90275496,0.5915893,0.32089907,1.2857709,1.3148217,0.3160564,0.09076198,0.93926287,0.688494,-0.45254266,-0.28896695,0.32671314,804.65204,772.4176,806.26373,826.8132,699.0842,0.42041015625,0.274169921875,0.9100341796875,8.770294189453125,-10.729217529296875,-4.762725830078125,1,2.0,1.0,1.0,2.0,80.00
2021-04-06 09:45:30.090,0.66869426,1.280823,0.715109,0.4294851,0.8909309,0.6188583,0.041981287,0.59948266,0.90275496,0.5915893,0.50112057,0.8813843,1.3148217,0.3160564,0.1578974,0.6705047,0.688494,-0.45254266,-0.2027973,0.17076398,826.4103,774.83514,809.89014,830.84247,796.5934,0.38092041015625,0.22808837890625,0.88177490234375,5.03936767578125,-6.811370849609375,4.523468017578125,1,1.0,1.0,1.0,1.0,80.00
2021-04-06 09:45:30.595,0.66869426,1.280823,0.6317483,0.51442355,0.8909309,0.6188583,-0.09463398,0.5315532,0.90275496,0.5915893,0.35223114,0.8813843,1.3148217,0.3160564,0.17740685,0.6205761,0.688494,-0.45254266,-0.22781786,0.12751557,817.1429,766.3736,841.7216,828.022,725.6777,0.39398193359375,0.22998046875,0.9083251953125,-2.093505859375,-5.443115234375,38.049468994140625,1,1.0,1.0,1.0,1.0,80.00
2021-04-06 09:45:31.108,0.66869426,1.280823,0.93000805,0.81161857,0.8909309,0.6188583,0.44893914,0.7551283,0.90275496,0.5915893,0.57904553,1.1656003,1.3148217,0.3160564,0.24798904,0.6102711,0.688494,-0.45254266,-0.15973027,0.121181905,877.5824,615.2747,808.2784,866.30035,892.49084,0.4342041015625,-0.0067138671875,0.8927001953125,-5.09918212890625,-2.415008544921875,24.920196533203125,1,1.0,1.0,1.0,1.0,80.00
2021-04-06 09:45:31.631,0.66869426,1.280823,0.9551405,0.9761125,0.8909309,0.6188583,0.5934172,0.8414139,0.90275496,0.5915893,0.49264306,1.1417727,1.3148217,0.3160564,0.24260604,0.54192513,0.688494,-0.45254266,-0.21059902,0.083632335,842.9304,753.47986,811.50183,834.87177,805.05493,0.4259033203125,-0.05609130859375,0.9031982421875,10.056304931640625,-4.015045166015625,6.138458251953125,1,1.0,1.0,1.0,1.0,80.00
2021-04-06 09:45:32.157,0.66869426,1.280823,1.0221449,1.0674192,0.8909309,0.6188583,0.62475395,0.9562453,0.90275496,0.5915893,0.51785046,1.096857,1.3148217,0.3160564,0.116494305,0.5385014,0.688494,-0.45254266,-0.20938103,0.11632829,798.60803,1001.28204,815.5311,823.1868,776.4469,0.31610107421875,-0.03778076171875,0.95562744140625,8.172149658203125,-3.611297607421875,0.64300537109375,1,1.0,1.0,1.0,1.0,80.00
2021-04-06 09:45:32.233,0.66869426,1.280823,1.0380619,1.0674192,0.8909309,0.6188583,0.556293025,0.9562453,0.90275496,0.5915893,0.45637873,1.096857,1.3148217,0.3160564,0.1239529825,0.5385014,0.688494,-0.45254266,-0.193540745000,0.11632829,809.89011499999,898.53479,811.30035,,,,,,,,,,,,,,,/muse/elements/blink
2021-04-06 09:45:32.660,0.66869426,1.280823,1.0539789,1.0674192,0.8909309,0.6188583,0.4878321,0.9562453,0.90275496,0.5915893,0.394907,1.096857,1.3148217,0.3160564,0.13141166,0.5385014,0.688494,-0.45254266,-0.17770046,0.11632829,821.1722,795.78754,807.0696,804.65204,537.50916,0.32147216796875,-0.01556396484375,0.94769287109375,3.132781982421875,-5.988922119140625,-0.814971923828125,1,1.0,1.0,1.0,1.0,80.00
2021-04-06 09:45:33.168,0.66869426,1.280823,1.1702932,1.0674192,0.8909309,0.6188583,0.7753325,0.9562453,0.90275496,0.5915893,0.6921953,1.096857,1.3148217,0.3160564,0.15708235,0.5385014,0.688494,-0.45254266,-0.106605835,0.11632829,924.7253,833.663,793.36993,851.79486,840.10986,0.22088623046875,-0.006591796875,0.97430419921875,5.263671875,-6.86370849609375,1.016845703125,1,1.0,1.0,1.0,1.0,80.00
2021-04-06 09:45:33.675,0.66869426,1.280823,1.2748418,1.0674192,0.8909309,0.6188583,0.9289912,0.9562453,0.90275496,0.5915893,0.6979609,1.096857,1.3148217,0.3160564,0.23433399,0.5385014,0.688494,-0.45254266,-0.046129223,0.11632829,777.6557,801.02563,805.05493,803.0403,662.01465,0.25408935546875,-0.02581787109375,0.9642333984375,0.022430419921875,-1.9140625,-7.020721435546875,1,2.0,1.0,1.0,2.0,80.00
2021-04-06 09:45:34.182,0.66869426,1.280823,1.2144585,1.0674192,0.8909309,0.6188583,0.9077482,0.9562453,0.90275496,0.5915893,0.70049053,1.096857,1.3148217,0.3160564,0.21538909,0.5385014,0.688494,-0.45254266,-0.00981187,0.11632829,819.9634,838.0952,817.5458,829.6337,731.7216,0.22833251953125,0.047119140625,0.96905517578125,8.665618896484375,-0.112152099609375,5.480499267578125,1,2.0,1.0,1.0,2.0,80.00
2021-04-06 09:45:34.712,0.66869426,1.280823,0.9949123,1.0674192,0.8909309,0.6188583,0.64832705,0.9562453,0.90275496,0.5915893,0.6522466,1.096857,1.3148217,0.3160564,0.20479225,0.5385014,0.688494,-0.45254266,0.0020931158,0.11632829,716.0073,1625.0183,811.9048,794.9817,747.8388,0.21832275390625,0.039306640625,0.98309326171875,4.83001708984375,4.20196533203125,-3.177642822265625,1,2.0,1.0,1.0,2.0,80.00
2021-04-06 09:45:35.137,0.66869426,1.280823,0.82794227,1.0674192,0.8909309,0.6188583,0.4277488750000,0.9562453,0.90275496,0.5915893,0.4700684499999,1.096857,1.3148217,0.3160564,0.1921235849999,0.5385014,0.688494,-0.45254266,0.0228185008999,0.11632829,759.72526999999,1155.6044,804.65205,,,,,,,,,,,,,,,/muse/elements/blink
2021-04-06 09:45:35.226,0.66869426,1.280823,0.66097224,1.0674192,0.8909309,0.6188583,0.2071707,0.9562453,0.90275496,0.5915893,0.2878903,1.096857,1.3148217,0.3160564,0.17945492,0.5385014,0.688494,-0.45254266,0.043543886,0.11632829,803.44324,686.1905,797.3993,782.0879,962.1978,-0.18280029296875,-0.01153564453125,0.97918701171875,3.132781982421875,20.314483642578125,7.544097900390625,1,2.0,1.0,1.0,2.0,80.00
2021-04-06 09:45:35.438,0.66869426,1.280823,0.502306135,1.0674192,0.8909309,0.6188583,0.07909357,0.9562453,0.90275496,0.5915893,0.157020159,1.096857,1.3148217,0.3160564,0.174470735,0.5385014,0.688494,-0.45254266,0.0508874329999,0.11632829,805.86082,731.9231,802.23445,,,,,,,,,,,,,,,/muse/elements/blink
2021-04-06 09:45:35.733,0.66869426,1.280823,0.34364003,1.0674192,0.8909309,0.6188583,-0.04898356,0.9562453,0.90275496,0.5915893,0.026150018,1.096857,1.3148217,0.3160564,0.16948655,0.5385014,0.688494,-0.45254266,0.05823098,0.11632829,808.2784,777.6557,807.0696,816.7399,757.50916,-0.336181640625,0.05938720703125,0.93048095703125,13.749847412109375,14.766693115234375,-10.2880859375,1,2.0,4.0,1.0,2.0,80.00
2021-04-06 09:45:36.236,0.66869426,1.280823,0.30810034,1.0674192,0.8909309,0.6188583,-0.018512448,0.9562453,0.90275496,0.5915893,-0.025502836,1.096857,1.3148217,0.3160564,0.13031566,0.5385014,0.688494,-0.45254266,0.09994665,0.11632829,840.5128,655.56775,770.0,839.707,668.0586,-0.17694091796875,0.11834716796875,0.98126220703125,9.039459228515625,-18.34808349609375,-4.11224365234375,1,2.0,2.0,1.0,2.0,80.00
2021-04-06 09:45:36.648,0.66869426,1.280823,0.30810034,1.0674192,0.8909309,0.6188583,-0.018512448,0.9562453,0.90275496,0.5915893,-0.025502836,1.096857,1.3148217,0.3160564,0.13031566,0.5385014,0.688494,-0.45254266,0.09994665,0.11632829,914.45055,710.970675,771.007325,,,,,,,,,,,,,,,/muse/elements/blink
2021-04-06 09:45:36.754,0.66869426,1.280823,0.30810034,1.0674192,0.8909309,0.6188583,-0.018512448,0.9562453,0.90275496,0.5915893,-0.025502836,1.096857,1.3148217,0.3160564,0.13031566,0.5385014,0.688494,-0.45254266,0.09994665,0.11632829,988.3883,766.3736,772.01465,979.92676,788.1319,-0.05718994140625,0.1400146484375,0.97869873046875,6.20574951171875,-10.00396728515625,2.385101318359375,1,2.0,1.0,1.0,2.0,80.00
2021-04-06 09:45:37.179,0.66869426,1.280823,0.30810034,1.0674192,0.8909309,0.6188583,-0.018512448,0.9562453,0.90275496,0.5915893,-0.025502836,1.096857,1.3148217,0.3160564,0.13031566,0.5385014,0.688494,-0.45254266,0.09994665,0.11632829,899.34065,533.27837,766.77655,,,,,,,,,,,,,,,/muse/elements/blink
2021-04-06 09:45:37.262,0.66869426,1.280823,0.30810034,1.0674192,0.8909309,0.6188583,-0.018512448,0.9562453,0.90275496,0.5915893,-0.025502836,1.096857,1.3148217,0.3160564,0.13031566,0.5385014,0.688494,-0.45254266,0.09994665,0.11632829,810.293,300.18314,761.53845,814.3223,738.5714,0.0985107421875,0.13665771484375,0.99932861328125,6.407623291015625,-8.38897705078125,-7.40203857421875,1,2.0,2.0,1.0,2.0,90.00
2021-04-06 09:45:37.784,0.66869426,1.280823,0.30810034,1.0674192,0.8909309,0.6188583,-0.018512448,0.9562453,0.90275496,0.5915893,-0.025502836,1.096857,1.3148217,0.3160564,0.13031566,0.5385014,0.688494,-0.45254266,0.09994665,0.11632829,857.8388,627.3626,803.8461,817.9487,749.45056,0.12261962890625,0.16650390625,0.9815673828125,1.727142333984375,-6.616973876953125,-2.115936279296875,1,2.0,2.0,1.0,2.0,90.00
2021-04-06 09:45:38.302,0.66869426,1.280823,0.30810034,1.0674192,0.8909309,0.6188583,-0.018512448,0.9562453,0.90275496,0.5915893,-0.025502836,1.096857,1.3148217,0.3160564,0.13031566,0.5385014,0.688494,-0.45254266,0.09994665,0.11632829,812.3077,714.3956,801.4286,786.9231,813.1135,0.12774658203125,0.1514892578125,0.99285888671875,6.160888671875,-6.08612060546875,6.38519287109375,1,2.0,1.0,1.0,2.0,90.00
2021-04-06 09:45:38.577,0.66869426,1.280823,0.539001555,1.0674192,0.8909309,0.6188583,0.3062800260000,0.9562453,0.90275496,0.5915893,0.285996507,1.096857,1.3148217,0.3160564,0.21464896,0.5385014,0.688494,-0.45254266,-0.07261931,0.11632829,853.80952,713.99264999999,802.63735,,,,,,,,,,,,,,,/muse/elements/blink
2021-04-06 09:45:38.806,0.66869426,1.280823,0.76990277,1.0674192,0.8909309,0.6188583,0.6310725,0.9562453,0.90275496,0.5915893,0.59749585,1.096857,1.3148217,0.3160564,0.29898226,0.5385014,0.688494,-0.45254266,-0.24518527,0.11632829,895.31134,713.5897,803.8461,848.1685,847.3626,0.082275390625,0.19195556640625,0.997802734375,1.00189208984375,-2.011260986328125,18.46771240234375,1,2.0,1.0,1.0,2.0,90.00
2021-04-06 09:45:39.319,0.66869426,1.280823,1.0708314,1.0674192,0.8909309,0.6188583,0.7451115,0.9562453,0.90275496,0.5915893,0.649433,1.096857,1.3148217,0.3160564,0.2698335,0.5385014,0.688494,-0.45254266,-0.2629987,0.11632829,862.674,737.76556,798.20514,825.2015,775.64105,0.14404296875,0.108642578125,1.02630615234375,12.75543212890625,-15.514373779296875,-6.930999755859375,1,2.0,1.0,1.0,2.0,90.00
2021-04-06 09:45:39.838,0.66869426,1.280823,0.98592436,1.0674192,0.8909309,0.6188583,0.6617188,0.9562453,0.90275496,0.5915893,0.649433,1.096857,1.3148217,0.3160564,0.27163893,0.5385014,0.688494,-0.45254266,-0.2328573,0.11632829,833.663,772.8205,809.89014,867.1062,1042.7839,0.15533447265625,0.3148193359375,0.9779052734375,17.772369384765625,5.615081787109375,-3.3197021484375,1,2.0,1.0,1.0,2.0,90.00
2021-04-06 09:45:40.345,0.66869426,1.280823,0.8725086,1.0674192,0.8909309,0.6188583,0.42606258,0.9562453,0.90275496,0.5915893,0.5024852,1.096857,1.3148217,0.3160564,0.34626502,0.5385014,0.688494,-0.45254266,-0.11077861,0.11632829,824.3956,758.71796,810.293,785.31134,812.71063,-0.0181884765625,0.0255126953125,0.976318359375,-8.20953369140625,-2.85614013671875,35.7989501953125,1,2.0,1.0,1.0,2.0,90.00
2021-04-06 09:45:40.860,0.66869426,1.280823,0.56629276,1.0674192,0.8909309,0.6188583,0.2339292,0.9562453,0.90275496,0.5915893,0.37736112,1.096857,1.3148217,0.3160564,0.37081566,0.5385014,0.688494,-0.45254266,-0.08522152,0.11632829,783.69965,781.685,808.2784,826.0073,999.2674,0.0770263671875,0.1109619140625,0.97705078125,13.95172119140625,-12.45635986328125,-8.41888427734375,1,2.0,1.0,1.0,2.0,90.00
2021-04-06 09:45:41.363,0.66869426,1.280823,0.58142585,1.0674192,0.8909309,0.6188583,0.24297431,0.9562453,0.90275496,0.5915893,0.37736112,1.096857,1.3148217,0.3160564,0.39881095,0.5385014,0.688494,-0.45254266,-0.06486689,0.11632829,842.9304,785.31134,810.293,828.022,821.5751,0.101318359375,0.17645263671875,1.0028076171875,0.710296630859375,-4.224395751953125,0.964508056640625,1,2.0,1.0,1.0,2.0,90.00
2021-04-06 09:45:41.877,0.66869426,1.280823,0.6979649,1.0674192,0.8909309,0.6188583,0.37325838,0.9562453,0.90275496,0.5915893,0.35552412,1.096857,1.3148217,0.3160564,0.35377362,0.5385014,0.688494,-0.45254266,-0.08669125,0.11632829,812.71063,807.47253,813.5165,830.4396,766.3736,0.02850341796875,0.1072998046875,0.97283935546875,7.992706298828125,1.973876953125,6.998291015625,1,2.0,1.0,1.0,2.0,90.00
2021-04-06 09:45:42.210,0.66869426,1.097801,0.4010778750000,0.91806747,0.8909309,0.5534578649999,0.235954038,0.5950660249999,0.90275496,0.536161215,0.2155044500000,0.814656075,1.3148217,0.3141724500000,0.2225297150000,0.59704285,0.688494,-0.172688059999,-0.072823307,0.354131275,832.857145,858.241765,813.315,,,,,,,,,,,,,,,/muse/elements/blink
2021-04-06 09:45:42.399,0.66869426,0.914779,0.10419085,0.76871574,0.8909309,0.48805743,0.098649696,0.23388675,0.90275496,0.48073313,0.07548478,0.53245515,1.3148217,0.3122885,0.09128581,0.6555843,0.688494,0.10716654,-0.058955364,0.59193426,853.00366,909.011,813.1135,826.0073,828.022,-0.0867919921875,0.0582275390625,1.07049560546875,1.95892333984375,-0.889739990234375,-19.656524658203125,1,1.0,1.0,1.0,1.0,90.00
2021-04-06 09:45:42.907,0.66869426,0.914779,0.10419085,0.76871574,0.8909309,0.48805743,0.098649696,0.23388675,0.90275496,0.48073313,0.07548478,0.53245515,1.3148217,0.3122885,0.09128581,0.6555843,0.688494,0.10716654,-0.058955364,0.59193426,735.34796,832.8571,724.4689,751.8681,779.2674,-0.280517578125,0.170166015625,1.011474609375,13.346099853515625,11.17034912109375,4.2767333984375,1,1.0,1.0,1.0,1.0,90.00
2021-04-06 09:45:43.329,0.66869426,0.92755648,0.1363224900000,0.76871574,0.8909309,0.472581665,0.1111716405,0.23388675,0.90275496,0.474852685,0.0554036335,0.53245515,1.3148217,0.273595635,0.0858790349999,0.6555843,0.688494,0.12130839,-0.05638933,0.59193426,802.63736,804.249075,737.36265,,,,,,,,,,,,,,,/muse/elements/blink
2021-04-06 09:45:43.417,0.66869426,0.94033396,0.16845413,0.76871574,0.8909309,0.4571059,0.123693585,0.23388675,0.90275496,0.46897224,0.035322487,0.53245515,1.3148217,0.23490277,0.08047226,0.6555843,0.688494,0.13545024,-0.053823296,0.59193426,869.92676,775.64105,750.2564,845.34796,773.22345,0.02764892578125,0.0570068359375,0.96551513671875,-4.015045166015625,-19.910736083984375,33.458709716796875,1,1.0,1.0,1.0,1.0,90.00
2021-04-06 09:45:43.682,0.66869426,0.94033396,0.16845413,0.76871574,0.8909309,0.4571059,0.123693585,0.23388675,0.90275496,0.46897224,0.035322487,0.53245515,1.3148217,0.23490277,0.08047226,0.6555843,0.688494,0.13545024,-0.053823296,0.59193426,810.69598,795.58607499999,756.90474999999,,,,,,,,,,,,,,,/muse/elements/blink
2021-04-06 09:45:43.925,0.66869426,0.94033396,0.16845413,0.76871574,0.8909309,0.4571059,0.123693585,0.23388675,0.90275496,0.46897224,0.035322487,0.53245515,1.3148217,0.23490277,0.08047226,0.6555843,0.688494,0.13545024,-0.053823296,0.59193426,751.4652,815.5311,763.5531,845.7509,927.1429,0.18194580078125,-0.08050537109375,1.003662109375,6.901092529296875,-8.441314697265625,-65.2874755859375,1,1.0,1.0,1.0,1.0,90.00
2021-04-06 09:45:44.430,0.66869426,0.94033396,0.16845413,0.76871574,0.8909309,0.4571059,0.123693585,0.23388675,0.90275496,0.46897224,0.035322487,0.53245515,1.3148217,0.23490277,0.08047226,0.6555843,0.688494,0.13545024,-0.053823296,0.59193426,840.10986,801.4286,812.3077,819.15753,747.03296,0.140869140625,0.15045166015625,0.9969482421875,0.07476806640625,-7.932891845703125,0.755157470703125,1,1.0,1.0,1.0,1.0,90.00
2021-04-06 09:45:44.782,0.66869426,0.94033396,0.16845413,0.76871574,0.8909309,0.4571059,0.123693585,0.23388675,0.90275496,0.46897224,0.035322487,0.53245515,1.3148217,0.23490277,0.08047226,0.6555843,0.688494,0.13545024,-0.053823296,0.59193426,584.24907000000,719.43225,575.18315,,,,,,,,,,,,,,,/muse/elements/blink
2021-04-06 09:45:44.949,0.66869426,0.94033396,0.16845413,0.76871574,0.8909309,0.4571059,0.123693585,0.23388675,0.90275496,0.46897224,0.035322487,0.53245515,1.3148217,0.23490277,0.08047226,0.6555843,0.688494,0.13545024,-0.053823296,0.59193426,328.38828,637.4359,338.0586,303.8095,669.67035,0.251953125,0.12774658203125,1.033203125,-3.416900634765625,-7.34222412109375,8.23944091796875,1,2.0,1.0,1.0,2.0,90.00
2021-04-06 09:45:44.986,0.66869426,0.94033396,0.16845413,0.76871574,0.8909309,0.4571059,0.123693585,0.23388675,0.90275496,0.46897224,0.035322487,0.53245515,1.3148217,0.23490277,0.08047226,0.6555843,0.688494,0.13545024,-0.053823296,0.59193426,345.31136000000,674.90844999999,537.91208000000,,,,,,,,,,,,,,,/muse/elements/blink
2021-04-06 09:45:45.454,0.66869426,0.94033396,0.16845413,0.76871574,0.8909309,0.4571059,0.123693585,0.23388675,0.90275496,0.46897224,0.035322487,0.53245515,1.3148217,0.23490277,0.08047226,0.6555843,0.688494,0.13545024,-0.053823296,0.59193426,362.23444,712.381,737.76556,413.4066,763.1502,-0.1109619140625,3.662109375E-4,0.979248046875,4.007568359375,83.53836059570312,-11.79840087890625,1,2.0,1.0,1.0,2.0,90.00
2021-04-06 09:45:45.605,0.66869426,0.94033396,0.16845413,0.76871574,0.8909309,0.4571059,0.123693585,0.23388675,0.90275496,0.46897224,0.035322487,0.53245515,1.3148217,0.23490277,0.08047226,0.6555843,0.688494,0.13545024,-0.053823296,0.59193426,638.84617,795.38465,842.93038,,,,,,,,,,,,,,,/muse/elements/blink
2021-04-06 09:45:45.963,0.66869426,0.94033396,0.16845413,0.76871574,0.8909309,0.4571059,0.123693585,0.23388675,0.90275496,0.46897224,0.035322487,0.53245515,1.3148217,0.23490277,0.08047226,0.6555843,0.688494,0.13545024,-0.053823296,0.59193426,915.4579,878.3883,948.0952,829.6337,745.0183,-0.64654541015625,-0.17596435546875,0.74163818359375,-15.0732421875,10.893707275390625,-7.9254150390625,1,2.0,1.0,1.0,2.0,90.00
2021-04-06 09:45:46.295,0.66869426,0.94033396,0.16845413,0.76871574,0.8909309,0.4571059,0.123693585,0.23388675,0.90275496,0.46897224,0.035322487,0.53245515,1.3148217,0.23490277,0.08047226,0.6555843,0.688494,0.13545024,-0.053823296,0.59193426,753.479865,1056.685,848.36995,,,,,,,,,,,,,,,/muse/elements/blink
2021-04-06 09:45:46.472,0.66869426,0.94033396,0.16845413,0.76871574,0.8909309,0.4571059,0.123693585,0.23388675,0.90275496,0.46897224,0.035322487,0.53245515,1.3148217,0.23490277,0.08047226,0.6555843,0.688494,0.13545024,-0.053823296,0.59193426,591.50183,1234.9817,748.6447,623.73627,558.46155,-0.66400146484375,0.183349609375,0.73419189453125,50.184326171875,-2.205657958984375,31.484832763671875,1,2.0,1.0,1.0,2.0,90.00
2021-04-06 09:45:46.903,0.66869426,0.94033396,0.16845413,0.76871574,0.8909309,0.4571059,0.123693585,0.23388675,0.90275496,0.46897224,0.035322487,0.53245515,1.3148217,0.23490277,0.08047226,0.6555843,0.688494,0.13545024,-0.053823296,0.59193426,700.091585,1001.88645,751.66668,,,,,,,,,,,,,,,/muse/elements/blink
2021-04-06 09:45:46.981,0.66869426,0.94033396,0.16845413,0.76871574,0.8909309,0.4571059,0.123693585,0.23388675,0.90275496,0.46897224,0.035322487,0.53245515,1.3148217,0.23490277,0.08047226,0.6555843,0.688494,0.13545024,-0.053823296,0.59193426,808.68134,768.7912,754.68866,786.9231,846.55676,-0.62713623046875,0.34173583984375,0.77838134765625,-34.086761474609375,-33.03253173828125,-13.50311279296875,1,2.0,1.0,1.0,2.0,90.00
2021-04-06 09:45:47.116,0.66869426,0.94033396,0.16845413,0.76871574,0.8909309,0.4571059,0.123693585,0.23388675,0.90275496,0.46897224,0.035322487,0.53245515,1.3148217,0.23490277,0.08047226,0.6555843,0.688494,0.13545024,-0.053823296,0.59193426,829.83517000000,750.45785,768.79123,,,,,,,,,,,,,,,/muse/elements/blink
2021-04-06 09:45:47.491,0.66869426,0.94033396,0.16845413,0.76871574,0.8909309,0.4571059,0.123693585,0.23388675,0.90275496,0.46897224,0.035322487,0.53245515,1.3148217,0.23490277,0.08047226,0.6555843,0.688494,0.13545024,-0.053823296,0.59193426,850.989,732.1245,782.8938,824.3956,921.9048,-0.3995361328125,0.08135986328125,0.927001953125,4.7552490234375,-15.67138671875,-3.491668701171875,1,2.0,1.0,1.0,2.0,90.00
2021-04-06 09:45:48.001,0.66869426,0.94033396,0.16845413,0.76871574,0.8909309,0.4571059,0.123693585,0.23388675,0.90275496,0.46897224,0.035322487,0.53245515,1.3148217,0.23490277,0.08047226,0.6555843,0.688494,0.13545024,-0.053823296,0.59193426,863.8828,819.9634,831.6484,836.4835,853.00366,-0.3671875,0.0213623046875,0.93194580078125,2.87109375,-10.5572509765625,-3.648681640625,1,2.0,1.0,1.0,2.0,90.00
2021-04-06 09:45:48.510,0.66869426,0.94033396,0.16845413,0.76871574,0.8909309,0.4571059,0.123693585,0.23388675,0.90275496,0.46897224,0.035322487,0.53245515,1.3148217,0.23490277,0.08047226,0.6555843,0.688494,0.13545024,-0.053823296,0.59193426,883.6264,826.4103,850.18317,867.50916,840.9158,-0.314208984375,0.038818359375,0.9544677734375,5.14404296875,-7.29736328125,3.252410888671875,1,2.0,1.0,1.0,2.0,90.00
2021-04-06 09:45:49.020,0.66869426,0.94033396,0.16845413,0.76871574,0.8909309,0.4571059,0.123693585,0.23388675,0.90275496,0.46897224,0.035322487,0.53245515,1.3148217,0.23490277,0.08047226,0.6555843,0.688494,0.13545024,-0.053823296,0.59193426,855.82416,859.0476,869.12085,876.3736,941.6484,-0.30023193359375,0.03314208984375,0.95068359375,4.643096923828125,-6.467437744140625,1.9439697265625,1,2.0,1.0,1.0,2.0,90.00
2021-04-06 09:45:49.530,0.66869426,1.2778627,0.88102996,0.5622983,0.8909309,0.544323,0.68517554,0.57732856,0.90275496,0.59387535,0.1806453,0.68141776,1.3148217,0.1891921,0.22721736,0.60590845,0.688494,-0.16351381,-0.21301554,-0.07010734,834.4689,829.2308,829.2308,835.2747,910.2198,-0.3077392578125,0.03216552734375,0.9647216796875,4.867401123046875,-4.448699951171875,1.472930908203125,1,1.0,1.0,1.0,1.0,90.00
2021-04-06 09:45:50.039,0.7603961,1.2460003,1.0059984,0.727367,0.5532306,0.39641026,0.7480907,0.6238276,0.6875174,0.60603863,0.20731296,0.74360746,0.75966173,0.16965678,0.19570436,0.60805166,0.53220326,-0.18133809,-0.15196754,-0.03723621,845.34796,824.7985,839.707,830.0366,864.68866,-0.2777099609375,0.0997314453125,0.93939208984375,3.529052734375,-4.314117431640625,-3.7384033203125,1,1.0,1.0,1.0,1.0,90.00
2021-04-06 09:45:50.548,0.7603961,1.1257955,0.94966215,0.9003023,0.5532306,0.48406672,0.66745454,0.7215342,0.6875174,0.6552293,0.28190687,0.9415626,0.75966173,0.11525786,0.19596356,0.5930857,0.53220326,-0.108755164,-0.09722455,0.102896325,833.663,807.47253,834.0659,811.0989,701.50183,-0.2630615234375,0.0048828125,0.95538330078125,2.026214599609375,-10.983428955078125,-2.930908203125,1,1.0,1.0,1.0,1.0,90.00
2021-04-06 09:45:51.059,0.830843,1.0415415,0.9537228,1.2439996,0.5541305,0.5148378,0.52832043,0.9532656,0.67923236,0.69435376,0.3421346,0.93509525,0.7378512,0.14208932,0.21646582,0.5873421,0.5484002,-0.08934604,0.03047231,0.20111293,897.72894,841.31866,811.0989,818.3516,716.4103,-0.2431640625,0.12225341796875,0.96527099609375,-1.966400146484375,1.996307373046875,1.3458251953125,1,1.0,1.0,1.0,1.0,90.00
2021-04-06 09:45:51.570,0.830843,1.0671155,0.74640536,1.5911436,0.5541305,0.60252815,0.17418556,1.330775,0.67923236,0.68740517,0.26487708,0.8877728,0.7378512,0.22879548,0.26263762,0.61258173,0.5484002,0.012763262,0.13232332,0.27327767,920.293,800.6227,838.49817,795.78754,583.8461,-0.3330078125,0.03424072265625,0.9451904296875,-5.839385986328125,-8.50860595703125,-5.630035400390625,1,1.0,1.0,1.0,1.0,90.00
2021-04-06 09:45:52.078,0.830843,1.1952827,0.9265391,1.8023227,0.5541305,0.55891937,0.20219934,1.4749926,0.67923236,0.68791246,0.2265272,0.8727728,0.7378512,0.32985035,0.23723099,0.6939818,0.5484002,-0.007640621,0.14070374,0.09196418,814.3223,834.87177,796.5934,784.5055,846.1539,-0.3572998046875,0.02081298828125,0.974853515625,4.149627685546875,-7.4468994140625,-3.63372802734375,1,1.0,1.0,1.0,1.0,90.00
2021-04-06 09:45:52.593,0.830843,1.243312,0.93297607,1.8023227,0.5541305,0.6097992,0.45721468,1.4749926,0.67923236,0.63610125,0.39415112,0.8727728,0.7378512,0.37195244,0.20845622,0.6939818,0.5484002,0.013060444,0.054350052,0.09196418,770.0,806.26373,792.5641,776.8498,673.69965,-0.3529052734375,0.02252197265625,0.935546875,-3.170166015625,-13.2489013671875,-6.033782958984375,1,1.0,1.0,1.0,1.0,90.00
2021-04-06 09:45:53.099,0.830843,1.244556,0.94491774,1.8023227,0.5541305,0.69846886,0.6644069,1.4749926,0.67923236,0.57468545,0.65415716,0.8727728,0.7378512,0.3957485,0.2048131,0.6939818,0.5484002,-0.059258293,-0.008635603,0.09196418,821.978,804.2491,799.81683,812.71063,779.67035,-0.380126953125,0.05487060546875,0.9320068359375,4.844970703125,-3.06549072265625,0.85235595703125,1,1.0,1.0,1.0,1.0,90.00
2021-04-06 09:45:53.624,0.830843,0.85230976,0.6913783,1.8023227,0.5541305,0.45443463,0.566827,1.4749926,0.67923236,0.15346424,0.65415716,0.8727728,0.7378512,0.20727326,0.21895571,0.6939818,0.5484002,-0.19884162,-0.06939001,0.09196418,801.8315,813.5165,811.0989,815.5311,792.5641,-0.36175537109375,0.0318603515625,0.93048095703125,3.446807861328125,-6.841278076171875,1.68975830078125,1,2.0,1.0,1.0,2.0,90.00
2021-04-06 09:45:54.138,1.2764235,0.69773394,0.74152696,1.1973225,0.8352902,-0.005015208,0.38467708,0.45976588,0.88086176,0.026595522,0.63370836,0.81870365,1.0092444,0.09966334,0.18810534,0.49969605,0.5605631,-0.27978438,-0.06915401,-0.24661174,815.12823,807.8755,808.2784,816.7399,712.381,-0.35986328125,0.02752685546875,0.93634033203125,4.089813232421875,-5.450592041015625,-0.31402587890625,1,1.0,1.0,1.0,1.0,90.00
2021-04-06 09:45:54.649,1.1999311,0.5264694,0.69706917,1.0363045,0.795123,-0.04366604,0.055430558,0.4962584,0.901334,0.10662813,0.1762683,0.88980293,0.99680936,0.068167314,0.1358886,0.4759379,0.5528605,-0.25728628,-0.1776717,-0.16321588,813.1135,804.2491,809.4872,805.8608,887.25275,-0.36163330078125,0.0189208984375,0.9346923828125,4.583282470703125,-5.854339599609375,1.936492919921875,1,1.0,1.0,1.0,1.0,90.00
2021-04-06 09:45:55.172,1.2169703,0.43080002,0.631463,0.96184117,0.8310023,0.06358741,0.0035692756,0.53043956,0.8727128,0.4734978,0.20619705,0.82720166,1.006501,0.022598647,0.041857712,0.44515178,0.58023924,-0.33445254,-0.23793082,-0.15143818,786.52014,811.9048,805.05493,807.47253,858.6447,-0.34912109375,0.02423095703125,0.94256591796875,4.463653564453125,-5.45806884765625,0.88226318359375,1,1.0,1.0,1.0,1.0,90.00
2021-04-06 09:45:55.696,0.7489396,0.54979515,0.6752651,0.99565923,0.57669103,0.4256632,0.17121254,0.614799,0.7766347,0.68108183,0.3414919,0.7570553,0.95322526,-0.0046887537,-0.06399722,0.38532075,0.8654822,-0.3516735,-0.3248852,0.03879705,748.6447,801.02563,793.36993,809.0842,781.28204,-0.3538818359375,0.01373291015625,0.93927001953125,5.12908935546875,-5.316009521484375,1.727142333984375,1,1.0,1.0,1.0,1.0,90.00
2021-04-06 09:45:56.205,0.7489396,0.62203336,0.69725126,1.0577972,0.57669103,0.44183347,0.23939106,0.51625496,0.7766347,0.6817056,0.31432012,0.59664637,0.95322526,0.034742408,-0.05014998,0.44094783,0.8654822,-0.39486805,-0.35265666,0.1478014,835.6777,789.7436,789.34064,792.96704,819.5604,-0.35675048828125,0.00830078125,0.93603515625,4.433746337890625,-6.41510009765625,0.231781005859375,1,1.0,1.0,1.0,1.0,90.00
2021-04-06 09:45:56.717,0.7489396,0.6541671,0.7034449,1.0649797,0.57669103,0.3868446,0.20729841,0.456949,0.7766347,0.66348445,0.33043626,0.78520536,0.95322526,0.100884125,-0.028618358,0.55069894,0.8654822,-0.37712157,-0.3075983,0.12722264,796.1905,807.8755,795.38464,771.6117,740.18317,-0.35113525390625,0.014892578125,0.9398193359375,4.448699951171875,-3.701019287109375,0.814971923828125,1,1.0,1.0,1.0,1.0,90.00
2021-04-06 09:45:57.246,0.7489396,0.64487004,0.83648634,1.1611022,0.57669103,0.059009477,-0.07355067,0.36771977,0.7766347,0.17832007,0.34179798,0.82361686,0.95322526,0.12340165,0.0749314,0.58398247,0.8654822,-0.2845782,-0.18245362,0.15514879,826.8132,807.47253,822.7839,813.91943,804.2491,-0.35687255859375,0.00927734375,0.922607421875,5.86181640625,-6.691741943359375,0.022430419921875,1,1.0,1.0,1.0,1.0,90.00
2021-04-06 09:45:57.769,0.7489396,0.7100048,0.84766394,1.2992795,0.57669103,0.049013987,-0.42929476,0.4010545,0.7766347,0.06449709,0.3347166,0.82361686,0.95322526,0.15627922,0.08559493,0.6190931,0.8654822,-0.22330476,-0.12547009,0.15308534,790.9524,842.52747,816.337,829.6337,674.10254,-0.30035400390625,0.09344482421875,0.97265625,10.205841064453125,-4.56085205078125,2.325286865234375,1,1.0,1.0,1.0,1.0,90.00
2021-04-06 09:45:58.299,0.7489396,0.8581988,0.8185031,1.5280125,0.57669103,0.1596076,-0.24069926,0.55346453,0.7766347,0.2811223,0.33740392,0.7873439,0.95322526,0.26012737,0.14534584,0.5663946,0.8654822,0.0706497,-0.09559994,0.26283264,832.8571,820.3663,821.5751,811.0989,728.0952,-0.3553466796875,0.0537109375,0.9390869140625,4.553375244140625,-4.957122802734375,3.461761474609375,1,1.0,1.0,1.0,1.0,85.00
2021-04-06 09:45:58.820,1.0460385,0.7602218,0.5226855,1.5280125,1.1739323,0.20851934,-0.09052837,0.55346453,1.1168334,0.44170463,0.32595724,0.7873439,0.9490219,0.25409526,0.12306483,0.5663946,0.8132823,0.090103574,-0.19709983,0.26283264,845.7509,824.7985,811.0989,837.6923,776.4469,-0.378173828125,0.0311279296875,0.92657470703125,2.0037841796875,-3.850555419921875,-0.37384033203125,1,1.0,1.0,1.0,1.0,85.00
2021-04-06 09:45:59.352,1.0460385,0.6953693,0.54533315,1.5280125,1.1739323,0.2617026,0.21422751,0.55346453,1.1168334,0.44170463,0.3590941,0.7873439,0.9490219,0.18881828,0.15271305,0.5663946,0.8132823,0.01893542,-0.22207977,0.26283264,817.9487,822.7839,808.2784,822.7839,714.7985,-0.36456298828125,0.02569580078125,0.9346923828125,4.209442138671875,-6.736602783203125,0.276641845703125,1,1.0,1.0,1.0,1.0,85.00
2021-04-06 09:45:59.854,0.9579908,0.2751423,0.50448835,1.1526828,1.0223681,0.13806772,0.22962384,0.6338602,0.8144021,0.4311448,0.3590941,0.840354,0.9767606,-0.031261384,0.117147535,0.7205593,0.5929764,-0.4490733,-0.2707998,0.39137396,814.7253,821.5751,817.1429,833.2601,734.94507,-0.33935546875,0.01861572265625,0.9388427734375,3.7384033203125,-5.749664306640625,-0.037384033203125,1,1.0,1.0,1.0,1.0,85.00
2021-04-06 09:46:00.372,0.91719043,0.61222565,0.46244532,1.0212406,0.4942578,0.134513,0.18348612,0.39267918,0.6558981,0.23732793,0.35098544,0.7448108,0.6642601,0.06436937,0.057417154,0.5884075,0.43581012,-0.5439224,-0.2976997,0.14094909,817.9487,815.5311,812.71063,828.8278,772.8205,-0.334716796875,0.02081298828125,0.9383544921875,4.6954345703125,-5.323486328125,0.5084228515625,1,1.0,1.0,1.0,1.0,85.00
2021-04-06 09:46:00.881,0.8054009,0.7214211,0.31458947,0.81291527,0.5307425,0.03608313,-0.13652341,0.2307201,0.7353625,0.19723035,0.15345716,0.54773635,0.67528373,0.045342326,-0.06865136,0.45770842,0.4996562,-0.413323,-0.3994154,-0.033314727,809.0842,815.9341,806.6667,820.3663,724.4689,-0.3211669921875,0.02471923828125,0.9451904296875,5.525360107421875,-5.525360107421875,1.24114990234375,1,1.0,1.0,1.0,1.0,85.00
2021-04-06 09:46:01.386,0.7161623,0.7897653,0.3767254,0.72460556,0.53192073,0.09803423,-0.40402174,0.46132854,0.8354508,0.15173456,0.07349487,0.8144953,0.7129515,0.02538754,-0.07740967,0.41867074,0.5856782,-0.26693305,-0.43309662,-0.019808497,782.49084,779.67035,815.9341,786.9231,790.14655,-0.32391357421875,0.0245361328125,0.94671630859375,5.03936767578125,-3.99261474609375,0.478515625,1,1.0,1.0,1.0,1.0,85.00
2021-04-06 09:46:01.890,0.650428,0.85395265,0.60543513,0.80590725,0.6236825,0.28140888,-0.037388217,0.7377197,0.89935505,0.22025044,0.18286742,0.8632531,0.7536328,-0.106003955,-0.120483465,0.33972898,0.6108253,-0.20030746,-0.38049382,0.002611974,803.44324,790.9524,791.3553,800.6227,838.0952,-0.3277587890625,0.02471923828125,0.95147705078125,4.94964599609375,-4.68048095703125,0.635528564453125,1,1.0,1.0,1.0,1.0,85.00
2021-04-06 09:46:02.408,0.69698685,1.0248849,0.9486807,1.0367826,0.65410244,0.42437667,0.23943688,0.91900283,0.88901037,0.34178528,0.26536804,0.9341046,0.79383135,-0.039434776,-0.06384909,0.42708877,0.63427293,-0.18688963,-0.32391274,0.029740378,792.1612,801.02563,778.86444,790.14655,734.1392,-0.321044921875,0.02008056640625,0.9482421875,5.316009521484375,-4.02252197265625,0.231781005859375,1,1.0,1.0,1.0,1.0,85.00
2021-04-06 09:46:02.912,0.78233695,1.150961,1.0818498,1.1465203,0.8038576,0.55213,0.42625523,0.9081486,0.84697866,0.33999297,0.30411258,0.89822406,0.7984315,-0.024539297,-0.11877817,0.47583243,0.5119444,-0.22195446,-0.2697457,0.0334091,832.8571,801.4286,808.2784,820.3663,802.6374,-0.33447265625,0.02398681640625,0.94580078125,4.5758056640625,-4.373931884765625,-0.037384033203125,1,1.0,1.0,1.0,1.0,85.00
2021-04-06 09:46:03.417,0.77178234,1.1469883,1.0557435,1.0791405,0.30300832,0.45573223,0.3917539,0.8105963,0.89890933,0.32632306,0.29338312,0.85837334,0.6519014,0.05134089,-0.07452241,0.46439946,0.4325035,-0.2728644,-0.26059195,0.016188309,786.9231,807.0696,800.6227,797.3993,782.8938,-0.33648681640625,0.0269775390625,0.9403076171875,4.91973876953125,-3.626251220703125,0.9271240234375,1,1.0,1.0,1.0,1.0,85.00
2021-04-06 09:46:03.930,0.97721434,0.17416231,0.8003778,1.0013678,0.37202498,-0.10518841,0.23914388,0.6758445,0.90588015,0.40383813,0.18706274,0.7757837,0.6250182,0.095659465,0.028810686,0.4499846,0.42241344,-0.4529215,-0.17929116,0.025699053,836.4835,817.1429,794.17584,824.7985,675.31134,-0.356201171875,0.02435302734375,0.93524169921875,5.06927490234375,-4.5458984375,1.188812255859375,1,1.0,1.0,1.0,1.0,85.00
2021-04-06 09:46:04.436,1.0493435,0.09944335,0.4408133,0.94544846,0.45198482,0.083294205,-0.07932017,0.7220472,0.82793134,0.5234524,-0.03603793,0.6900111,0.6449083,0.1363456,0.087216124,0.41345122,0.3875646,-0.5319727,-0.2951293,0.033044625,832.8571,819.5604,808.2784,848.97437,832.4542,-0.42205810546875,0.0853271484375,0.87982177734375,11.970367431640625,14.3853759765625,7.723541259765625,1,1.0,1.0,1.0,1.0,85.00
2021-04-06 09:46:04.954,1.120343,0.31155005,0.16756131,0.8470206,0.5351262,0.3048485,-0.26079893,0.7839483,0.5322739,0.6040707,0.2137146,0.61271197,0.6781664,0.12157775,0.073176056,0.4272467,0.39404514,-0.51123255,-0.31715158,0.075348526,842.52747,842.1245,810.293,773.6264,661.2088,-0.396728515625,0.08538818359375,0.930419921875,3.93280029296875,-14.572296142578125,-8.919830322265625,1,1.0,1.0,1.0,1.0,85.00
2021-04-06 09:46:05.480,1.1039245,0.49921787,0.3412116,0.8470206,0.59957695,0.43447646,-0.23725252,0.7839483,0.3991147,0.6040707,0.20535606,0.61271197,0.7398036,0.11207284,0.01934591,0.4272467,0.38029763,-0.4778815,-0.27162373,0.075348526,772.01465,859.85345,798.20514,834.4689,865.09155,-0.1494140625,0.21759033203125,1.02117919921875,8.874969482421875,-28.972625732421875,-17.308807373046875,1,1.0,1.0,1.0,1.0,85.00
2021-04-06 09:46:06.004,0.91203064,0.7538827,0.4788402,0.8470206,0.601965,0.56700546,-0.006614926,0.7839483,0.3781903,0.3983876,0.21339287,0.61271197,0.8105355,0.054716513,0.11091348,0.4272467,0.46563247,-0.357063,-0.13154589,0.075348526,759.5238,821.1722,803.44324,819.15753,774.0293,-0.361328125,0.050537109375,0.92327880859375,3.94775390625,4.613189697265625,1.36077880859375,1,1.0,1.0,1.0,1.0,85.00
2021-04-06 09:46:06.529,0.91203064,0.80712557,0.65601265,0.8470206,0.601965,0.584262,0.24545316,0.7839483,0.3781903,0.35227972,0.31444773,0.61271197,0.8105355,0.06448225,0.13352156,0.4272467,0.46563247,-0.33306006,-0.12934592,0.075348526,822.7839,815.12823,803.44324,802.23444,699.4872,-0.38836669921875,0.025390625,0.9383544921875,4.9346923828125,-1.652374267578125,-0.8074951171875,1,1.0,1.0,1.0,1.0,85.00
2021-04-06 09:46:07.059,0.91203064,0.80712557,0.6736853,0.40522042,0.601965,0.584262,0.2972221,0.55666625,0.3781903,0.35227972,0.32914537,0.79446936,0.8105355,0.06448225,0.16483833,0.50646216,0.46563247,-0.33306006,-0.25127375,0.24381667,823.1868,809.4872,800.6227,821.5751,757.1062,-0.39825439453125,0.066162109375,0.92236328125,3.66363525390625,-3.013153076171875,1.891632080078125,1,1.0,1.0,1.0,1.0,85.00
2021-04-06 09:46:07.585,0.91203064,0.48343137,0.81094104,0.69484866,0.601965,0.4823621,0.34891778,0.63147163,0.3781903,0.6706334,0.2897902,0.9492247,0.8105355,-0.07796243,0.10700329,0.4303878,0.46563247,-0.23058897,-0.3097629,0.115213834,796.5934,813.5165,805.05493,806.6667,767.5824,-0.38763427734375,0.025634765625,0.9263916015625,4.643096923828125,-8.25439453125,-0.485992431640625,1,1.0,1.0,1.0,1.0,85.00
2021-04-06 09:46:08.095,1.7971134,0.8786952,0.7331762,1.2001668,1.1043907,0.450585,0.27131057,0.72733045,1.1614254,0.7058246,0.06344286,1.0254935,0.73608315,-0.026130775,0.13185096,0.46293733,0.49425972,-0.20531058,-0.3324196,0.0940809,824.7985,804.2491,806.6667,813.91943,714.3956,-0.38726806640625,0.04168701171875,0.91876220703125,4.493560791015625,-3.75335693359375,0.2093505859375,1,1.0,1.0,1.0,1.0,85.00
2021-04-06 09:46:08.596,1.577711,0.8935449,0.8538596,1.3524024,0.8989605,0.34940052,0.2528401,0.79271406,1.1859045,0.708836,-0.04093853,1.0254935,0.93840754,0.068624884,0.0644595,0.4394217,0.5694489,-0.26334742,-0.27388194,-0.0060106516,797.3993,814.7253,798.60803,813.91943,832.0513,-0.37445068359375,0.05438232421875,0.9267578125,4.486083984375,-4.837493896484375,2.67669677734375,1,1.0,1.0,1.0,1.0,85.00
2021-04-06 09:46:09.099,1.4587516,0.90911394,0.29214868,1.2835013,0.8003274,0.111915715,-0.42559654,0.67539173,1.1866368,0.641499,-0.017561398,0.9720053,0.8868565,0.121887825,0.059538983,0.45078382,0.5714085,-0.28123447,-0.32995474,-0.021490552,829.2308,873.5531,797.3993,827.619,770.80585,-0.3837890625,0.04705810546875,0.92486572265625,4.08233642578125,-5.682373046875,0.545806884765625,1,1.0,1.0,1.0,1.0,85.00
2021-04-06 09:46:09.618,1.0303512,0.6785919,0.5479951,0.49137983,0.48197588,-0.15414709,-0.09607277,0.52102965,0.908945,0.23594004,0.1520092,0.48340887,0.9204955,0.1554732,0.09603842,0.5635014,0.6311608,-0.3515057,-0.3693702,0.02375106,795.78754,817.5458,817.5458,814.3223,760.32965,-0.36444091796875,0.05084228515625,0.93145751953125,4.702911376953125,-6.11602783203125,0.418701171875,1,1.0,1.0,1.0,1.0,85.00
2021-04-06 09:46:10.124,0.7910783,0.57166445,0.53979456,0.45379132,0.42347524,-0.40126738,-0.063845925,0.4618353,0.8872338,-0.049967993,0.1520092,0.589434,0.8381047,0.07610942,0.10230335,0.6193126,0.61208785,-0.24100268,-0.3948912,-0.011983264,838.49817,814.7253,796.99634,823.5897,848.97437,-0.361083984375,0.041748046875,0.92822265625,4.822540283203125,-4.732818603515625,0.695343017578125,1,1.0,1.0,1.0,1.0,85.00
2021-04-06 09:46:10.639,0.7133391,0.5956998,0.6765167,0.6423458,0.35456532,-0.4091063,0.08517651,0.38124636,0.920279,-0.091151096,0.20199355,0.67887676,0.81961185,0.07692387,0.019851882,0.63865936,0.50064975,-0.23203698,-0.5048591,-0.03275713,813.5165,810.293,803.8461,799.41394,749.45056,-0.3502197265625,0.0439453125,0.9403076171875,4.7552490234375,-6.108551025390625,0.6878662109375,1,1.0,1.0,1.0,1.0,85.00
2021-04-06 09:46:11.143,0.7737906,0.27518055,0.3748885,0.57626915,0.33115837,0.054255527,0.083780564,0.13578945,0.9054963,0.21426551,0.08653453,0.73698384,0.7829157,0.011079563,-0.09639888,0.53445923,0.3836978,-0.67147344,-0.57807714,-0.120270565,832.4542,813.91943,809.0842,826.4103,911.4286,-0.3446044921875,0.03778076171875,0.94305419921875,3.820648193359375,-5.914154052734375,0.67291259765625,1,1.0,1.0,1.0,1.0,85.00
2021-04-06 09:46:11.656,0.7893604,0.3430223,0.3053859,0.7097147,0.20450704,-0.063472584,0.08150132,0.36626577,0.91125816,0.3819809,0.19761562,0.73698384,0.7608689,-0.025190081,-0.10292001,0.37261704,0.48050338,-0.60130715,-0.5143826,-0.125427,789.34064,803.44324,821.5751,801.8315,725.6777,-0.3482666015625,0.034912109375,0.94085693359375,5.03936767578125,-2.67669677734375,1.173858642578125,1,1.0,1.0,1.0,1.0,85.00
2021-04-06 09:46:12.174,0.8202703,0.39114836,0.26941237,1.0037395,0.13826527,-0.13233466,0.2540522,1.0074638,0.70048577,0.58925664,0.43357277,1.0628208,0.8040741,-0.03222809,-0.03799167,0.33230194,0.6288187,-0.5727755,-0.44607335,-0.07739778,814.3223,814.7253,804.2491,805.05493,696.26373,-0.3624267578125,0.0330810546875,0.93426513671875,4.792633056640625,-4.6356201171875,1.33087158203125,1,1.0,1.0,1.0,1.0,85.00
2021-04-06 09:46:12.680,0.8160049,0.7023789,0.52227616,1.1621248,0.10273492,0.034169916,0.32094863,1.1605123,0.63950205,0.71422744,0.46209845,1.0364182,0.82575935,0.15841612,0.03547948,0.36662447,0.6702167,-0.22018437,-0.25822625,0.032071907,843.73627,813.91943,798.60803,818.7546,788.1319,-0.35498046875,0.0396728515625,0.93902587890625,4.8150634765625,-5.18890380859375,1.114044189453125,1,1.0,1.0,1.0,1.0,85.00
2021-04-06 09:46:13.183,0.6225592,0.6974203,0.52508754,1.1604834,0.38561705,0.06352499,0.30754548,1.099149,0.77274746,0.71422744,0.46544656,1.0386045,1.0537567,0.2116475,0.0730461,0.37325066,0.9691889,-0.11085527,-0.16539718,0.029600544,815.5311,807.47253,799.41394,817.5458,816.337,-0.35760498046875,0.03271484375,0.93475341796875,5.390777587890625,-5.286102294921875,2.1832275390625,1,1.0,1.0,1.0,1.0,85.00
2021-04-06 09:46:13.693,0.8203916,0.606503,0.42696264,0.8800307,0.45503548,-0.06571538,0.09212765,0.23224652,0.8766217,0.67455304,0.4207953,0.84220636,0.9176892,0.22136985,0.08079199,0.2988574,0.7824512,-0.11248364,-0.15897624,0.00305228,814.3223,810.293,802.23444,819.5604,699.4872,-0.35687255859375,0.034423828125,0.9349365234375,4.47113037109375,-4.777679443359375,0.9271240234375,1,1.0,1.0,1.0,1.0,85.00
2021-04-06 09:46:14.211,0.7765825,0.17751776,0.04237723,0.708909,0.35931706,-0.2589706,-0.21433175,-0.14378646,0.893025,0.18468024,0.35271078,0.47866032,0.8858121,0.0957623,0.016962199,0.36348715,0.7220036,-0.21424682,-0.24396092,0.037631955,783.69965,812.71063,810.293,785.7143,836.4835,-0.3663330078125,0.03863525390625,0.93243408203125,4.508514404296875,-3.461761474609375,0.785064697265625,1,1.0,1.0,1.0,1.0,85.00
2021-04-06 09:46:14.716,0.87354684,-0.21397854,-0.26846153,0.6838488,0.41269562,-0.29696426,-0.6072032,0.006324618,0.87479454,-0.022400878,-0.13829157,0.6459926,0.7696948,-0.007479551,-0.059233963,0.36755142,0.4402433,-0.49308273,-0.32528192,0.031863622,792.1612,816.337,799.41394,810.696,778.0586,-0.372802734375,0.03692626953125,0.92767333984375,4.403839111328125,-5.63751220703125,1.83929443359375,1,1.0,1.0,1.0,1.0,85.00
2021-04-06 09:46:15.220,0.8757642,-0.13676213,-0.046662107,0.7640719,0.5678479,-0.09267099,-0.41521627,0.5110626,0.8902096,-0.0069190995,0.019750476,0.6995532,0.72235096,-0.03269855,-0.049902823,0.416624,0.43773657,-0.5573027,-0.37448645,-0.0106952,817.9487,810.293,799.41394,811.50183,739.3773,-0.36627197265625,0.04046630859375,0.93157958984375,4.598236083984375,-5.046844482421875,1.682281494140625,1,1.0,1.0,1.0,1.0,85.00
2021-04-06 09:46:15.733,0.87521183,-0.09469607,0.1092324,0.79110676,0.64969194,-0.09677278,-0.26469707,0.62739044,0.8579216,0.19024986,0.08085295,0.7930156,0.61196584,-0.040424455,-0.08677078,0.35083273,0.3252982,-0.5628302,-0.33233312,-0.15837146,825.2015,816.7399,808.68134,814.3223,830.0366,-0.36480712890625,0.034912109375,0.92864990234375,5.136566162109375,-5.585174560546875,1.039276123046875,1,1.0,1.0,1.0,1.0,85.00
2021-04-06 09:46:16.264,0.6833272,0.0911879,0.17224745,0.59839004,0.54991215,-0.014010119,-0.08192904,0.5435251,0.75459814,0.27943334,0.09670579,0.7304512,0.55328244,-0.0624176,-0.053809136,0.36857745,0.3666968,-0.49071085,-0.32782894,-0.15591152,791.3553,812.3077,806.26373,797.8022,715.6044,-0.361083984375,0.03851318359375,0.93389892578125,4.717864990234375,-4.329071044921875,0.934600830078125,1,1.0,1.0,1.0,1.0,85.00
2021-04-06 09:46:16.771,0.5143664,0.2317055,0.37301093,0.5295992,0.3678967,0.11048798,-0.033637054,0.35513985,0.6799322,0.34351572,0.23916005,0.6894256,0.55495,-0.078541145,-0.10712699,0.38621333,0.31517467,-0.4375746,-0.28547612,-0.1564386,813.5165,805.8608,799.41394,829.6337,805.8608,-0.35321044921875,0.03521728515625,0.93328857421875,4.329071044921875,-4.822540283203125,1.622467041015625,1,1.0,1.0,1.0,1.0,85.00
2021-04-06 09:46:17.296,0.17371449,0.60658926,0.7552689,1.0705419,0.14802863,0.2318998,0.020991322,0.65984935,0.49257225,0.38830304,0.34782943,0.8618878,0.5712633,-0.094698384,-0.0693762,0.42669633,0.36727172,-0.4034976,-0.23602968,-0.06585291,789.7436,815.12823,811.0989,823.1868,676.1172,-0.3572998046875,0.0357666015625,0.93756103515625,4.403839111328125,-4.83001708984375,1.00189208984375,1,1.0,1.0,1.0,1.0,85.00
2021-04-06 09:46:17.825,0.17371449,0.5664159,0.7981242,0.979336,0.14802863,0.13588484,0.020222371,0.5295632,0.49257225,0.36898506,0.43272388,0.97281265,0.5712633,-0.13051341,-0.06805558,0.44997764,0.36727172,-0.39243725,-0.25501138,-0.015657382,813.1135,810.293,800.2198,815.5311,709.5604,-0.3721923828125,0.03070068359375,0.93341064453125,5.1141357421875,-5.988922119140625,2.1832275390625,1,1.0,1.0,1.0,1.0,85.00
2021-04-06 09:46:18.331,0.17371449,0.5568093,0.75183517,0.93023986,0.14802863,-0.028433941,0.009721784,0.5034053,0.49257225,0.27627915,0.4945272,0.97242296,0.5712633,0.029076252,0.07091598,0.4390367,0.36727172,-0.2658944,-0.13098228,8.748497E-5,803.8461,800.6227,802.23444,811.9048,781.685,-0.357421875,0.03076171875,0.9346923828125,4.329071044921875,-4.927215576171875,0.725250244140625,1,1.0,1.0,1.0,1.0,85.00
2021-04-06 09:46:18.834,1.0392421,0.1384224,0.4814338,0.24925052,0.73799926,-0.3004484,-0.04364341,-0.009527376,1.6329938,0.25112966,0.33779842,0.90259445,1.3989091,0.08235331,0.09505211,0.35903788,1.237153,-0.32889262,-0.14249437,-0.07266993,815.9341,806.26373,794.9817,799.81683,736.9597,-0.35467529296875,0.03582763671875,0.940185546875,4.882354736328125,-4.3963623046875,0.059814453125,1,1.0,1.0,1.0,1.0,85.00
2021-04-06 09:46:19.337,0.74313194,0.13570425,0.35509825,0.07328426,0.52562463,-0.2550696,-0.12966144,0.12117587,1.5240326,0.16787498,0.15544115,0.5001346,1.1732452,0.09092175,0.086316966,0.35759297,1.0179862,-0.3605982,-0.181401,-0.15276651,807.47253,816.7399,815.5311,793.36993,756.7033,-0.36090087890625,0.0303955078125,0.94049072265625,5.166473388671875,-5.839385986328125,2.295379638671875,1,1.0,1.0,1.0,1.0,85.00
2021-04-06 09:46:19.844,0.54831356,0.3247043,0.45813584,0.054717034,0.41007906,-0.14086625,-0.12449947,0.11492011,0.662362,0.2161134,0.09947372,0.4916928,1.0594844,-0.03825344,-0.072341494,0.37372366,0.8678187,-0.57534236,-0.36370012,-0.21158396,832.8571,813.91943,804.65204,816.337,859.45056,-0.35076904296875,0.02679443359375,0.94464111328125,5.600128173828125,-4.643096923828125,0.979461669921875,1,1.0,1.0,1.0,1.0,85.00
2021-04-06 09:46:20.366,0.8674512,0.38691035,0.3859936,0.93673956,0.6821543,-0.12400437,-0.12608019,0.3351043,0.86243814,0.109401174,0.14672352,0.75848746,1.0247998,-0.11362407,-0.049354255,0.4906004,0.88630503,-0.5205441,-0.31978467,0.02763394,818.7546,800.6227,807.47253,802.23444,724.0659,-0.3353271484375,0.02752685546875,0.9437255859375,5.99639892578125,-7.40203857421875,2.40753173828125,1,1.0,1.0,1.0,1.0,85.00
2021-04-06 09:46:20.874,0.964506,0.42320514,0.5568487,1.0172832,0.6701545,0.01823162,-0.07402334,0.5880638,0.91985464,0.2287909,0.18852788,0.86339074,0.9753572,0.13792779,0.05603909,0.6274265,0.4169704,-0.058225185,-0.19766775,0.5456337,822.7839,807.47253,797.3993,789.7436,761.53845,-0.2828369140625,0.06585693359375,0.96099853515625,10.826416015625,-10.60211181640625,6.02630615234375,1,1.0,1.0,1.0,1.0,85.00
2021-04-06 09:46:21.386,1.0323915,0.5124405,0.61840725,1.0334557,0.63953704,0.21705079,0.11418303,0.47727677,1.0462142,0.25952455,0.32364845,0.867621,1.0377802,0.5083927,0.21508175,0.69755036,0.57773006,0.46910518,0.058440465,0.7027029,779.67035,794.57874,822.381,819.15753,676.9231,-0.33447265625,0.0526123046875,0.925048828125,-4.598236083984375,5.93658447265625,6.736602783203125,1,1.0,1.0,1.0,1.0,85.00
2021-04-06 09:46:21.888,0.99830586,0.91622627,0.72967464,1.2646257,0.57274,0.48967105,0.3812748,0.5970149,0.93225056,0.5238979,0.40752202,0.88713557,1.0989381,0.5762673,0.23937379,0.8062348,0.6181504,0.5313276,0.07584545,0.736622,755.89746,813.91943,815.9341,832.4542,742.1978,-0.3983154296875,0.0196533203125,0.91290283203125,8.231964111328125,-5.45806884765625,-1.727142333984375,1,1.0,1.0,1.0,1.0,85.00
2021-04-06 09:46:22.411,1.0782104,1.0481876,0.6572186,1.3170137,0.56546444,0.542575,0.4274648,0.6336498,0.8969831,0.51826715,0.4378398,0.91879696,1.1436775,0.50886023,0.20525542,0.8056947,0.78990227,0.45864406,0.045564994,0.7307908,827.619,808.2784,811.0989,829.2308,751.06226,-0.4139404296875,0.02996826171875,0.9112548828125,5.450592041015625,-4.0673828125,-0.381317138671875,1,1.0,1.0,1.0,1.0,85.00
2021-04-06 09:46:22.916,1.0782104,1.1443717,0.73804617,1.4244424,0.56546444,0.665913,0.35807103,0.77719605,0.8969831,0.54878396,0.43327516,0.91879696,1.1436775,0.17424957,0.099409536,0.81494606,0.78990227,-0.05981569,-0.17156282,0.60854477,820.3663,818.7546,804.65204,813.1135,703.91943,-0.4111328125,0.0361328125,0.91790771484375,5.899200439453125,-7.07305908203125,1.55517578125,1,1.0,1.0,1.0,1.0,85.00
2021-04-06 09:46:23.445,1.0782104,0.9716197,0.619832,1.1134452,0.56546444,0.5889244,0.040963676,0.8055257,0.8969831,0.45645025,0.14368017,0.91879696,1.1436775,-0.008793971,0.055186506,0.67846227,0.78990227,-0.39233905,-0.18388554,0.6084989,843.3333,819.9634,809.89014,825.2015,749.45056,-0.3946533203125,0.0350341796875,0.921630859375,4.29168701171875,-6.4599609375,0.3887939453125,1,1.0,1.0,1.0,1.0,85.00
2021-04-06 09:46:23.947,1.0782104,0.827454,0.64506835,0.8497739,0.56546444,0.5367223,-0.079142235,0.13538599,0.8969831,0.39377463,0.20615767,0.26281136,1.1436775,0.044356868,0.046233885,0.23880646,0.78990227,-0.45325252,-0.21338484,-0.04546857,837.28937,815.12823,801.02563,811.9048,825.2015,-0.3729248046875,0.0301513671875,0.9295654296875,4.50103759765625,-6.4599609375,0.545806884765625,1,1.0,1.0,1.0,1.0,85.00
2021-04-06 09:46:24.457,1.0782104,0.36217222,0.3320833,0.8832131,0.56546444,0.22394958,-0.24758127,0.04135585,0.8969831,0.36976978,0.048561513,0.28924805,1.1436775,0.042796064,0.02256262,0.3980488,0.78990227,-0.50375974,-0.27266634,-0.09976128,787.72894,805.4579,828.8278,770.40295,761.13556,-0.3631591796875,0.02886962890625,0.9371337890625,4.91973876953125,-6.392669677734375,1.33087158203125,1,1.0,1.0,1.0,1.0,85.00
2021-04-06 09:46:24.965,0.8303628,0.35013556,0.62414616,0.8832131,0.9773693,0.01908708,-0.19933921,0.04135585,1.3723823,0.33541787,0.048561513,0.28924805,1.4661828,0.021688351,0.049595475,0.3980488,1.2477887,-0.4728813,-0.36814895,-0.09976128,834.0659,826.4103,815.9341,826.8132,774.83514,-0.35565185546875,0.0294189453125,0.93365478515625,4.418792724609375,-5.360870361328125,0.538330078125,1,1.0,1.0,1.0,1.0,85.00
2021-04-06 09:46:25.481,0.8303628,0.62827444,0.7840614,0.8652875,0.9773693,-0.14230143,-0.24292025,-0.1553633,1.3723823,0.280451,-0.008053559,0.2163393,1.4661828,-0.004979378,0.12104377,0.5309619,1.2477887,-0.38261467,-0.36866173,-0.15832688,805.8608,813.5165,806.6667,815.5311,815.5311,-0.352783203125,0.030517578125,0.93756103515625,4.9346923828125,-4.77020263671875,1.03179931640625,1,1.0,1.0,1.0,1.0,85.00
2021-04-06 09:46:25.985,0.7716377,0.71016765,0.78784776,0.8652875,0.682043,-0.10977195,-0.008425151,-0.1553633,1.3052171,0.21942654,0.1087968,0.2163393,1.1258433,-0.05504961,0.21636035,0.5309619,1.0145762,-0.39681932,-0.35069096,-0.15832688,807.47253,855.82416,792.5641,820.3663,828.022,-0.3614501953125,0.03125,0.9356689453125,4.747772216796875,-4.882354736328125,1.30096435546875,1,1.0,1.0,1.0,1.0,85.00
2021-04-06 09:46:26.503,0.9093883,0.9750704,0.71070343,0.6188271,0.9413762,0.26979905,0.25524035,0.41646802,1.3626655,0.43525124,0.35812968,0.7328761,1.1562812,0.059505437,0.17283228,0.47949484,1.4227169,-0.4013141,-0.3712806,0.12307333,877.1795,823.5897,808.2784,819.15753,687.3993,-0.36761474609375,0.0294189453125,0.92901611328125,5.226287841796875,-4.47113037109375,1.936492919921875,1,1.0,1.0,1.0,1.0,85.00
2021-04-06 09:46:27.023,0.91382074,0.9732231,0.5249837,0.597438,1.1569092,0.46868682,0.23598418,0.3815172,1.6315521,0.41925642,0.3599874,0.7343883,1.3736924,0.047238704,0.10023831,0.45757756,1.514647,-0.43357053,-0.3505492,0.10284276,815.9341,814.7253,802.23444,811.0989,749.45056,-0.36932373046875,0.0283203125,0.934814453125,4.486083984375,-4.807586669921875,0.770111083984375,1,1.0,1.0,1.0,1.0,85.00
2021-04-06 09:46:27.540,0.8524765,0.9268207,0.49190977,0.39770693,1.2000875,0.4806685,0.16970758,0.31699732,1.6867998,0.4840632,0.44592836,0.76888853,1.4245815,0.043417554,-0.016917307,0.36490735,1.5121987,-0.36090165,-0.34265777,0.08020033,777.6557,791.75824,818.7546,785.31134,712.7839,-0.3780517578125,0.02978515625,0.9315185546875,4.29168701171875,-3.177642822265625,0.6878662109375,1,1.0,1.0,1.0,1.0,85.00
2021-04-06 09:46:28.047,0.76625323,0.67089045,0.6340664,0.50641614,1.0882039,0.3277013,0.13642183,0.55243057,1.6707968,0.38570815,0.44835395,0.7984165,1.2644963,-3.110206E-4,0.057491735,0.35655022,1.2042108,-0.30943996,-0.31856778,0.019660624,819.15753,808.2784,821.5751,822.7839,832.8571,-0.377197265625,0.032958984375,0.92864990234375,4.71038818359375,-4.91973876953125,0.85235595703125,1,1.0,1.0,1.0,1.0,85.00
2021-04-06 09:46:28.554,0.7334824,0.6842819,0.694698,0.5566385,0.92845076,0.38807783,0.14915738,0.5956361,1.5436438,0.38570815,0.4387444,0.84159917,1.0206798,0.0038506319,0.06468656,0.39228627,0.81713426,-0.28008533,-0.2885364,-4.659643E-4,830.84247,807.8755,813.1135,819.5604,747.8388,-0.38287353515625,0.02801513671875,0.92193603515625,4.5458984375,-4.403839111328125,0.276641845703125,1,1.0,1.0,1.0,1.0,85.00
2021-04-06 09:46:29.067,0.73873055,0.67553014,0.66670084,0.6246292,0.7711939,0.3780019,0.082493685,0.61322194,0.99393886,0.32258973,0.40673897,0.8306812,0.7887562,-0.047154915,0.08204351,0.44033682,0.5220875,-0.3011986,-0.2713376,-0.05345218,821.1722,805.4579,805.05493,812.3077,710.7692,-0.378662109375,0.0328369140625,0.927490234375,5.106658935546875,-5.21881103515625,1.4654541015625,1,1.0,1.0,1.0,1.0,90.00
2021-04-06 09:46:29.576,0.5702956,0.35537508,0.2360501,0.44981217,0.5912039,0.19231617,-0.13738579,0.45902747,0.97927815,0.056257695,0.2323366,0.86956465,0.6963377,-0.13212518,0.024496255,0.37621906,0.36145294,-0.37241173,-0.28719884,-0.0617435,807.8755,812.71063,802.23444,814.7253,805.05493,-0.3759765625,0.02490234375,0.9246826171875,4.822540283203125,-4.4561767578125,0.299072265625,1,1.0,1.0,1.0,1.0,90.00
2021-04-06 09:46:30.083,0.6286207,-0.0012273374,-0.015243491,0.6086914,0.5172215,-0.1513056,-0.1698161,0.41926908,0.92460185,0.17983788,0.111815676,0.8403631,0.5284462,-0.1337163,0.038988322,0.3580174,0.31159446,-0.34056634,-0.31657717,-0.026606692,811.50183,813.91943,810.696,810.293,752.674,-0.374755859375,0.0289306640625,0.926025390625,4.3365478515625,-4.53094482421875,0.94207763671875,1,1.0,1.0,1.0,1.0,90.00
2021-04-06 09:46:30.612,0.69590676,0.1773681,0.008437141,0.65271413,0.55136555,-0.17541948,-0.11793834,0.38788903,0.92048204,0.20507881,-0.03898918,0.83389634,0.4760795,-0.12117212,0.044771653,0.28699845,0.30133075,-0.39205176,-0.3342686,-7.555522E-4,815.9341,814.7253,812.71063,816.337,636.63007,-0.3763427734375,0.02880859375,0.9273681640625,4.747772216796875,-4.246826171875,1.158905029296875,1,1.0,1.0,1.0,1.0,90.00
2021-04-06 09:46:31.115,1.0035203,0.10381183,-0.07497883,0.79647106,0.6535798,-0.11964457,-0.25471434,0.38694674,0.8797914,0.24213612,-0.11538692,0.7749641,0.8419604,-0.07924271,0.10359991,0.19412354,0.573355,-0.42770132,-0.3678925,-0.054605756,818.3516,818.3516,809.0842,823.5897,861.4652,-0.37518310546875,0.0291748046875,0.92852783203125,5.084228515625,-5.562744140625,0.471038818359375,1,1.0,1.0,1.0,1.0,90.00
2021-04-06 09:46:31.632,0.948931,0.16178223,-0.25267154,0.64497936,0.6842608,0.01340684,-0.33281702,0.35878828,0.79424506,0.23156363,-0.09376456,0.8053859,0.8818884,-0.051295936,0.080262385,0.13112743,0.58442837,-0.44536987,-0.41904205,-0.020055288,811.50183,814.3223,806.26373,799.011,768.3883,-0.38018798828125,0.0281982421875,0.9261474609375,4.598236083984375,-4.6356201171875,1.256103515625,1,1.0,1.0,1.0,1.0,90.00
2021-04-06 09:46:32.139,0.9337097,0.36996782,0.11732289,0.6118428,0.7091042,0.10497178,-0.26660386,0.41430414,0.7895683,0.15072614,0.24480158,0.7973905,0.9192788,-0.0438759,0.06989828,0.13544357,0.6066199,-0.43521255,-0.45659727,0.0047987825,823.9927,820.3663,805.4579,817.1429,716.0073,-0.38525390625,0.02813720703125,0.92352294921875,4.88983154296875,-3.895416259765625,1.30096435546875,1,1.0,1.0,1.0,1.0,90.00
2021-04-06 09:46:32.649,0.38091922,0.78039956,0.5300522,0.36438364,0.6220194,0.35262555,0.10205829,0.3645658,0.78754246,0.27329463,0.4690525,0.64694566,0.6293851,0.08368231,0.13276193,0.16408706,0.2750001,-0.45346093,-0.47284177,0.11338965,806.26373,812.71063,801.8315,779.67035,793.36993,-0.3951416015625,0.01751708984375,0.917236328125,6.0711669921875,-5.330963134765625,-0.64300537109375,1,1.0,1.0,1.0,1.0,90.00
2021-04-06 09:46:33.159,0.56244963,0.99117714,0.74451363,0.36438364,0.49840608,0.5736009,0.15921132,0.3645658,0.6821224,0.6142676,0.5032038,0.64694566,0.6692111,0.1238421,0.1682476,0.16408706,0.06341779,-0.5680268,-0.42969686,0.11338965,822.7839,821.978,811.50183,832.0513,781.28204,-0.3778076171875,0.0379638671875,0.93035888671875,5.18890380859375,-3.536529541015625,1.18133544921875,1,1.0,1.0,1.0,1.0,90.00
2021-04-06 09:46:33.668,0.6293968,1.0900435,0.74874103,0.36438364,0.5985728,0.67923677,0.1851594,0.3645658,1.039753,0.67688835,0.5031389,0.64694566,0.5891054,0.18702944,0.1656363,0.16408706,0.079071574,-0.5462113,-0.4307703,0.11338965,830.0366,815.12823,805.4579,817.1429,735.7509,-0.38671875,0.02301025390625,0.92401123046875,4.358978271484375,-3.2598876953125,1.15142822265625,1,1.0,1.0,1.0,1.0,90.00
2021-04-06 09:46:34.172,0.844619,1.0972598,0.6199676,1.0109545,0.87683386,0.63591623,0.040771037,1.0268238,1.0387218,0.67688835,0.49113682,1.0567673,0.48461893,0.1378424,0.112338476,0.35382575,0.08337337,-0.44454163,-0.43713576,-0.07317217,847.76556,817.5458,814.3223,837.28937,718.8278,-0.38275146484375,0.0242919921875,0.92828369140625,2.833709716796875,-3.15521240234375,-0.635528564453125,1,1.0,1.0,1.0,1.0,90.00
2021-04-06 09:46:34.679,0.82620853,0.9787791,0.64133406,0.88707376,0.95479035,0.47559085,0.10737308,0.90265614,1.1207116,0.7156552,0.4902659,1.1261187,0.4671454,0.08147053,0.14319687,0.36516872,0.099196784,-0.3894922,-0.35170123,-0.114762835,823.1868,815.12823,810.696,821.5751,672.0879,-0.37689208984375,0.01824951171875,0.928955078125,4.74029541015625,-5.72723388671875,1.4056396484375,1,1.0,1.0,1.0,1.0,90.00
2021-04-06 09:46:35.200,0.7514517,0.7635154,0.70406514,0.7350885,0.9479274,0.33430412,0.14227858,0.77351123,1.1656905,0.6303412,0.39925268,1.0821733,0.45087364,-0.008217664,0.11500951,0.36176756,0.104139164,-0.37198213,-0.361149,-0.15908128,817.9487,812.3077,805.05493,816.337,784.5055,-0.37823486328125,0.01837158203125,0.923828125,4.366455078125,-5.704803466796875,0.411224365234375,1,1.0,1.0,1.0,1.0,90.00
2021-04-06 09:46:35.718,0.59461766,0.29437062,0.6920918,0.5795427,0.80771226,0.18659422,0.16286846,0.5664706,1.1699755,0.61940485,0.3504516,0.85456675,0.43084052,-0.16391134,0.1279416,0.47317865,0.16048296,-0.41322368,-0.33542708,-0.23365141,784.10254,790.54944,807.0696,786.9231,718.4249,-0.37347412109375,0.01397705078125,0.9276123046875,4.83001708984375,-5.345916748046875,1.158905029296875,1,1.0,1.0,1.0,1.0,90.00
2021-04-06 09:46:36.225,0.5859331,0.3366723,0.45948115,0.62911206,0.64043653,0.031199489,0.073137484,0.42354378,1.2106149,0.6431496,0.3069424,0.83395153,0.46924263,-0.2025122,0.054130215,0.52911586,0.16239777,-0.5092013,-0.42932487,-0.21590169,820.3663,805.4579,802.6374,800.6227,733.3333,-0.36737060546875,0.0101318359375,0.9263916015625,4.5159912109375,-5.405731201171875,1.188812255859375,1,1.0,1.0,1.0,1.0,90.00
2021-04-06 09:46:36.735,0.7106262,0.4244545,0.23858653,0.70154625,0.4565697,-0.23997335,-0.016885957,0.16233273,0.9364442,0.31255835,0.21627703,0.6264182,0.5010385,-0.18292017,0.077829584,0.49277824,0.24043436,-0.5302494,-0.41785958,-0.2293737,801.8315,812.71063,798.20514,806.6667,880.40295,-0.36126708984375,0.01861572265625,0.92889404296875,4.605712890625,-5.630035400390625,1.951446533203125,1,1.0,1.0,1.0,1.0,90.00
2021-04-06 09:46:37.252,0.72163385,0.47427645,0.15864201,0.6227668,0.5925654,-0.064048715,-0.2599579,0.088648915,0.93394744,0.246277,0.15471986,0.49947274,0.5494257,-0.1739637,-0.021091748,0.36988586,0.3327231,-0.50186753,-0.40173855,-0.19791412,803.8461,810.696,807.0696,806.26373,772.01465,-0.361572265625,0.01824951171875,0.92950439453125,5.076751708984375,-5.465545654296875,1.33087158203125,1,1.0,1.0,1.0,1.0,90.00
2021-04-06 09:46:37.778,0.7242879,0.5478644,0.2539586,0.6061251,0.58393604,0.22573915,-0.3086259,0.16886702,0.90781265,0.3793135,-0.06027343,0.31428558,0.52717036,-0.25153285,-0.05581106,0.22033595,0.4209405,-0.46836364,-0.3794613,-0.21688588,780.87915,785.31134,763.1502,772.01465,732.9304,-0.36920166015625,0.02001953125,0.93560791015625,4.822540283203125,-4.344024658203125,0.665435791015625,1,1.0,1.0,1.0,1.0,90.00
2021-04-06 09:46:38.301,0.76904106,0.84717274,0.8720054,0.53200644,0.69689643,0.27296582,-0.040458404,0.24199556,0.93280655,0.4519067,0.23031375,0.31101444,0.58665895,-0.22573292,-0.07324931,0.16524471,0.47065368,-0.46760595,-0.3518361,-0.18935399,814.3223,798.60803,786.1172,809.0842,733.73627,-0.363037109375,0.02227783203125,0.92669677734375,4.0972900390625,-3.372039794921875,1.039276123046875,1,1.0,1.0,1.0,1.0,90.00
2021-04-06 09:46:38.805,0.9574322,1.097203,1.03313,0.68934333,0.6271263,0.37680724,0.32572433,0.30491042,0.75648105,0.55486315,0.35356706,0.29604435,0.5715881,-0.18918683,0.13420719,0.17811993,0.4731596,-0.51381075,-0.31441116,-0.18218641,801.4286,798.60803,795.78754,797.8022,765.56775,-0.380859375,0.01446533203125,0.9249267578125,4.792633056640625,-5.15899658203125,0.58319091796875,1,1.0,1.0,1.0,1.0,90.00
2021-04-06 09:46:39.318,0.9574322,1.0215124,1.0175642,0.46453506,0.6271263,0.29524353,0.34618196,0.26321706,0.75648105,0.55486315,0.35173023,0.7144015,0.5715881,-0.1663532,0.17422707,0.28003538,0.4731596,-0.51976997,-0.326766,-0.21239112,811.9048,812.71063,816.7399,800.2198,778.86444,-0.3800048828125,0.0223388671875,0.92718505859375,4.583282470703125,-4.059906005859375,1.472930908203125,1,1.0,1.0,1.0,1.0,85.00
2021-04-06 09:46:39.824,0.73805654,0.8831434,0.741909,0.53447133,0.5608471,0.23792951,0.28950354,0.25816834,0.6686576,0.47433585,0.38112423,0.7500031,0.6094585,-0.070095666,0.19199403,0.36540854,0.24762334,-0.4897338,-0.27046427,-0.14677483,800.2198,799.81683,790.14655,788.1319,724.0659,-0.38232421875,0.021240234375,0.9296875,4.418792724609375,-4.508514404296875,1.099090576171875,1,1.0,1.0,1.0,1.0,85.00
2021-04-06 09:46:40.327,0.68593377,0.39360553,0.43758437,0.52783924,0.57208145,-0.08146635,0.07592552,0.34318846,0.817084,0.085272975,0.29131997,0.89038616,0.564874,0.0072103622,0.12806103,0.44175825,0.2874781,-0.395028,-0.2986858,-0.00941483,736.55676,803.44324,815.9341,748.24176,702.3077,-0.37982177734375,0.01898193359375,0.924560546875,4.702911376953125,-4.8748779296875,0.897216796875,1,1.0,1.0,1.0,1.0,85.00
2021-04-06 09:46:40.829,0.7110288,0.21238402,0.46981668,0.54086876,0.59863085,-0.26411915,-0.07030929,0.40015602,0.79569435,0.06737892,0.30272645,0.831514,0.57229203,0.11237593,0.077591196,0.4612292,0.27405885,-0.32045645,-0.2596735,0.040867854,816.7399,803.0403,806.26373,801.8315,717.2161,-0.38031005859375,0.01959228515625,0.923095703125,4.807586669921875,-4.074859619140625,0.9271240234375,1,1.0,1.0,1.0,1.0,85.00
2021-04-06 09:46:41.335,0.576269,0.45236814,0.79072154,0.50409544,0.59106827,0.0074205385,0.07266277,0.5240226,0.6678054,0.3801476,0.51785207,0.7625318,0.47378784,0.036395915,0.050983228,0.52642894,0.3494758,-0.36318746,-0.36650318,0.18039991,809.89014,805.05493,795.38464,793.7729,729.304,-0.3804931640625,0.0228271484375,0.921142578125,5.06927490234375,-4.418792724609375,0.70281982421875,1,1.0,1.0,1.0,1.0,85.00
2021-04-06 09:46:41.846,0.79435617,0.69760215,0.8954831,0.4694966,0.5760099,0.2195615,0.18381973,0.5638939,0.9283763,0.39893013,0.5415934,0.75167996,0.4092307,-0.011869574,0.04933305,0.47243616,0.23234756,-0.49987495,-0.37787318,0.1802758,815.5311,795.38464,791.3553,816.337,760.32965,-0.389404296875,0.01947021484375,0.92572021484375,5.450592041015625,-4.1571044921875,0.321502685546875,1,1.0,1.0,1.0,1.0,85.00
2021-04-06 09:46:42.360,0.66275084,0.6988013,0.8489316,0.59752464,0.54682887,0.23033258,0.1936489,0.56911457,0.94136727,0.39893013,0.5415934,0.87411714,0.4210691,-0.09756734,0.06818952,0.46724898,0.22068134,-0.5676996,-0.38781348,0.051362578,816.7399,802.23444,806.26373,812.3077,865.09155,-0.3880615234375,0.01666259765625,0.91998291015625,4.62066650390625,-5.54779052734375,0.538330078125,1,1.0,1.0,1.0,1.0,85.00
2021-04-06 09:46:42.869,0.6300584,0.56035745,0.6330984,0.6258198,0.4148567,0.11629374,0.108821996,0.5028576,0.94351053,0.3118581,0.49172425,0.9573331,0.4125,-0.07335068,0.112840734,0.39978096,0.264252,-0.58061314,-0.31063205,0.112812914,802.23444,803.44324,797.8022,813.91943,764.7619,-0.38592529296875,0.02020263671875,0.92578125,5.084228515625,-5.084228515625,0.261688232421875,1,1.0,1.0,1.0,1.0,85.00
2021-04-06 09:46:43.385,0.56545913,0.27289024,0.45717585,0.54012144,0.304833,-0.083309636,-0.07355539,0.3583619,0.67375153,0.09637707,0.085486926,0.84603494,0.45350912,-0.14225602,0.054476745,0.37210634,0.26671073,-0.5310834,-0.25510302,0.14220268,814.7253,803.8461,795.78754,799.81683,693.44324,-0.38751220703125,0.02069091796875,0.922607421875,5.09918212890625,-4.583282470703125,1.428070068359375,1,1.0,1.0,1.0,1.0,85.00
2021-04-06 09:46:43.903,0.37760523,0.12199515,0.311813,0.3712784,0.19043942,-0.04989146,-0.034485914,0.31977004,0.5522276,0.104914084,0.11833685,0.79043293,0.43130437,-0.17933956,-0.042619444,0.36861488,0.23660336,-0.5225323,-0.31035963,0.090746716,829.2308,810.293,810.293,825.6044,762.74725,-0.38104248046875,0.0203857421875,0.925048828125,4.912261962890625,-4.448699951171875,0.994415283203125,1,1.0,1.0,1.0,1.0,85.00
2021-04-06 09:46:44.420,0.23384753,0.018054003,0.049503427,0.039719,0.28880563,-0.05142141,-0.070018604,0.25270832,0.6467345,0.11256296,0.13932791,0.6293449,0.5137159,-0.18370806,-0.19695967,0.39733142,0.13132142,-0.4929794,-0.300816,0.02814717,825.2015,807.47253,802.23444,803.0403,709.5604,-0.3857421875,0.02264404296875,0.9228515625,4.42626953125,-4.927215576171875,1.136474609375,1,1.0,1.0,1.0,1.0,85.00
2021-04-06 09:46:44.936,0.35469216,-0.06424861,-0.22433011,0.429334,0.4801039,-0.11789782,-0.10866715,0.43064842,0.79039705,0.0373801,0.16510119,0.7276517,0.54476875,-0.0795856,-0.14273061,0.4291425,0.1525227,-0.3861897,-0.32770115,-0.023764096,788.93774,828.022,814.7253,765.9707,762.74725,-0.3897705078125,0.02313232421875,0.92572021484375,4.74029541015625,-5.076751708984375,1.95892333984375,1,1.0,1.0,1.0,1.0,85.00
2021-04-06 09:46:45.439,0.5196966,0.62692314,0.24500623,0.6439892,0.53986126,-0.18268201,-0.14694415,0.4581025,0.79039705,0.05926875,0.11554781,0.73059475,0.6006537,0.049231414,0.027224075,0.44803846,0.1834912,-0.15366404,-0.06717087,0.030163705,811.50183,819.15753,808.2784,813.1135,754.68866,-0.3790283203125,0.020751953125,0.92755126953125,4.568328857421875,-4.94964599609375,1.614990234375,1,1.0,1.0,1.0,1.0,85.00
2021-04-06 09:46:45.960,0.6713803,0.83588254,0.45991325,0.86563516,0.6616227,-0.15684402,-0.21079487,0.608332,0.79039705,0.17351861,0.23985788,0.6829571,0.5823199,0.054219443,0.06457139,0.50715876,0.2857319,-0.13560008,-0.054604817,0.029442383,806.6667,810.696,796.99634,801.4286,671.28204,-0.3826904296875,0.01861572265625,0.92474365234375,4.66552734375,-4.74029541015625,1.07666015625,1,1.0,1.0,1.0,1.0,85.00
2021-04-06 09:46:46.474,0.34028852,0.8468453,0.4860874,0.41664705,-0.0027343708,-0.06845595,-0.18054557,0.42204607,0.4212963,0.2345216,0.3037068,0.5227076,0.5629682,0.0028666996,0.034789033,0.3323096,0.18067358,-0.20240724,-0.05437908,-0.23327515,814.7253,818.3516,809.0842,817.5458,789.7436,-0.3756103515625,0.0185546875,0.92291259765625,4.77020263671875,-4.05242919921875,1.24114990234375,1,1.0,1.0,1.0,1.0,85.00
2021-04-06 09:46:46.980,0.26143697,0.9582299,0.559489,0.36252216,-0.3099692,0.3526961,0.2969816,0.3631131,-0.088602886,0.6524599,0.52705395,0.5763635,0.59868467,0.03922584,-0.04516945,0.33393797,0.14205417,-0.3960762,-0.281047,-0.3838473,797.8022,797.8022,828.8278,792.96704,724.87177,-0.376220703125,0.0194091796875,0.9248046875,4.38140869140625,-5.405731201171875,0.231781005859375,1,1.0,1.0,1.0,1.0,85.00
2021-04-06 09:46:47.487,0.26143697,1.0524449,0.8397775,0.36252216,-0.3099692,0.49136156,0.46850517,0.3631131,-0.088602886,0.7646472,0.5891795,0.5763635,0.59868467,0.061985143,0.065785065,0.33393797,0.14205417,-0.40181392,-0.33695918,-0.3838473,827.2161,821.1722,813.91943,819.9634,784.10254,-0.35205078125,0.01885986328125,0.9493408203125,4.717864990234375,-6.10107421875,-2.519683837890625,1,1.0,1.0,1.0,1.0,85.00
2021-04-06 09:46:47.998,1.2095823,1.2719995,0.94067174,0.5185458,0.24706344,0.66188115,0.600313,0.36604494,0.24734937,0.8173853,0.58318037,0.5763635,0.5528213,0.058774713,0.18297233,0.37935108,0.2429075,-0.3737923,-0.32994008,-0.33166596,807.8755,811.9048,815.5311,839.707,862.674,-0.38238525390625,0.01458740234375,0.9351806640625,5.659942626953125,-9.577789306640625,-5.615081787109375,1,1.0,1.0,1.0,1.0,85.00
2021-04-06 09:46:48.515,1.2095823,1.1031163,0.8513964,0.8149236,0.24706344,0.4897776,0.40958816,0.3788349,0.24734937,0.73885185,0.5685062,0.47162628,0.5528213,-0.17524898,0.16678219,0.5633479,0.2429075,-0.43147936,-0.34381893,0.24548315,825.2015,798.20514,808.2784,820.7692,821.1722,-0.35211181640625,0.04620361328125,0.942626953125,2.265472412109375,-5.33843994140625,6.56463623046875,1,1.0,1.0,1.0,1.0,85.00
2021-04-06 09:46:48.894,1.2095823,1.064938,0.6755853700000,0.8742429700000,0.24706344,0.47291755,0.309102135,0.39397675,0.24734937,0.715697075,0.553174265,0.50602754,0.5528213,-0.192847525000,0.14747865,0.569083225,0.2429075,-0.43104772,-0.26136916,0.2404748,822.179515,801.83152,805.65935,,,,,,,,,,,,,,,/muse/elements/jaw_clench
2021-04-06 09:46:49.023,1.2095823,1.0267597,0.49977434,0.93356234,0.24706344,0.4560575,0.20861611,0.4091186,0.24734937,0.6925423,0.53784233,0.5404288,0.5528213,-0.21044607,0.12817511,0.57481855,0.2429075,-0.43061608,-0.17891939,0.23546645,819.15753,805.4579,803.0403,829.2308,751.06226,-0.34423828125,0.043212890625,0.938232421875,2.534637451171875,0.2093505859375,2.026214599609375,1,1.0,1.0,1.0,1.0,85.00
2021-04-06 09:46:49.526,1.2095823,0.43864495,0.11050575,0.99984837,0.24706344,0.12755083,-0.21151492,0.68535316,0.24734937,0.003728505,0.31981212,0.80751634,0.5528213,-0.26780006,0.26922604,0.72994083,0.2429075,-0.4158352,0.31786802,0.74425495,811.0989,815.12823,795.78754,786.52014,782.49084,-0.366943359375,0.041259765625,0.93878173828125,4.74029541015625,1.2860107421875,1.734619140625,1,1.0,1.0,1.0,1.0,85.00
2021-04-06 09:46:50.040,1.2095823,0.49482113,0.15078323,1.1927522,0.24706344,0.034677688,-0.12283529,0.8845289,0.24734937,-0.0036470508,0.3226892,0.80574846,0.5528213,-0.2755109,0.2941393,0.871018,0.2429075,-0.41684303,0.34986132,0.96482056,827.619,814.7253,810.293,807.0696,988.7912,-0.3905029296875,0.04327392578125,0.930908203125,3.132781982421875,-4.14215087890625,3.96270751953125,1,1.0,1.0,1.0,1.0,85.00
2021-04-06 09:46:50.544,1.2095823,0.28447098,0.18914849,1.1927522,0.24706344,-0.1635638,-0.007146513,0.8845289,0.24734937,0.04373503,0.32770616,0.80574846,0.5528213,-0.23099977,0.26906246,0.871018,0.2429075,-0.475004,0.30486134,0.96482056,829.6337,817.5458,805.4579,814.7253,747.4359,-0.38104248046875,0.02691650390625,0.9263916015625,3.058013916015625,-5.51788330078125,0.897216796875,1,1.0,1.0,1.0,1.0,85.00
2021-04-06 09:46:51.062,0.82104087,0.22983436,0.16291118,1.1927522,0.39342067,-0.32610285,7.758974E-4,0.8845289,0.2596862,0.055334922,0.15613323,0.80574846,0.5961853,-0.2118921,-0.06918441,0.871018,0.2482828,-0.48694763,-0.26418555,0.96482056,800.2198,811.50183,805.8608,787.72894,719.2308,-0.3663330078125,0.0263671875,0.93450927734375,4.246826171875,-6.213226318359375,1.68975830078125,1,1.0,1.0,1.0,1.0,85.00
2021-04-06 09:46:51.588,0.836886,0.12170666,0.1570784,1.1927522,0.3018659,-0.42747208,0.02999483,0.8845289,0.27682197,0.026645439,0.117289215,0.80574846,0.588337,-0.23688936,-0.1151029,0.871018,0.2501304,-0.528862,-0.42590284,0.96482056,791.3553,816.7399,802.23444,782.0879,750.2564,-0.357666015625,0.0162353515625,0.94024658203125,4.725341796875,-5.42816162109375,1.622467041015625,1,1.0,1.0,1.0,1.0,85.00
2021-04-06 09:46:52.093,1.0534104,0.12626836,0.07165311,1.1927522,0.42645255,-0.30377567,0.007445728,0.8845289,0.5475243,-0.053208917,0.06877662,0.80574846,0.55072623,-0.18778221,-0.044289246,0.871018,0.22922722,-0.47346398,-0.4779025,0.96482056,817.5458,811.0989,804.65204,817.5458,755.09155,-0.3525390625,0.014404296875,0.9351806640625,4.2767333984375,-5.181427001953125,1.263580322265625,1,1.0,1.0,1.0,1.0,85.00
2021-04-06 09:46:52.606,1.0692389,0.11134231,0.06451289,1.1927522,0.2820785,-0.17829451,0.020964516,0.8845289,0.87537885,-0.0809725,0.047945525,0.80574846,0.45835483,-0.15256387,0.029358426,0.871018,0.10945332,-0.52167505,-0.4195641,0.96482056,805.05493,815.9341,803.44324,807.0696,771.2088,-0.34283447265625,0.0211181640625,0.94293212890625,7.1478271484375,-5.121612548828125,1.33087158203125,1,1.0,1.0,1.0,1.0,85.00
2021-04-06 09:46:53.109,0.8995942,0.13194242,-0.018718084,0.018919267,0.26577684,-0.08149144,-0.042133063,0.013100062,0.8757771,0.114909686,0.049838115,0.5652492,0.29721144,-0.0757019,0.018697308,0.21069956,-0.0063765794,-0.5679311,-0.25421822,-0.6118611,808.68134,812.3077,817.1429,803.44324,716.0073,-0.34857177734375,0.02215576171875,0.9444580078125,4.605712890625,-4.239349365234375,1.143951416015625,1,1.0,1.0,1.0,1.0,85.00
2021-04-06 09:46:53.613,0.5971352,0.19259726,0.049757324,0.14186776,0.12307982,-0.12996961,0.018740568,-0.08887377,0.8390112,0.19122274,0.1670474,0.6045675,0.307896,-0.11080943,0.009062087,0.18265486,0.0642421,-0.7362734,-0.1794027,-0.48802653,822.7839,814.3223,800.6227,819.5604,843.3333,-0.34906005859375,0.01556396484375,0.939697265625,4.8150634765625,-4.044952392578125,1.248626708984375,1,1.0,1.0,1.0,1.0,85.00
2021-04-06 09:46:54.122,0.5453782,0.5304488,0.28543463,0.16225174,0.12617052,-0.13365917,0.24193212,0.041349035,0.6452706,0.30333656,0.26747158,0.59993935,0.30877867,-0.20434824,0.019583033,0.14002915,0.13647872,-0.7000572,-0.1167618,-0.3117436,817.5458,821.978,812.3077,818.7546,751.06226,-0.35137939453125,0.02069091796875,0.93682861328125,4.964599609375,-4.269256591796875,0.82244873046875,1,1.0,1.0,1.0,1.0,85.00
2021-04-06 09:46:54.628,0.52276695,0.49669588,0.2677842,0.21253788,0.03917723,-0.26734254,0.2421315,0.11549428,0.5383646,0.27320713,0.2703961,0.4933418,0.36451223,-0.1578997,0.042437978,0.19728069,0.28117257,-0.5314391,-0.16212814,-0.15188174,813.91943,819.15753,799.81683,816.7399,782.0879,-0.35284423828125,0.02032470703125,0.94317626953125,4.478607177734375,-6.160888671875,0.97198486328125,1,1.0,1.0,1.0,1.0,85.00
2021-04-06 09:46:55.135,0.3435015,0.34086683,0.15696743,0.16407043,-0.017562475,-0.26146826,0.16505553,0.0953562,0.36626306,0.28511435,0.23440424,0.31167987,0.43040085,-0.04142408,0.009359494,0.3450633,0.28612044,-0.3305906,-0.21157065,-0.02214632,812.3077,806.26373,797.8022,810.293,776.04395,-0.3583984375,0.016357421875,0.92852783203125,4.844970703125,-4.942169189453125,0.456085205078125,1,1.0,1.0,1.0,1.0,85.00
2021-04-06 09:46:55.639,0.41029868,-0.24857143,-0.003155215,0.42141896,0.32982147,-0.1100555,-0.08102711,0.17444491,0.75697297,0.1928276,0.053752515,0.52523,0.433673,-0.008004409,-0.018430414,0.43918628,0.24475017,-0.24403095,-0.28263843,-0.005649211,815.5311,808.2784,805.05493,801.4286,703.91943,-0.3538818359375,0.021240234375,0.933349609375,4.83001708984375,-4.88983154296875,0.231781005859375,1,1.0,1.0,1.0,1.0,85.00
2021-04-06 09:46:56.161,0.4580437,-0.32938933,-0.07519621,0.43097582,0.39611465,-0.011865792,-0.046218123,0.18666773,0.75697297,0.2520139,0.097048886,0.52523,0.44535807,-0.09105284,-0.060075287,0.52653086,0.13957411,-0.23669165,-0.29343358,0.013562884,817.9487,813.5165,813.5165,811.9048,759.12085,-0.3519287109375,0.01904296875,0.93798828125,4.605712890625,-4.486083984375,0.605621337890625,1,1.0,1.0,1.0,1.0,85.00
2021-04-06 09:46:56.685,0.47714958,-0.3652577,-0.13809283,0.4062667,0.42311797,0.05263711,-0.14378816,0.26606628,0.75697297,0.28452903,0.14701524,0.53856945,0.42643344,-0.18135689,-0.11422939,0.49509466,0.093735896,-0.30909437,-0.277364,0.02237197,816.7399,813.91943,810.696,819.15753,1020.2198,-0.3472900390625,0.02069091796875,0.93939208984375,4.762725830078125,-5.12908935546875,0.291595458984375,1,1.0,1.0,1.0,1.0,85.00
2021-04-06 09:46:57.195,0.17710957,-0.39331862,-0.4571752,-0.013698347,0.19623385,-0.08782119,-0.1727289,0.12898022,0.41773048,0.2712602,0.13886215,0.42750922,0.41143093,-0.13893795,-0.13161685,0.35884863,0.113900445,-0.42520326,-0.24948062,0.054964088,765.16486,801.8315,823.1868,769.59705,776.04395,-0.35284423828125,0.02032470703125,0.9366455078125,4.702911376953125,-5.09918212890625,1.03179931640625,1,1.0,1.0,1.0,1.0,85.00
2021-04-06 09:46:57.718,0.12525003,0.4698996,0.20826286,-0.10488183,0.21133499,-0.16938238,-0.2875391,0.082832105,0.24161963,0.11506193,0.24464583,0.3950748,0.42045018,-0.109767966,-0.07642663,0.15766126,0.035384227,-0.41966444,-0.21702586,0.0783357,799.011,806.6667,811.50183,818.3516,810.293,-0.3570556640625,0.0150146484375,0.9312744140625,4.388885498046875,-4.613189697265625,0.70281982421875,1,1.0,1.0,1.0,1.0,85.00
2021-04-06 09:46:58.220,0.11135584,0.75651073,0.51499885,-0.077193014,0.2770212,-0.20154454,-0.19328174,-0.016003922,0.15090387,-0.104669996,0.36067647,0.32526636,0.3415842,-0.05511547,-0.025946548,-0.043059826,-0.01782489,-0.49188155,-0.20339689,0.02054641,817.5458,811.0989,817.9487,817.1429,775.2381,-0.3515625,0.0162353515625,0.93695068359375,5.211334228515625,-4.598236083984375,1.099090576171875,1,1.0,1.0,1.0,1.0,85.00
2021-04-06 09:46:58.727,0.11135584,0.85114557,0.65002203,-0.077193014,0.2770212,0.046927687,0.08277207,-0.016003922,0.15090387,0.5490594,0.56353503,0.32526636,0.3415842,-0.012721693,0.08509618,-0.043059826,-0.01782489,-0.44351897,-0.22267455,0.02054641,828.022,817.1429,817.9487,816.337,709.5604,-0.35516357421875,0.0213623046875,0.93365478515625,4.78515625,-4.5458984375,1.136474609375,1,1.0,1.0,1.0,1.0,85.00
2021-04-06 09:46:59.250,0.81133133,0.863562,0.75929385,1.112715,0.43154386,0.41174304,0.28172955,0.7560465,0.73063165,0.6080646,0.57399374,0.9264553,0.26523772,0.030236246,0.18283847,0.27680582,-0.07134606,-0.44779298,-0.23965539,-0.23846014,820.3663,809.4872,813.91943,830.0366,855.82416,-0.3524169921875,0.020751953125,0.9368896484375,4.62066650390625,-4.583282470703125,1.8243408203125,1,1.0,1.0,1.0,1.0,85.00
2021-04-06 09:46:59.753,0.71192425,0.6787676,0.63624495,0.91225773,0.28333494,0.41006202,0.24748491,0.5342063,0.7741962,0.6080646,0.5739363,0.9964111,0.24565344,-0.010245843,0.17417322,0.27401114,-0.1460289,-0.44435385,-0.26745796,-0.1958614,783.2967,809.4872,804.65204,781.685,777.25275,-0.3511962890625,0.02081298828125,0.93609619140625,4.762725830078125,-4.05242919921875,1.472930908203125,1,1.0,1.0,1.0,1.0,90.00
2021-04-06 09:47:00.261,0.8528723,0.5508592,0.59665906,0.706842,0.11400557,0.3309597,0.11530604,0.16384697,0.65295815,0.5507908,0.46222576,0.7434279,0.33287314,-0.034309696,0.14596303,0.23730575,-0.04539675,-0.4837859,-0.31024653,-0.16058369,804.2491,801.4286,808.68134,799.011,728.49817,-0.35540771484375,0.02288818359375,0.9403076171875,4.8748779296875,-5.42816162109375,0.82244873046875,1,1.0,1.0,1.0,1.0,90.00
2021-04-06 09:47:00.782,0.844024,-0.036320943,0.21804413,0.5448307,0.18252483,-0.05610705,-0.08919415,0.05627691,0.7953814,0.11519757,0.1089646,0.7331687,0.48294884,0.019100362,0.14911918,0.41991597,-0.020570407,-0.51638556,-0.3666547,-0.066145524,821.978,813.5165,805.4579,812.3077,805.4579,-0.35296630859375,0.02325439453125,0.940185546875,4.493560791015625,-4.83001708984375,0.620574951171875,1,1.0,1.0,1.0,1.0,90.00
2021-04-06 09:47:01.295,0.7959068,0.017425656,0.26271793,0.65313286,0.45053807,-0.023965703,-0.019787554,0.30026877,0.9108917,0.1269661,0.17741448,0.7376873,0.5653012,0.048746314,0.16774808,0.4754263,-0.0027277437,-0.52511257,-0.4337321,-0.15167741,826.0073,815.12823,812.3077,822.381,730.5128,-0.3582763671875,0.00640869140625,0.941650390625,4.5458984375,-4.85992431640625,1.39068603515625,1,1.0,1.0,1.0,1.0,90.00
2021-04-06 09:47:01.818,0.48985803,0.048929498,0.0445368,0.5837588,0.51985073,-0.10269793,-0.05618284,0.3271513,0.9115079,0.20069624,0.14001057,0.7460887,0.5400814,0.01822489,0.16521017,0.412394,-0.072469115,-0.5686194,-0.38769966,-0.17291784,810.696,814.3223,815.12823,817.1429,863.8828,-0.35247802734375,0.02239990234375,0.939453125,6.542205810546875,-4.822540283203125,1.734619140625,1,1.0,1.0,1.0,1.0,90.00
2021-04-06 09:47:02.323,0.2845928,0.080562204,-0.116636954,0.61060363,0.4781067,-0.21730092,-0.18705207,0.3493812,0.84416664,0.11834806,0.14851116,0.7544446,0.40468654,-0.020620614,0.02799822,0.27400437,-0.088747405,-0.65098417,-0.37195653,-0.25519067,842.9304,796.1905,803.0403,817.9487,757.1062,-0.3553466796875,0.01275634765625,0.9400634765625,4.403839111328125,-5.69732666015625,1.876678466796875,1,1.0,1.0,1.0,1.0,90.00
2021-04-06 09:47:02.545,0.29647815,0.1029437919999,-0.189752262,0.599147765,0.390602065,-0.129485228,-0.226955905,0.340329985,0.69095287,0.179584025,0.066140655,0.66974187,0.3330372550000,0.0783360979999,0.189053035,0.1972172075,-0.075300215,-0.2471591,-0.28754835,-0.23660495,827.01465,811.0989,808.0769,,,,,,,,,,,,,,,/muse/elements/jaw_clench
2021-04-06 09:47:02.832,0.3083635,0.12532538,-0.26286757,0.5876919,0.30309743,-0.041669536,-0.26685974,0.33127877,0.5377391,0.24081999,-0.01622985,0.58503914,0.26138797,0.17729281,0.35010785,0.120430045,-0.061853025,0.15666597,-0.20314017,-0.21801923,811.0989,826.0073,813.1135,815.5311,722.8571,-0.3302001953125,0.02044677734375,0.94232177734375,7.82073974609375,-8.276824951171875,2.429962158203125,1,1.0,1.0,1.0,1.0,90.00
2021-04-06 09:47:03.357,0.55093944,0.20976175,-0.07732867,0.7420599,0.20492677,0.06294016,-0.29768062,0.33653554,0.4661306,0.3633297,0.25651088,0.42738682,0.49430493,0.4973454,0.5755251,0.014389152,0.27334428,0.63742846,0.034333106,-0.22046,802.23444,820.7692,800.6227,792.96704,726.4835,-0.360595703125,0.04571533203125,0.93341064453125,4.493560791015625,3.1103515625,1.31591796875,1,1.0,1.0,1.0,1.0,90.00
2021-04-06 09:47:03.861,1.0631179,0.468237,0.12266566,0.7420599,0.68614024,0.114134386,-0.17335424,0.33653554,0.91305524,0.37238845,0.38357437,0.42738682,0.69674355,0.5163911,0.5866408,0.014389152,0.7261676,0.6744291,0.14017552,-0.22046,755.4945,804.65204,813.1135,768.3883,815.5311,-0.3946533203125,0.0479736328125,0.931884765625,2.3028564453125,-1.951446533203125,4.4561767578125,1,1.0,1.0,1.0,1.0,90.00
2021-04-06 09:47:04.398,1.0631179,0.8417532,0.52949876,0.7420599,0.68614024,0.20471694,0.017244697,0.33653554,0.91305524,0.38357386,0.38357437,0.42738682,0.69674355,0.4206571,0.40257087,0.014389152,0.7261676,0.5619864,0.10193657,-0.22046,825.2015,816.337,800.2198,832.4542,788.5348,-0.4102783203125,0.0216064453125,0.91094970703125,4.613189697265625,-3.289794921875,-0.575714111328125,1,1.0,1.0,1.0,1.0,90.00
2021-04-06 09:47:04.910,1.1143227,0.9735276,0.6723801,0.7420599,0.7445975,0.18090478,0.18040502,0.33653554,0.91305524,0.082288496,0.41025794,0.42738682,0.5783982,-0.044546977,-0.01661347,0.014389152,0.7284445,-0.22011714,-0.11456971,-0.22046,815.12823,805.8608,804.65204,813.91943,738.5714,-0.40069580078125,0.0150146484375,0.9176025390625,4.91973876953125,-4.882354736328125,3.0206298828125,1,1.0,1.0,1.0,1.0,90.00
2021-04-06 09:47:05.429,0.775381165,0.7704339,0.4990897250000,0.4189185549999,0.49572939,0.01948068,0.1069005465,0.38596557,0.59402887,0.1240423280000,0.41597047,0.42882916,0.57735045,-0.0091747465,0.0276702549999,0.118895936,0.4589801400000,-0.33313059,-0.18748223,-0.147180684999,816.941415,810.49451500000,804.04764,807.47253,769.59705,-0.39794921875,0.0,0.9200439453125,5.390777587890625,-5.585174560546875,0.478515625,1,1.0,1.0,1.0,1.0,90.00
2021-04-06 09:47:05.943,0.43643963,0.5673402,0.32579935,0.09577721,0.24686128,-0.14194342,0.033396073,0.4353956,0.2750025,0.16579616,0.421683,0.4302715,0.5763027,0.026197484,0.07195398,0.22340272,0.18951578,-0.44614404,-0.26039475,-0.07390137,818.7546,815.12823,803.44324,824.7985,810.696,-0.38018798828125,0.01947021484375,0.92572021484375,4.486083984375,-5.06927490234375,1.502838134765625,1,1.0,1.0,1.0,1.0,90.00
2021-04-06 09:47:06.448,0.31342474,0.12402226,-0.17432132,0.10555224,0.21433498,-0.29651132,-0.26597506,0.36937165,0.40278792,0.1688142,0.32322714,0.44099024,0.47812122,-0.0017904284,0.09048638,0.18583673,0.23002051,-0.496155,-0.24547984,0.012807978,830.0366,817.1429,805.8608,815.9341,829.2308,-0.3837890625,0.02056884765625,0.92657470703125,4.119720458984375,-4.762725830078125,0.635528564453125,1,1.0,1.0,1.0,1.0,90.00
2021-04-06 09:47:06.958,0.42572016,0.075131014,-0.14090699,0.33021152,0.13345672,-0.28196338,-0.40854448,0.34936285,0.7528951,0.103483446,-0.04851323,0.81777316,0.43898633,-0.027169334,0.09085461,0.20389222,0.24070185,-0.5950333,-0.2650634,0.034663435,811.9048,806.26373,798.20514,806.26373,760.32965,-0.37896728515625,0.01348876953125,0.92724609375,4.747772216796875,-4.717864990234375,1.263580322265625,1,1.0,1.0,1.0,1.0,90.00
2021-04-06 09:47:07.459,1.0076334,-0.047904573,0.12040088,0.7250983,0.25705206,-0.14449538,-0.2485598,0.48356336,0.78158337,-0.013864688,-0.026006758,0.9053418,0.4928999,0.0067288154,0.063353956,0.3801682,0.23792733,-0.60184586,-0.3342552,-0.0062945983,821.5751,803.0403,798.20514,816.337,780.87915,-0.3782958984375,0.018310546875,0.92559814453125,4.867401123046875,-4.246826171875,1.203765869140625,1,1.0,1.0,1.0,1.0,90.00
2021-04-06 09:47:07.979,1.0429333,0.10851892,0.26760238,0.76256245,0.32128954,-0.056758277,-0.17186642,0.541187,0.79971904,-0.06582354,0.04391551,0.9053418,0.57884574,0.014214569,-0.0029105414,0.42925704,0.25676334,-0.55577224,-0.30153716,-0.08282806,812.3077,811.50183,801.8315,825.2015,768.7912,-0.3878173828125,0.02203369140625,0.92584228515625,4.747772216796875,-4.20196533203125,0.88226318359375,1,1.0,1.0,1.0,1.0,90.00
2021-04-06 09:47:08.484,0.98304296,0.085787036,0.20595905,0.72083426,0.36963794,-0.17018825,-0.21390635,0.5346922,0.7908709,-0.057948302,0.011100691,0.90547544,0.61712563,-0.050561585,-0.045826294,0.4862258,0.29865658,-0.4543796,-0.23932272,-0.06388306,817.1429,815.9341,813.5165,813.5165,717.619,-0.38165283203125,0.01776123046875,0.9241943359375,4.777679443359375,-4.957122802734375,0.9271240234375,1,1.0,1.0,1.0,1.0,90.00
2021-04-06 09:47:08.994,0.44143975,0.17723544,-0.010917098,0.5492386,0.3152639,-0.2940189,-0.37812227,0.38503414,0.5479113,0.09454655,-0.04836523,0.54708624,0.54250175,-0.18819506,-0.06270184,0.42315775,0.26220894,-0.41508573,-0.2373187,-0.015639305,815.12823,813.1135,805.4579,815.12823,816.337,-0.386962890625,0.005859375,0.919677734375,5.0543212890625,-3.970184326171875,0.605621337890625,1,1.0,1.0,1.0,1.0,90.00
2021-04-06 09:47:09.504,0.40199608,0.18478602,-0.08464074,0.5642207,0.30239424,-0.36443052,-0.489224,0.29990032,0.5146957,0.111901544,-0.002776046,0.52277815,0.516824,-0.08439884,-0.01154433,0.4534395,0.21467929,-0.38026622,-0.23234761,0.0066979043,773.6264,809.89014,806.6667,770.40295,765.56775,-0.38690185546875,0.0177001953125,0.92523193359375,4.957122802734375,-4.77020263671875,0.665435791015625,1,1.0,1.0,1.0,1.0,90.00
2021-04-06 09:47:10.008,0.5245979,0.7789252,0.78603685,0.6993763,0.27928895,-0.26925313,-0.07934015,0.37019062,0.497212,0.09521805,-0.0016805056,0.5093429,0.47587112,7.4703776E-4,0.03996988,0.43234536,0.09473381,-0.49247396,-0.3009573,0.008870141,836.4835,809.4872,813.1135,824.3956,755.89746,-0.38665771484375,0.0169677734375,0.9239501953125,4.7552490234375,-4.2169189453125,1.0467529296875,1,1.0,1.0,1.0,1.0,90.00
2021-04-06 09:47:10.516,0.5499072,0.80586493,0.82159054,0.6203168,0.31196305,-0.28413212,-0.023550402,0.31952676,0.30953786,-0.061946463,0.092410415,0.36322895,0.49976042,-0.010611459,0.07742492,0.4070242,0.022728829,-0.39475015,-0.31404838,0.042437237,848.5714,815.12823,804.65204,841.31866,837.6923,-0.38897705078125,0.01763916015625,0.92828369140625,4.964599609375,-5.001983642578125,0.127105712890625,1,1.0,1.0,1.0,1.0,85.00
2021-04-06 09:47:11.034,1.2409652,0.8845243,0.95266545,0.92336863,0.78924066,0.32220006,0.3122881,0.49210247,0.42811745,0.25734854,0.5827953,0.5307388,0.5153213,-0.05516482,0.10207784,0.10729458,0.041399002,-0.44365862,-0.37769318,-0.16204953,803.44324,804.2491,803.0403,811.0989,815.9341,-0.39202880859375,0.01873779296875,0.918701171875,4.912261962890625,-4.97955322265625,0.560760498046875,1,1.0,1.0,1.0,1.0,85.00
2021-04-06 09:47:11.539,1.2409652,0.6188918,0.7075465,0.8054209,0.78924066,0.42056307,0.30155835,0.39000618,0.42811745,0.24174438,0.56286454,0.5307388,0.5153213,-0.06631467,0.1576243,0.1573629,0.041399002,-0.45373282,-0.39443925,-0.115791395,796.5934,808.68134,825.6044,803.0403,774.0293,-0.39111328125,0.01708984375,0.9183349609375,4.97955322265625,-4.42626953125,1.173858642578125,1,1.0,1.0,1.0,1.0,85.00
2021-04-06 09:47:12.060,1.1973723,0.6200754,0.73472595,0.8054209,0.7545561,0.4953482,0.35125703,0.39000618,0.61544627,0.3997,0.5917396,0.5307388,0.4438307,0.01162216,0.17158017,0.1573629,0.085823305,-0.5423557,-0.37513918,-0.115791395,814.7253,814.7253,811.9048,815.12823,775.2381,-0.3936767578125,0.02117919921875,0.92266845703125,4.613189697265625,-5.0244140625,1.173858642578125,1,1.0,1.0,1.0,1.0,85.00
2021-04-06 09:47:12.566,1.076054,0.6240845,0.5454217,0.9783298,0.703846,0.2975897,0.1587581,0.40048182,0.6663289,0.33242974,0.38554198,0.6761512,0.38408002,-0.014017753,0.15497911,0.44321015,0.040911384,-0.48766345,-0.35565647,-0.020922754,823.5897,815.9341,811.50183,815.12823,739.3773,-0.39013671875,0.0189208984375,0.921630859375,4.673004150390625,-4.358978271484375,1.016845703125,1,1.0,1.0,1.0,1.0,85.00
2021-04-06 09:47:13.092,0.96044284,0.5349567,0.4192282,0.9041115,0.6270084,0.21325119,0.02864076,0.36133003,0.6942789,0.25163886,0.26336542,0.6761512,0.39139783,-0.076131046,0.13571149,0.40686956,0.07460493,-0.44633287,-0.2648989,0.08964374,805.4579,811.0989,805.05493,817.5458,766.77655,-0.38958740234375,0.0201416015625,0.92529296875,4.628143310546875,-5.78704833984375,0.83740234375,1,1.0,1.0,1.0,1.0,85.00
2021-04-06 09:47:13.598,0.6777422,0.44527632,0.26395726,0.7390037,0.38987154,0.05769518,-0.18597119,0.22601783,0.6695313,0.1620607,0.2572917,0.6761512,0.48262528,-0.16948788,0.021401027,0.3635348,0.13795178,-0.46597618,-0.2083986,0.095479704,805.8608,815.9341,807.8755,815.12823,742.6007,-0.3892822265625,0.0206298828125,0.92462158203125,4.613189697265625,-4.6356201171875,0.4486083984375,1,1.0,1.0,1.0,1.0,85.00
2021-04-06 09:47:14.111,0.39384806,0.12802476,-0.051564984,0.22090653,0.1380308,-0.13659933,-0.5486485,-0.02807096,0.51509947,0.33494753,0.13802639,0.18601854,0.49729842,-0.14598462,0.0017424878,0.26283193,0.18042664,-0.46951997,-0.26660112,0.06578917,790.9524,807.0696,817.9487,793.36993,740.58606,-0.3765869140625,0.01824951171875,0.9278564453125,4.486083984375,-4.239349365234375,1.18133544921875,1,1.0,1.0,1.0,1.0,85.00
2021-04-06 09:47:14.636,0.7322419,0.37049526,0.055933807,0.68806964,0.3526546,-0.27492282,-0.56951344,0.1792794,0.8594552,0.34092054,0.09512533,0.54089177,0.5574502,-0.023801887,-0.104535006,0.2675545,0.26248905,-0.5255524,-0.36839852,-0.051304903,785.7143,815.5311,789.7436,774.43225,782.8938,-0.386474609375,0.0223388671875,0.92333984375,5.136566162109375,-4.418792724609375,1.06170654296875,1,1.0,1.0,1.0,1.0,85.00
2021-04-06 09:47:15.144,0.86393094,0.6852411,0.35410517,0.85005367,0.47390968,-0.322807,-0.28651342,0.308783,0.870635,0.34363854,0.20546624,0.580559,0.557205,-0.002666591,-0.086696126,0.24719565,0.2653513,-0.5047342,-0.39004675,-0.16190273,816.337,809.4872,809.89014,807.47253,774.0293,-0.38604736328125,0.01513671875,0.92266845703125,4.80010986328125,-5.5029296875,0.85235595703125,1,1.0,1.0,1.0,1.0,85.00
2021-04-06 09:47:15.654,1.0626702,0.83762026,0.6607952,1.0694511,0.63649684,-0.063755415,-0.045669165,0.46994454,0.870635,0.3025883,0.32157364,0.580559,0.60254794,-0.031712323,-0.091189906,0.20186846,0.3361938,-0.5453921,-0.3646698,-0.20355415,817.1429,820.3663,806.26373,813.91943,686.5934,-0.38372802734375,0.01312255859375,0.9222412109375,4.59075927734375,-4.844970703125,0.88226318359375,1,1.0,1.0,1.0,1.0,85.00
2021-04-06 09:47:16.180,0.881382,0.8135879,0.65689856,1.0840659,0.5536509,-0.03484558,-0.010153266,0.51939034,0.7566645,0.28220478,0.32785356,0.580559,0.44610548,-0.06494482,-0.011519961,0.20463705,0.16456704,-0.5444641,-0.37852204,-0.17491071,814.7253,799.81683,809.0842,823.9927,923.1135,-0.38238525390625,0.01531982421875,0.92816162109375,4.65057373046875,-6.02630615234375,1.114044189453125,1,1.0,1.0,1.0,1.0,85.00
2021-04-06 09:47:16.689,1.264263,0.93565756,0.7614023,0.8432047,0.90850896,0.38084313,0.34791183,0.6319483,0.7954746,0.5614022,0.30394298,0.6768872,0.56751746,-0.029851006,-0.038932044,0.19786702,0.19228357,-0.50429934,-0.39102763,-0.23927887,835.6777,807.47253,799.41394,819.15753,888.0586,-0.37396240234375,0.02276611328125,0.9285888671875,4.6356201171875,-4.762725830078125,0.575714111328125,1,1.0,1.0,1.0,1.0,85.00
2021-04-06 09:47:17.196,1.1141993,0.88046086,0.62044543,0.68772787,0.7727744,0.3372762,0.36318576,0.5467923,0.8527534,0.5615851,0.28755113,0.8303032,0.57385653,-0.06558409,-0.01115019,0.2384437,0.17313628,-0.49588615,-0.3330685,-0.22948594,809.89014,813.91943,803.44324,807.47253,775.2381,-0.36199951171875,0.01824951171875,0.93231201171875,5.1141357421875,-5.96649169921875,1.256103515625,1,1.0,1.0,1.0,1.0,85.00
2021-04-06 09:47:17.723,1.0977471,1.1399875,1.0408028,0.67749715,0.7775063,0.7044319,0.63167113,0.58519566,0.9655414,0.7845515,0.5087951,0.832543,0.57587093,0.104811,0.02517725,0.25719857,0.28443164,-0.484683,-0.29990032,-0.211836,801.4286,801.02563,806.26373,798.20514,775.2381,-0.3668212890625,0.02630615234375,0.934814453125,3.566436767578125,-4.83001708984375,1.218719482421875,1,1.0,1.0,1.0,1.0,85.00
2021-04-06 09:47:18.250,0.8628799,1.0223098,0.9907582,0.6640285,0.636682,0.6042248,0.55234116,0.47851732,1.0401939,0.7525472,0.49875998,0.87059087,0.5387621,0.10705471,0.05378187,0.23929141,0.3043252,-0.5417747,-0.31870463,-0.23928982,825.2015,808.68134,803.44324,822.381,718.022,-0.3717041015625,0.02508544921875,0.93768310546875,5.0543212890625,-3.8580322265625,2.452392578125,1,1.0,1.0,1.0,1.0,85.00
2021-04-06 09:47:18.753,0.8847712,0.9523698,0.9514054,0.950437,0.7023713,0.5675488,0.47156498,0.52348506,1.0395927,0.73372954,0.49875998,0.84489524,0.47294095,0.16759017,-0.018812342,0.27890715,0.38485467,-0.46092865,-0.39330578,-0.26697016,824.3956,811.9048,814.7253,832.8571,798.20514,-0.38275146484375,0.01507568359375,0.921630859375,4.5458984375,-5.405731201171875,1.77947998046875,1,1.0,1.0,1.0,1.0,85.00
2021-04-06 09:47:19.254,0.74676085,0.33239737,0.2236277,0.9280351,0.3902439,-0.117655806,-0.039733123,0.34499317,0.8780953,0.18316847,0.22493033,0.668027,0.3490486,8.6619373E-4,-0.0825137,0.35838124,0.16076799,-0.44322035,-0.32727492,-0.03133574,805.05493,800.6227,801.02563,805.8608,761.53845,-0.38238525390625,0.0233154296875,0.92486572265625,4.942169189453125,-4.119720458984375,1.95892333984375,1,1.0,1.0,1.0,1.0,85.00
2021-04-06 09:47:19.757,0.8598336,0.5140589,-0.13432263,0.8693294,0.31267875,-0.14392385,-0.36665392,0.45513287,0.7497886,0.18922992,-0.35151598,0.691485,0.3424599,-0.065528266,-0.11516012,0.42073932,0.05851892,-0.43224245,-0.32103962,0.07532785,812.3077,823.1868,804.2491,809.0842,751.06226,-0.38037109375,0.02374267578125,0.9266357421875,4.65057373046875,-3.84307861328125,1.114044189453125,1,1.0,1.0,1.0,1.0,85.00
2021-04-06 09:47:20.259,0.6868407,0.5779519,-0.29843333,0.6099538,0.27159828,-0.18845536,-0.39513424,0.363257,0.7277216,0.17437768,-0.27804822,0.7040482,0.28924924,-0.15204659,-0.05941445,0.36073962,0.1155049,-0.5086713,-0.3175406,0.11712642,814.3223,817.9487,807.8755,817.5458,784.5055,-0.38653564453125,0.02154541015625,0.925537109375,5.061798095703125,-5.12908935546875,0.755157470703125,1,1.0,1.0,1.0,1.0,85.00
2021-04-06 09:47:20.776,0.612583,0.55360115,-0.17352498,0.561208,0.32743737,-0.1604844,-0.4230417,0.34539115,0.8152813,0.08411711,-0.051868733,0.7011106,0.30630285,-0.12033654,-0.0311418,0.35830438,0.123916306,-0.5015453,-0.30994868,0.036898203,811.50183,819.5604,816.7399,807.47253,788.1319,-0.388671875,0.02099609375,0.92340087890625,4.658050537109375,-4.964599609375,0.441131591796875,1,1.0,1.0,1.0,1.0,85.00
2021-04-06 09:47:21.296,0.1656328,0.18396387,0.14304347,0.24595916,0.29688153,-0.16080159,-0.31121725,0.13457845,0.6724172,0.0844824,0.06959755,0.6254788,0.24476364,-0.09756137,0.040635273,0.3558349,0.14327173,-0.4688613,-0.22152308,-0.0047952062,781.685,813.91943,810.696,768.3883,720.0366,-0.38525390625,0.02099609375,0.9207763671875,4.732818603515625,-4.7552490234375,1.21124267578125,1,1.0,1.0,1.0,1.0,85.00
2021-04-06 09:47:21.805,0.2267517,0.14910728,0.3970706,0.27773032,0.34267625,0.098738775,0.11186449,0.15503415,0.650479,0.42676523,0.26900557,0.6099365,0.2846677,-0.07038419,0.078849524,0.42077503,0.083406925,-0.37783742,-0.1450599,-0.07342938,830.0366,828.022,793.7729,825.6044,807.47253,-0.38323974609375,0.019775390625,0.92523193359375,4.897308349609375,-3.81317138671875,1.233673095703125,1,1.0,1.0,1.0,1.0,85.00
2021-04-06 09:47:22.322,0.451199,0.309298,0.4330045,0.5064782,0.3841737,0.089438915,0.20134135,0.3679818,0.55175143,0.44645828,0.3137557,0.5949059,0.28944618,-0.092145436,0.120034516,0.43743345,0.06190928,-0.31270576,-0.1515385,-0.09962085,801.02563,811.0989,793.36993,794.57874,784.5055,-0.38336181640625,0.02203369140625,0.924072265625,4.418792724609375,-4.74029541015625,0.9271240234375,1,1.0,1.0,1.0,1.0,85.00
2021-04-06 09:47:22.836,0.5071194,0.43931198,0.3474555,0.52588457,0.33967754,0.035428252,0.22227232,0.36435866,0.4884442,0.44645828,0.30294514,0.29089168,0.098639354,-0.12327979,0.10979042,0.21388438,-0.05852725,-0.3049524,-0.19416328,-0.15865171,817.9487,805.8608,809.0842,819.5604,783.2967,-0.39166259765625,0.01800537109375,0.92034912109375,4.762725830078125,-4.41131591796875,0.777587890625,1,1.0,1.0,1.0,1.0,85.00
2021-04-06 09:47:23.366,0.44190034,0.36024445,0.084591664,0.42581427,0.19949979,-0.19520986,0.039535996,0.24000478,0.6253141,0.16884413,0.17763314,0.4019615,0.12938862,-0.13808122,0.08408511,0.29627162,0.0040963665,-0.34331977,-0.24344757,-0.13542472,810.696,811.50183,804.2491,823.5897,898.1319,-0.3927001953125,0.01837158203125,0.9176025390625,4.42626953125,-5.084228515625,0.657958984375,1,1.0,1.0,1.0,1.0,85.00
2021-04-06 09:47:23.874,0.3159606,0.26324204,0.15800396,0.3033421,0.11352079,-0.16748232,0.0021597345,0.15344332,0.64925843,0.18749806,0.17525034,0.48327923,0.23251888,-0.16530672,-0.025837427,0.3210641,0.023242071,-0.41727436,-0.20723113,-0.0929485,813.1135,811.9048,809.89014,811.9048,672.49084,-0.39013671875,0.02105712890625,0.92437744140625,5.046844482421875,-4.373931884765625,1.2860107421875,1,1.0,1.0,1.0,1.0,85.00
2021-04-06 09:47:24.402,0.21018909,0.07552958,0.19977905,0.36550504,0.054420717,-0.1206094,-0.04233738,0.2796305,0.6520043,0.15458618,0.13250522,0.42275658,0.3068494,-0.1339628,-0.041584406,0.358977,0.03491066,-0.46045333,-0.23397778,-0.07221224,821.1722,816.337,806.6667,819.5604,780.07324,-0.38134765625,0.01849365234375,0.92779541015625,4.74029541015625,-5.390777587890625,0.49346923828125,1,1.0,1.0,1.0,1.0,85.00
2021-04-06 09:47:24.927,0.11746355,0.04333414,0.18477185,0.2815301,0.06649759,-0.084818356,-0.17597884,0.26528394,0.5531696,0.14921159,0.11066452,0.39247185,0.4037721,-0.10312988,-0.08980018,0.32043836,0.036224052,-0.4276346,-0.25887662,-0.05103283,813.5165,814.3223,813.91943,815.5311,774.0293,-0.37799072265625,0.01947021484375,0.92376708984375,4.329071044921875,-5.510406494140625,0.5084228515625,1,1.0,1.0,1.0,1.0,85.00
2021-04-06 09:47:25.449,0.22193938,-0.16500635,0.027943984,0.27607188,0.24026817,-0.08449311,-0.31370857,0.2939837,0.5492739,-0.032079805,-0.0018471411,0.39459434,0.38534552,-0.12753327,-0.10543593,0.23496202,-0.047214624,-0.4439329,-0.4176123,-0.053967506,823.9927,809.89014,814.3223,827.619,784.5055,-0.3896484375,0.00946044921875,0.9200439453125,4.673004150390625,-2.863616943359375,3.506622314453125,1,1.0,1.0,1.0,1.0,85.00
2021-04-06 09:47:25.977,0.40666175,0.35929796,0.5018688,0.30932373,0.54993165,0.020759005,0.17573872,0.5634775,0.5511979,0.19421847,0.28645024,0.6654824,0.36989474,-0.1006362,-0.15343235,0.22553383,-0.080742426,-0.4832192,-0.51154083,-0.069448136,780.4762,809.4872,799.011,792.96704,861.8681,-0.37725830078125,0.02618408203125,0.93084716796875,4.179534912109375,-4.47113037109375,0.538330078125,1,1.0,1.0,1.0,1.0,85.00
2021-04-06 09:47:26.505,0.5067169,0.94271433,0.9458293,0.45542935,0.685009,0.08660125,0.30087328,0.70899606,0.52145517,0.24129112,0.290521,0.6474728,0.31127566,-0.08754368,-0.1425115,0.21210518,-0.16119999,-0.58075166,-0.4721277,-0.09593808,821.1722,811.9048,805.05493,823.1868,728.9011,-0.37847900390625,0.01129150390625,0.92742919921875,4.613189697265625,-5.4132080078125,0.650482177734375,1,1.0,1.0,1.0,1.0,85.00
2021-04-06 09:47:27.029,0.66412556,1.0357533,1.0007659,0.7050962,0.8718759,0.11283727,0.2926213,0.9971235,0.5137336,0.25503537,0.290521,0.6389215,0.33786333,-0.0909567,-0.11901865,0.33138612,-0.14391337,-0.5301596,-0.35991013,-0.17234083,811.0989,807.8755,811.0989,806.26373,779.2674,-0.375244140625,0.01275634765625,0.9229736328125,4.66552734375,-4.972076416015625,0.28411865234375,1,1.0,1.0,1.0,1.0,85.00
2021-04-06 09:47:27.555,0.69618803,0.98071665,0.89645624,0.7050962,0.37437525,-0.022772612,0.06251084,0.9971235,0.70827216,0.13785844,0.04399313,0.6389215,0.29259387,-0.18935326,-0.051437587,0.33138612,0.111035846,-0.56013715,-0.25128552,-0.17234083,823.1868,809.89014,811.9048,812.3077,669.2674,-0.3779296875,0.01214599609375,0.92315673828125,4.702911376953125,-4.972076416015625,1.293487548828125,1,1.0,1.0,1.0,1.0,85.00
2021-04-06 09:47:28.081,0.5918701,0.49248093,0.3763202,0.8930653,0.45740187,-0.112295605,-0.029737802,0.3122826,0.790255,0.15667564,0.1137809,0.4021071,0.4612087,-0.29963157,-0.06951154,0.2149056,0.3346325,-0.6047345,-0.19905387,-0.13736905,822.381,802.23444,810.293,803.0403,734.1392,-0.3753662109375,0.0103759765625,0.92578125,4.77020263671875,-4.97955322265625,1.248626708984375,1,1.0,1.0,1.0,1.0,85.00
2021-04-06 09:47:28.581,0.49837905,0.41819945,0.24610713,0.75353336,0.42610645,-0.15588158,-0.008970646,0.28711426,0.790255,0.14168854,0.15135519,0.54021746,0.48096347,-0.21680056,-0.0062743784,0.25123462,0.30438107,-0.62197167,-0.20684695,-0.13035549,801.4286,802.6374,812.71063,803.44324,729.707,-0.364013671875,0.01092529296875,0.93505859375,4.4561767578125,-4.897308349609375,1.07666015625,1,1.0,1.0,1.0,1.0,85.00
2021-04-06 09:47:29.100,0.4291588,0.3974237,0.25481674,0.42288253,0.33297482,0.016188983,0.016484661,0.22276439,0.64661205,0.115441,0.13140051,0.5784738,0.6075023,-0.04026385,0.036090437,0.2856744,0.3912258,-0.5462748,-0.22501916,-0.1616779,797.8022,811.0989,803.8461,801.8315,711.5751,-0.368896484375,0.00775146484375,0.92266845703125,4.747772216796875,-3.050537109375,1.62994384765625,1,1.0,1.0,1.0,1.0,85.00
2021-04-06 09:47:29.605,0.6555554,0.22573328,0.09082503,0.45024687,0.43703103,-0.013153253,-0.070728004,0.30727735,0.87817156,0.056608126,0.051102698,0.5784738,0.67118955,0.028821144,0.16709945,0.27075732,0.41349977,-0.5108935,-0.23637412,-0.18176228,828.8278,806.6667,798.20514,811.0989,694.2491,-0.37030029296875,0.0118408203125,0.927490234375,4.91973876953125,-4.897308349609375,1.15142822265625,1,1.0,1.0,1.0,1.0,85.00
2021-04-06 09:47:30.114,0.807504,-0.10193273,0.03902754,0.5530282,0.5865286,-0.029490339,-0.14492853,0.3963269,1.0050642,0.0070002316,0.055765588,0.5242538,0.7714961,0.007462635,0.13406059,0.29681137,0.552182,-0.52591836,-0.262201,-0.13099729,816.337,800.6227,806.26373,823.1868,788.5348,-0.3857421875,0.01434326171875,0.927978515625,5.136566162109375,-4.2169189453125,1.5252685546875,1,1.0,1.0,1.0,1.0,85.00
2021-04-06 09:47:30.648,0.88858354,-0.19775985,-0.32452196,0.66128147,0.7036451,-0.2376726,-0.19920127,0.44518003,1.0301361,0.005560761,0.2451918,0.47596225,0.82479507,-0.13873778,0.081613466,0.23964599,0.9449456,-0.5064172,-0.24135783,-0.065279394,813.1135,806.26373,794.57874,802.23444,684.57874,-0.38311767578125,0.0196533203125,0.93438720703125,4.9346923828125,-4.6356201171875,1.2261962890625,1,1.0,1.0,1.0,1.0,85.00
2021-04-06 09:47:31.156,0.8255116,0.09348771,-0.039553937,0.55703354,0.66833544,-0.13168755,6.46975E-4,0.4045634,0.9800071,0.14658512,0.3470014,0.56025743,0.8378437,-0.15508586,-0.105347924,0.22386344,1.0737252,-0.48789597,-0.20351678,-0.06727189,809.4872,817.5458,799.41394,806.6667,806.26373,-0.385986328125,0.01513671875,0.92529296875,4.71038818359375,-3.9178466796875,0.246734619140625,1,1.0,1.0,1.0,1.0,85.00
2021-04-06 09:47:31.666,0.7156318,0.22893143,0.066515386,0.4755025,0.57485074,-0.09853681,0.01992907,0.3009883,0.9709338,0.13979821,0.34571463,0.5387549,0.7412388,-0.021176677,-0.118549444,0.16592793,1.0950011,-0.4884614,-0.18161449,-0.14749673,801.4286,807.0696,798.60803,799.81683,816.7399,-0.383544921875,0.01654052734375,0.92926025390625,4.373931884765625,-5.435638427734375,1.323394775390625,1,1.0,1.0,1.0,1.0,85.00
2021-04-06 09:47:32.192,0.32824445,0.18457176,0.1410222,0.30459926,0.59713286,-0.048993364,-3.16609E-4,0.13721958,0.80935895,0.14802833,0.34172174,0.46022493,0.91484034,-0.030384813,-0.11317184,0.2747238,0.2312034,-0.55275625,-0.24115188,-0.21862459,784.90845,801.4286,793.36993,774.43225,714.3956,-0.38177490234375,0.01617431640625,0.9229736328125,4.867401123046875,-4.35150146484375,0.46356201171875,1,1.0,1.0,1.0,1.0,85.00
2021-04-06 09:47:32.699,0.6410632,-0.021624478,-0.08382922,0.6131766,0.5425396,-0.2347588,-0.07834126,0.19690077,0.988942,0.13729984,-0.15745236,0.8440072,0.7825184,0.00519524,-0.06398587,0.30386558,0.24735434,-0.6488099,-0.20880476,-0.15385021,752.27106,806.26373,800.6227,752.27106,883.22345,-0.38916015625,0.01611328125,0.9241943359375,4.65057373046875,-4.523468017578125,0.777587890625,1,1.0,1.0,1.0,1.0,85.00
2021-04-06 09:47:33.228,0.9981074,-0.18679827,-0.2416347,0.7572314,0.5519009,-0.3967152,-0.12316223,0.2343302,0.988942,0.120009474,-0.087597795,0.8122838,0.81749547,-0.07155856,-0.00900263,0.3153461,0.32606992,-0.6460347,-0.2653992,-0.12184763,805.05493,815.5311,801.4286,805.8608,717.2161,-0.39056396484375,0.019775390625,0.92413330078125,4.844970703125,-3.768310546875,1.48040771484375,1,1.0,1.0,1.0,1.0,85.00
2021-04-06 09:47:33.754,1.123922,0.18605492,-0.24276471,1.0258832,0.4593392,-0.48320714,-0.056965843,0.41622972,0.7727974,0.12673369,-0.034661006,0.8028977,0.576988,0.13116175,0.04499061,0.17828692,0.27801865,-0.26686585,-0.20019154,-0.032880127,825.2015,807.8755,798.60803,827.619,782.49084,-0.390869140625,0.02117919921875,0.9210205078125,4.538421630859375,-4.306640625,0.695343017578125,1,1.0,1.0,1.0,1.0,85.00
2021-04-06 09:47:34.260,1.0884179,0.27594054,-0.21657085,0.50683206,0.3783329,-0.18822712,-0.11058787,-7.015607E-4,0.70299584,-0.053147994,-8.595201E-4,0.5264205,0.48345825,0.09534611,-0.0031412,0.24503206,0.26182464,-0.19392441,-0.28404042,0.041997295,822.7839,804.65204,803.8461,814.3223,717.2161,-0.38232421875,0.01873779296875,0.92376708984375,4.658050537109375,-4.9945068359375,0.2392578125,1,1.0,1.0,1.0,1.0,85.00
2021-04-06 09:47:34.780,0.46051088,0.25834695,-0.26704317,0.34211302,0.25961363,-0.06650692,-0.14170453,0.015922245,0.38253462,0.021643983,0.020378726,0.5534102,0.46549165,0.09660043,0.008814539,0.17360955,0.36983168,-0.17880508,-0.20907667,0.030819131,803.44324,800.6227,800.2198,800.6227,707.9487,-0.388671875,0.01739501953125,0.92340087890625,4.553375244140625,-5.1141357421875,0.575714111328125,1,1.0,1.0,1.0,1.0,85.00
2021-04-06 09:47:35.298,0.67412794,0.109075755,-0.3215399,0.28785384,0.78650737,0.014954216,-0.45334348,-0.03553979,0.7459969,0.18507873,0.021844866,0.5534102,0.6843268,-0.12046673,-0.047355678,0.16126995,0.629633,-0.45982364,-0.23322256,-0.008325436,795.78754,796.1905,801.4286,800.2198,774.43225,-0.392822265625,0.017333984375,0.92401123046875,4.844970703125,-4.643096923828125,0.560760498046875,1,1.0,1.0,1.0,1.0,85.00
2021-04-06 09:47:35.803,0.78194517,0.1399514,0.121050544,0.5563773,0.99197847,-0.08123783,-0.5109682,0.048830062,0.75247926,0.19476229,-0.09535508,0.43806073,1.0159459,-0.13036516,-0.024325691,0.183714,0.95280594,-0.57688123,-0.1867362,0.0014067992,789.7436,799.41394,810.293,786.52014,753.0769,-0.390625,0.01727294921875,0.92279052734375,4.568328857421875,-4.912261962890625,0.91217041015625,1,1.0,1.0,1.0,1.0,85.00
2021-04-06 09:47:36.319,0.8660917,0.43941888,0.3817255,0.8937443,1.1125463,-0.06881848,-0.5020418,0.45574948,0.7499369,0.18362764,-0.101861395,0.5966999,1.110881,-0.12674677,-0.035289485,0.2616384,1.0511497,-0.56518275,-0.14750277,-0.009583375,799.011,805.05493,797.3993,795.38464,677.326,-0.388671875,0.01556396484375,0.921142578125,4.50103759765625,-4.643096923828125,0.874786376953125,1,1.0,1.0,1.0,1.0,85.00
2021-04-06 09:47:36.822,0.76129115,0.73731685,0.7320613,1.069481,1.0277557,0.3313813,0.105199836,0.6072885,0.4869116,0.41792247,0.024088196,0.8766011,1.1257542,0.07617791,0.005368043,0.2725823,1.0578929,-0.47252804,-0.16340967,-7.822645E-4,822.381,800.2198,813.91943,840.10986,850.989,-0.39239501953125,0.0166015625,0.922119140625,4.583282470703125,-3.910369873046875,1.069183349609375,1,1.0,1.0,1.0,1.0,85.00
2021-04-06 09:47:37.337,0.42616004,0.7330112,0.7299743,1.013995,0.47534978,0.35907057,0.11485887,0.6283518,0.75825965,0.40852988,0.09957935,0.8783662,0.18233134,0.056194965,0.011714673,0.30930823,0.08174992,-0.4408058,-0.17804343,-0.018221088,800.2198,803.0403,806.6667,799.81683,781.685,-0.37408447265625,0.01953125,0.92669677734375,5.630035400390625,-6.856231689453125,0.904693603515625,1,1.0,1.0,1.0,1.0,85.00
2021-04-06 09:47:37.605,0.42616004,0.73326672,0.732603775,0.92653287,0.47534978,0.412491885,0.164866175,0.5133872500000,0.75825965,0.40735829,0.104525745,0.86908047,0.18233134,0.0768101525,0.020765493,0.310257915,0.08174992,-0.425099675,-0.19113529,-0.013905268,837.893775,809.084265,810.4945,,,,,,,,,,,,,,,/muse/elements/blink
2021-04-06 09:47:37.841,0.42616004,0.73352224,0.73523325,0.83907074,0.47534978,0.4659132,0.21487348,0.3984227,0.75825965,0.4061867,0.10947214,0.85979474,0.18233134,0.09742534,0.029816313,0.3112076,0.08174992,-0.40939355,-0.20422715,-0.009589448,875.56775,815.12823,814.3223,844.94507,816.7399,-0.36761474609375,0.01849365234375,0.93585205078125,4.717864990234375,-6.41510009765625,-1.786956787109375,1,1.0,1.0,1.0,1.0,85.00
2021-04-06 09:47:38.000,0.42616004,0.50054613,0.5641976599999,0.704620005,0.47534978,0.2151306150000,-0.019439960000,0.36836844,0.75825965,0.274814,0.071226641,0.77160034,0.18233134,-0.019370780000,-0.006841010499,0.34777421,0.08174992,-0.439929725,-0.203369685,0.0008340364999,812.106225,807.27108500000,818.55310000000,,,,,,,,,,,,,,,/muse/elements/jaw_clench
2021-04-06 09:47:38.359,0.42616004,0.26757002,0.39316207,0.57016927,0.47534978,-0.03565197,-0.2537534,0.33831418,0.75825965,0.1434413,0.032981142,0.68340594,0.18233134,-0.1361669,-0.043498334,0.38434082,0.08174992,-0.4704659,-0.20251222,0.011257521,748.6447,799.41394,822.7839,812.71063,763.1502,-0.2939453125,0.1207275390625,0.98052978515625,18.2733154296875,-9.069366455078125,8.351593017578125,1,1.0,1.0,1.0,1.0,85.00
2021-04-06 09:47:38.887,0.42220172,0.047632378,0.0416988,0.63576716,0.49445453,-0.15934528,-0.3575062,0.38312346,0.65983737,-0.002859687,-0.08025667,0.6489635,0.15336731,-0.16315962,-0.10686934,0.37872106,0.049741887,-0.46573332,-0.17185377,0.0443084,834.0659,787.326,801.4286,817.9487,748.24176,-0.35296630859375,0.04779052734375,0.9449462890625,-2.13836669921875,0.829925537109375,7.783355712890625,1,1.0,1.0,1.0,1.0,85.00
2021-04-06 09:47:39.396,0.42220172,0.047632378,0.8238306,0.63576716,0.49445453,-0.15934528,0.852428,0.38312346,0.65983737,-0.002859687,0.41892135,0.6489635,0.15336731,-0.16315962,0.066270106,0.37872106,0.049741887,-0.46573332,-0.3247322,0.0443084,829.2308,792.5641,809.4872,808.68134,798.60803,-0.38720703125,0.101806640625,0.9219970703125,4.8150634765625,-6.990814208984375,-3.656158447265625,1,1.0,1.0,1.0,1.0,85.00
2021-04-06 09:47:39.919,0.42220172,0.86479783,0.9440132,0.63576716,0.49445453,0.095277004,0.8067605,0.38312346,0.65983737,0.31784663,0.42783383,0.6489635,0.15336731,0.15316479,-0.031794067,0.37872106,0.049741887,-0.47864473,-0.41403645,0.0443084,802.23444,765.9707,826.4103,818.7546,744.61536,-0.37628173828125,0.04193115234375,0.924072265625,3.058013916015625,-3.581390380859375,-3.850555419921875,1,1.0,1.0,1.0,1.0,85.00
2021-04-06 09:47:40.421,1.4636558,0.96995604,0.83851695,0.95631045,1.0962222,0.33958587,0.65096766,1.1195929,0.90370506,0.3350584,0.431492,1.0247132,0.6954715,0.05713715,-0.028736005,0.92228436,0.35378784,-0.52229166,-0.44216642,0.5611909,836.08057,794.17584,797.3993,822.381,726.08057,-0.38470458984375,0.06439208984375,0.92181396484375,5.211334228515625,-3.887939453125,1.592559814453125,1,1.0,1.0,1.0,1.0,85.00
2021-04-06 09:47:40.932,1.4636558,0.94304824,0.7459129,0.772876,1.0962222,0.28693196,0.407986,1.1389563,0.90370506,0.30923945,0.30276212,0.9911498,0.6954715,-0.04632074,-0.092768855,0.93175507,0.35378784,-0.6353493,-0.4479391,0.55670893,813.5165,792.5641,803.44324,811.9048,780.4762,-0.38623046875,0.04443359375,0.91937255859375,3.730926513671875,-6.706695556640625,1.5252685546875,1,1.0,1.0,1.0,1.0,85.00
2021-04-06 09:47:41.441,1.3697485,0.81307167,0.43584386,0.73741025,0.9367355,0.22351676,-0.04306761,0.80916274,0.89011747,-0.065604046,0.13367261,0.7332779,0.6400938,-0.16149162,-0.081785195,0.7164331,0.33436093,-0.643943,-0.44833007,0.2762728,810.696,794.57874,798.60803,797.3993,809.89014,-0.37481689453125,0.0338134765625,0.92620849609375,3.880462646484375,-3.828125,-0.5682373046875,1,1.0,1.0,1.0,1.0,85.00
2021-04-06 09:47:41.976,1.1444407,0.50966036,0.24493504,0.6097629,0.63186616,-0.10300323,-0.37582,0.11323159,0.83353615,-0.13680905,0.14516254,0.1827628,0.52289075,-0.2551825,-0.0826078,0.33398518,0.28206107,-0.5871833,-0.44768298,-0.27229893,799.41394,790.54944,798.20514,804.65204,684.57874,-0.36810302734375,0.0294189453125,0.9285888671875,4.77020263671875,-5.5926513671875,1.495361328125,1,1.0,1.0,1.0,1.0,85.00
2021-04-06 09:47:42.501,0.5477205,0.30945197,0.2181526,0.6097629,0.39495987,-0.08780369,-0.56430954,0.11323159,0.31569,-0.07432116,0.11763829,0.1827628,0.5017875,-0.27632472,-0.054016903,0.33398518,0.26174504,-0.40059772,-0.3875395,-0.27229893,823.1868,795.78754,812.71063,826.4103,785.7143,-0.3638916015625,0.030029296875,0.93524169921875,5.256195068359375,-5.9814453125,1.383209228515625,1,1.0,1.0,1.0,1.0,85.00
2021-04-06 09:47:43.006,0.50736463,0.40016147,0.3680602,0.6097629,0.39425874,0.059212025,-0.0875521,0.11323159,0.28789473,0.48085034,0.32137388,0.1827628,0.48970622,-0.17932856,0.034686897,0.33398518,0.24893257,-0.34667102,-0.29960838,-0.27229893,801.4286,796.5934,799.81683,809.0842,753.8828,-0.36248779296875,0.03302001953125,0.93896484375,4.628143310546875,-4.074859619140625,0.76263427734375,1,1.0,1.0,1.0,1.0,85.00
