TimeStamp,Delta_TP9,Delta_AF7,Delta_AF8,Delta_TP10,Theta_TP9,Theta_AF7,Theta_AF8,Theta_TP10,Alpha_TP9,Alpha_AF7,Alpha_AF8,Alpha_TP10,Beta_TP9,Beta_AF7,Beta_AF8,Beta_TP10,Gamma_TP9,Gamma_AF7,Gamma_AF8,Gamma_TP10,RAW_TP9,RAW_AF7,RAW_AF8,RAW_TP10,AUX_RIGHT,Accelerometer_X,Accelerometer_Y,Accelerometer_Z,Gyro_X,Gyro_Y,Gyro_Z,HeadBandOn,HSI_TP9,HSI_AF7,HSI_AF8,HSI_TP10,Battery,Elements
2021-04-18 15:05:53.668,1.016054,-0.0040187086,-0.04333231,0.84912425,0.45864698,0.35093245,-0.09359272,0.6475164,0.8501254,0.45577288,0.043477222,1.0167025,0.5836598,1.1646926,0.9413295,0.7863902,0.268081,0.5544191,0.27074647,0.2621806,782.49084,840.5128,828.8278,776.8498,834.0659,-0.2423095703125,1.8310546875E-4,0.972900390625,4.366455078125,-5.00946044921875,0.82244873046875,1,1.0,1.0,1.0,1.0,100.00
2021-04-18 15:05:54.175,0.95827115,-0.059131976,0.17444615,0.78018,0.47082114,0.24756327,-0.14160356,0.6786701,0.8769877,0.5487468,0.15701717,0.92286676,0.59137577,1.1723725,0.9404329,0.7246317,0.27546686,0.6132954,0.32639775,0.2820148,777.25275,824.7985,803.8461,777.6557,713.9927,-0.24542236328125,0.00567626953125,0.968505859375,3.596343994140625,-5.719757080078125,2.43743896484375,1,1.0,1.0,1.0,1.0,100.00
2021-04-18 15:05:54.693,0.76270944,-0.08109261,0.19096513,0.83829397,0.36653027,0.20514508,-0.11694472,0.6497108,0.7995845,0.56635517,0.23260711,0.8259559,0.6488598,1.1696835,0.8945378,0.77513677,0.2804504,0.6432213,0.39457697,0.3642292,798.20514,807.47253,795.38464,776.8498,796.1905,-0.24609375,-6.7138671875E-4,0.9664306640625,5.973968505859375,-4.568328857421875,1.128997802734375,1,1.0,1.0,1.0,1.0,100.00
2021-04-18 15:05:54.927,0.77988342,-0.11039113,0.294450945,0.86556387,0.50687127,0.1233570750000,-0.01749014,0.736818685,0.8451762,0.532587785,0.25855338,0.8193979499999,0.718982665,1.1725634,0.876704035,0.821037055,0.29145458,0.6738061200000,0.416715235,0.3864236599999,773.62637,802.032965,793.16852,,,,,,,,,,,,,,,/muse/elements/jaw_clench
2021-04-18 15:05:55.200,0.7970574,-0.13968965,0.39793676,0.89283377,0.64721227,0.04156907,0.08196444,0.82392657,0.8907679,0.4988204,0.28449965,0.81284,0.78910553,1.1754433,0.85887027,0.86693734,0.30245876,0.70439094,0.4388535,0.40861812,749.0476,796.5934,790.9524,752.674,707.5458,-0.23968505859375,0.00225830078125,0.95941162109375,7.514190673828125,-7.005767822265625,2.28790283203125,1,1.0,1.0,1.0,1.0,100.00
2021-04-18 15:05:55.259,0.76955772,-0.15956512,0.38697046,0.906240535,0.643911185,0.0063234845000,0.119456215,0.835131085,0.892527415,0.4815497749999,0.28302579,0.7905429500000,0.815128565,1.1833932,0.843828185,0.89411957,0.285341095,0.73281315,0.43968558,0.4080981,760.93405000000,829.43223,813.31504999999,,,,,,,,,,,,,,,/muse/elements/jaw_clench
2021-04-18 15:05:55.713,0.74205804,-0.17944059,0.37600416,0.9196473,0.6406101,-0.028922101,0.15694799,0.8463356,0.89428693,0.46427915,0.28155193,0.7682459,0.8411516,1.1913431,0.8287861,0.9213018,0.26822343,0.76123536,0.44051766,0.40757808,772.8205,862.27106,835.6777,763.5531,784.5055,-0.25543212890625,0.009765625,0.9696044921875,5.659942626953125,-2.82623291015625,0.01495361328125,1,1.0,1.0,1.0,1.0,100.00
2021-04-18 15:05:56.217,0.8044443,-0.17944059,0.38160414,0.9042062,0.8336054,-0.028922101,0.29319447,0.9645217,0.90408176,0.46427915,0.2268629,0.75060207,0.8683902,1.1913431,0.8923916,0.9714848,0.2460841,0.76123536,0.36708003,0.37537816,792.5641,815.5311,796.99634,792.5641,764.7619,-0.255859375,0.00732421875,0.96826171875,5.1739501953125,-3.312225341796875,-1.981353759765625,1,1.0,1.0,1.0,1.0,100.00
2021-04-18 15:05:56.729,0.81666946,-0.17944059,0.17595829,0.83347464,0.81338555,-0.028922101,0.23889686,0.93335015,0.75281733,0.46427915,0.30458954,0.725863,0.79561985,1.1913431,0.9781732,0.9378091,0.16602305,0.76123536,0.09198319,0.3442438,754.68866,826.8132,781.685,738.1685,786.1172,-0.23309326171875,0.02508544921875,0.97430419921875,4.134674072265625,-5.031890869140625,2.3626708984375,1,1.0,1.0,1.0,1.0,100.00
2021-04-18 15:05:56.878,0.83536088,-0.17944059,0.20169434,0.83347464,0.8542471549999,-0.028922101,0.24536253,0.93335015,0.761697265,0.46427915,0.33245162,0.725863,0.773152775,1.1913431,0.97295175,0.9378091,0.186299775,0.76123536,0.12464005,0.3442438,778.26008,840.51283,811.50182999999,,,,,,,,,,,,,,,/muse/elements/jaw_clench
2021-04-18 15:05:57.245,0.8540523,-0.17944059,0.22743039,0.83347464,0.89510876,-0.028922101,0.2518282,0.93335015,0.7705772,0.46427915,0.3603137,0.725863,0.7506857,1.1913431,0.9677303,0.9378091,0.2065765,0.76123536,0.15729691,0.3442438,801.8315,854.21246,841.31866,796.5934,779.67035,-0.22576904296875,0.0096435546875,0.9744873046875,4.6356201171875,-5.14404296875,1.054229736328125,1,1.0,1.0,1.0,1.0,100.00
2021-04-18 15:05:57.345,0.84213158,-0.17944059,0.255222835,0.83347464,0.84501563,-0.028922101,0.25741889,0.93335015,0.7601636,0.46427915,0.354362285,0.725863,0.70953113,1.1913431,0.9654059,0.9378091,0.212351585,0.76123536,0.142373865,0.3442438,810.494515,832.65568,824.79853,,,,,,,,,,,,,,,/muse/elements/jaw_clench
2021-04-18 15:05:57.771,0.83021086,-0.17944059,0.28301528,0.83347464,0.7949225,-0.028922101,0.26300958,0.93335015,0.74975,0.46427915,0.34841087,0.725863,0.66837656,1.1913431,0.9630815,0.9378091,0.21812667,0.76123536,0.12745082,0.3442438,819.15753,811.0989,808.2784,808.68134,886.8498,-0.2342529296875,0.01177978515625,0.96905517578125,4.246826171875,-4.822540283203125,0.83740234375,1,1.0,1.0,1.0,1.0,100.00
2021-04-18 15:05:57.872,0.74340038,-0.17944059,0.350951225,0.76736002,0.7312606500000,-0.028922101,0.208556295,0.844816075,0.73762635,0.46427915,0.3073769349999,0.7723533,0.64965748,1.1913431,0.9252464,0.8661272799999,0.274484535,0.76123536,0.30054961,0.387490125,810.494515,838.2967,807.0696,,,,,,,,,,,,,,,/muse/elements/jaw_clench
2021-04-18 15:05:58.283,0.6565899,-0.17944059,0.41888717,0.7012454,0.6675988,-0.028922101,0.15410301,0.756282,0.7255027,0.46427915,0.266343,0.8188436,0.6309384,1.1913431,0.8874113,0.79444546,0.3308424,0.76123536,0.4736484,0.43073645,801.8315,865.4945,805.8608,779.67035,770.80585,-0.23248291015625,0.0079345703125,0.97357177734375,5.12908935546875,-4.47113037109375,-1.54022216796875,1,1.0,1.0,1.0,1.0,100.00
2021-04-18 15:05:58.476,0.56421566,-0.17944059,0.466836185,0.79874405,0.67436565,-0.028922101,0.23290549,0.90531575,0.7448102999999,0.46427915,0.555795285,0.9229383499999,0.652954335,1.1913431,0.8956637000000,0.79322678,0.3106833,0.76123536,0.48646799,0.442219525,810.29305,850.78753499999,815.53115,,,,,,,,,,,,,,,/muse/elements/blink
2021-04-18 15:05:58.813,0.47184142,-0.17944059,0.5147852,0.8962427,0.6811325,-0.028922101,0.31170797,1.0543495,0.7641179,0.46427915,0.84524757,1.0270331,0.67497027,1.1913431,0.9039161,0.7920081,0.2905242,0.76123536,0.49928758,0.4537026,818.7546,836.08057,825.2015,810.696,764.35895,-0.2333984375,0.008056640625,0.97467041015625,4.882354736328125,-5.615081787109375,-0.9869384765625,1,1.0,1.0,1.0,1.0,100.00
2021-04-18 15:05:58.903,0.4925767100000,-0.17944059,0.4804842000000,0.88792915,0.6848136499999,-0.028922101,0.288804055,1.0317119,0.76909262,0.46427915,0.84524757,1.0270331,0.679528715,1.1913431,0.921200025,0.789474515,0.25871312,0.76123536,0.47807864,0.44698143,792.5641,821.37363499999,808.2784,,,,,,,,,,,,,,,/muse/elements/jaw_clench
2021-04-18 15:05:59.334,0.513312,-0.17944059,0.4461832,0.8796156,0.6884948,-0.028922101,0.26590014,1.0090743,0.77406734,0.46427915,0.84524757,1.0270331,0.68408716,1.1913431,0.93848395,0.78694093,0.22690204,0.76123536,0.4568697,0.44026026,766.3736,806.6667,791.3553,758.315,749.45056,-0.22039794921875,-0.003173828125,0.97943115234375,4.246826171875,-4.78515625,0.478515625,1,1.0,1.0,1.0,1.0,100.00
2021-04-18 15:05:59.337,0.5620636999999,-0.17944059,0.4785137,0.88676845,0.6813973799999,-0.028922101,0.29748762,0.97822772,0.76209244,0.46427915,0.843047115,1.0298468,0.66092573,1.1913431,0.96061909,0.797060715,0.17500505,0.76123536,0.3844027100000,0.41679689,766.3736,814.52385,796.39195,,,,,,,,,,,,,,,/muse/elements/jaw_clench
2021-04-18 15:05:59.838,0.6108154,-0.17944059,0.5108442,0.8939213,0.67429996,-0.028922101,0.3290751,0.94738114,0.75011754,0.46427915,0.84084666,1.0326605,0.6377643,1.1913431,0.98275423,0.8071805,0.12310806,0.76123536,0.31193572,0.39333352,766.3736,822.381,801.4286,766.3736,675.31134,-0.2220458984375,0.00439453125,0.97998046875,4.32159423828125,-5.0543212890625,1.5850830078125,1,1.0,1.0,1.0,1.0,100.00
2021-04-18 15:06:00.354,0.6002496,-0.17944059,0.54356873,0.70826954,0.54998106,-0.028922101,0.27472207,0.6768389,0.6677238,0.46427915,0.5455293,0.82432353,0.6303239,1.1913431,0.9775473,0.8032692,0.068757534,0.76123536,0.19820468,0.2998175,817.1429,823.1868,824.3956,811.0989,801.4286,-0.2099609375,-1.8310546875E-4,0.98193359375,4.702911376953125,-5.6524658203125,0.485992431640625,1,1.0,1.0,1.0,1.0,100.00
2021-04-18 15:06:00.860,0.5385837,0.26600263,0.5168569,0.6105553,0.49026868,0.264778,0.2470266,0.54550636,0.37873906,0.6488599,0.37808365,0.6124958,0.5955139,1.2033994,0.964218,0.8461915,0.11714954,0.5460515,0.16012065,0.23450913,778.46155,809.4872,816.7399,791.3553,770.0,-0.2103271484375,9.1552734375E-4,0.98175048828125,3.850555419921875,-4.50103759765625,1.293487548828125,1,1.0,1.0,1.0,1.0,100.00
2021-04-18 15:06:00.995,0.6645125000000,0.0855628275000,0.49999275,0.6228494,0.54551924,0.15272384,0.2665820750000,0.58892855,0.5315215,0.3078292090000,0.551500325,0.650286475,0.648936,1.19587275,0.93771665,0.860896,0.160510515,0.54418765,0.1749678900000,0.257727035,772.01465000000,806.86815,801.22710000000,,,,,,,,,,,,,,,/muse/elements/jaw_clench
2021-04-18 15:06:01.377,0.7904413,-0.094876975,0.4831286,0.6351435,0.6007698,0.04066968,0.28613755,0.63235074,0.68430394,-0.033201482,0.724917,0.68807715,0.7023581,1.1883461,0.9112153,0.8756005,0.20387149,0.5423238,0.18981513,0.28094494,765.56775,804.2491,785.7143,767.98535,714.3956,-0.21337890625,3.0517578125E-4,0.9818115234375,5.1141357421875,-4.807586669921875,0.785064697265625,1,1.0,1.0,1.0,1.0,100.00
2021-04-18 15:06:01.461,0.9292717500000,-0.094876975,0.5137265,0.582224925,0.6209241000000,0.04066968,0.303606835,0.6708433899999,0.73476462,-0.033201482,0.7320125500000,0.7563932250000,0.7189476,1.1883461,0.90020035,0.8962186,0.251992495,0.5423238,0.2176299099999,0.315574345,782.69229,790.54945,779.8718,,,,,,,,,,,,,,,/muse/elements/jaw_clench
2021-04-18 15:06:01.884,1.0681022,-0.094876975,0.5443244,0.52930635,0.6410784,0.04066968,0.32107612,0.70933604,0.7852253,-0.033201482,0.7391081,0.8247093,0.7355371,1.1883461,0.8891854,0.9168367,0.3001135,0.5423238,0.24544469,0.35020375,799.81683,776.8498,774.0293,796.5934,988.7912,-0.21563720703125,-0.00201416015625,0.9761962890625,4.77020263671875,-5.54779052734375,0.785064697265625,1,1.0,1.0,1.0,1.0,100.00
2021-04-18 15:06:02.410,1.081885,-0.094876975,0.5448036,0.41274026,0.6617833,0.04066968,0.33452925,0.6494874,0.83299965,-0.033201482,0.7830046,0.9015746,0.7440408,1.1883461,0.7463731,0.9176888,0.3022827,0.5423238,0.331808,0.42151803,801.4286,827.619,813.91943,795.78754,911.8315,-0.21661376953125,-9.765625E-4,0.979736328125,4.777679443359375,-4.463653564453125,1.532745361328125,1,1.0,1.0,1.0,1.0,100.00
2021-04-18 15:06:02.481,1.01321315,-0.094876975,0.52007923,0.46948941,0.6817286,0.04066968,0.27793769,0.63197903,0.840062725,-0.033201482,0.76919495,0.9416203750000,0.72550105,1.1883461,0.7626873750000,0.912214375,0.30001952,0.5423238,0.3741723999999,0.415196815,801.4286,821.97800000000,823.388265,,,,,,,,,,,,,,,/muse/elements/jaw_clench
2021-04-18 15:06:02.939,0.9445413,-0.094876975,0.49535486,0.52623856,0.7016739,0.04066968,0.22134613,0.61447066,0.8471258,-0.033201482,0.7553853,0.98166615,0.7069613,1.1883461,0.77900165,0.90673995,0.29775634,0.5423238,0.4165368,0.4088756,801.4286,816.337,832.8571,811.50183,726.08057,-0.21990966796875,0.00701904296875,0.97869873046875,4.7552490234375,-5.2337646484375,2.87109375,1,1.0,1.0,1.0,1.0,100.00
2021-04-18 15:06:03.465,0.43215695,-0.094876975,0.5536412,0.75425965,0.70547056,0.04066968,0.23401155,0.5330722,0.8640393,-0.033201482,0.45446306,0.9951906,0.65036815,1.1883461,0.7448677,0.9127439,0.3019228,0.5423238,0.40027973,0.3652064,784.90845,815.5311,794.17584,789.7436,744.21246,-0.22052001953125,-6.103515625E-5,0.98248291015625,4.972076416015625,-4.71038818359375,2.13836669921875,1,1.0,1.0,1.0,1.0,100.00
2021-04-18 15:06:03.991,0.5138166,-0.094876975,0.69558513,0.9777014,0.8124256,0.04066968,0.32153448,0.69893134,0.83434397,-0.033201482,0.45208967,0.95399797,0.64037067,1.1883461,0.7805438,0.9409264,0.35190865,0.5423238,0.37327224,0.2438214,798.60803,868.71796,840.10986,791.3553,762.3443,-0.22491455078125,0.001220703125,0.9752197265625,5.0244140625,-3.656158447265625,1.502838134765625,1,1.0,1.0,1.0,1.0,100.00
2021-04-18 15:06:04.493,0.7458107,0.27464676,0.5007354,1.031566,1.0592533,0.38390106,0.24352664,0.8151487,0.96252155,0.65046316,0.52593285,0.95399797,0.67149246,1.0569496,0.625228,0.9909953,0.35089868,0.8462286,0.40056893,0.1796465,771.2088,807.0696,792.5641,765.16486,652.3443,-0.2296142578125,4.2724609375E-4,0.97503662109375,5.14404296875,-4.59075927734375,1.039276123046875,1,1.0,1.0,1.0,1.0,100.00
2021-04-18 15:06:05.002,0.99941814,0.45938686,-0.07997174,1.1238823,1.2171772,0.41219932,-0.029810673,1.1912012,1.1876941,0.720176,0.39872807,1.1389263,0.7177863,1.0538416,0.6677189,0.89703286,0.3051616,0.65476805,0.30149716,0.12730454,763.1502,827.2161,796.1905,753.47986,830.0366,-0.23138427734375,-0.00103759765625,0.97406005859375,5.2337646484375,-3.596343994140625,1.7645263671875,1,1.0,1.0,1.0,1.0,100.00
2021-04-18 15:06:05.525,1.0153223,0.46030253,0.07318002,1.1189462,1.1988168,0.379588,-0.020243535,1.0584886,1.1876941,0.720176,0.44075152,1.1409671,0.70968056,1.0459356,0.7094484,0.7931055,0.35333908,0.69614303,0.3649271,0.3595262,805.05493,855.42126,838.49817,788.5348,738.5714,-0.25543212890625,0.00457763671875,0.971923828125,3.865509033203125,-3.596343994140625,0.605621337890625,1,1.0,1.0,1.0,1.0,100.00
2021-04-18 15:06:05.707,0.97046095,0.499671215,0.25132591,1.09377485,1.091166775,0.3783460199999,0.0621336525,1.0357778,1.1813745,0.6132197,0.424932285,1.1212396999999,0.66513491,1.0427249,0.72052395,0.7725153650000,0.3270340900000,0.63771963,0.31271357,0.3426767,810.293015,852.197815,833.260085,,,,,,,,,,,,,,,/muse/elements/jaw_clench
2021-04-18 15:06:06.032,0.9255996,0.5390399,0.4294718,1.0686035,0.98351675,0.37710404,0.14451084,1.013067,1.1750549,0.5062634,0.40911305,1.1015123,0.62058926,1.0395142,0.7315995,0.75192523,0.3007291,0.57929623,0.26050004,0.3258272,815.5311,848.97437,828.022,818.7546,849.3773,-0.24267578125,0.00775146484375,0.973388671875,4.598236083984375,-5.644989013671875,0.94207763671875,1,1.0,1.0,1.0,1.0,100.00
2021-04-18 15:06:06.538,0.59436214,0.49145246,0.45005274,0.9189398,0.5496145,0.20768963,0.13583139,0.804626,0.82438576,0.49600467,0.3323304,0.8386623,0.54014987,1.0329016,0.73662037,0.7184283,0.32236034,0.68994915,0.32098192,0.38262063,787.326,827.619,801.4286,779.67035,732.9304,-0.2396240234375,0.0050048828125,0.97491455078125,4.4561767578125,-5.2337646484375,0.76263427734375,1,1.0,1.0,1.0,1.0,100.00
2021-04-18 15:06:07.068,0.49951437,0.49145246,0.40842593,0.7496127,0.4403276,0.20768963,0.12734607,0.73060817,0.5057235,0.49600467,0.24907434,0.8333847,0.5572758,1.0329016,0.6970024,0.764573,0.2762806,0.68994915,0.22797017,0.30771247,798.60803,836.4835,815.12823,778.0586,785.7143,-0.2403564453125,0.0040283203125,0.974609375,5.256195068359375,-4.717864990234375,0.52337646484375,1,1.0,1.0,1.0,1.0,100.00
2021-04-18 15:06:07.533,0.620809685,0.49145246,0.23659922,0.65186248,0.58429665,0.20768963,-0.009169725000,0.550409385,0.750196675,0.49600467,0.142856147,0.636326525,0.56728935,1.0329016,0.707391525,0.77698015,0.30672453,0.68994915,0.27612547,0.3372952500000,796.996335,825.60439999999,806.666685,,,,,,,,,,,,,,,/muse/elements/jaw_clench
2021-04-18 15:06:07.596,0.742105,0.49145246,0.06477251,0.55411226,0.7282657,0.20768963,-0.14568552,0.3702106,0.99466985,0.49600467,0.036637954,0.43926835,0.5773029,1.0329016,0.71778065,0.7893873,0.33716846,0.68994915,0.32428077,0.36687803,795.38464,814.7253,798.20514,763.95605,789.7436,-0.2410888671875,0.008056640625,0.97613525390625,4.852447509765625,-4.14215087890625,0.478515625,1,1.0,1.0,1.0,1.0,100.00
2021-04-18 15:06:08.109,0.84387946,0.0033234877,4.7759525E-4,0.5541631,0.83496547,-0.038582634,0.06851732,0.58580214,0.9947349,0.26317814,0.13220225,0.8578553,0.60114247,0.9711856,0.744633,0.8410081,0.26159143,0.53381604,0.29891196,0.246887,810.293,849.7802,840.9158,810.696,732.1245,-0.24755859375,0.0067138671875,0.97088623046875,4.643096923828125,-4.23187255859375,0.3289794921875,1,1.0,1.0,1.0,1.0,100.00
2021-04-18 15:06:08.610,0.81935096,0.22288677,0.24276298,0.7701499,0.8991174,0.38473228,0.18721038,0.7884377,1.0323101,0.5913189,0.18582813,0.8627484,0.714289,1.0090002,0.741735,0.9057912,0.098606154,0.45067352,0.21815702,0.11220531,809.89014,822.381,815.5311,807.0696,810.696,-0.26251220703125,0.02117919921875,0.970947265625,8.23944091796875,-3.312225341796875,1.016845703125,1,1.0,1.0,1.0,1.0,100.00
2021-04-18 15:06:09.120,0.9315685,0.22288677,0.57350093,0.8945596,0.76757187,0.38473228,0.39036018,0.82773864,0.8860731,0.5913189,0.5929539,0.96370006,0.7753462,1.0090002,0.7481888,0.9416105,0.094819866,0.45067352,0.06906263,0.16681935,775.2381,814.3223,790.54944,770.40295,787.72894,-0.28643798828125,0.03216552734375,0.96453857421875,4.583282470703125,-3.596343994140625,0.34393310546875,1,1.0,1.0,1.0,1.0,100.00
2021-04-18 15:06:09.631,0.9859949,0.39783075,0.60731936,0.9476545,0.76646686,0.6347561,0.3396994,0.854468,0.863112,0.57434237,0.5853604,0.78365594,0.82489514,1.0520617,0.70918465,0.94345754,0.08253249,0.3177022,-0.036499877,0.21310912,770.80585,865.4945,844.1392,765.9707,751.4652,-0.30194091796875,0.02569580078125,0.94573974609375,4.18701171875,-1.8841552734375,4.598236083984375,1,1.0,1.0,1.0,1.0,100.00
2021-04-18 15:06:09.986,1.06844225,0.39783075,0.62829303,0.9499044999999,0.7277268299999,0.6347561,0.3472756999999,0.8466204749999,0.8452162,0.57434237,0.5853604,0.76529867,0.82009632,1.0520617,0.7247870599999,0.9460319850000,0.1167559149999,0.3177022,-0.0308642785,0.2483158200000,781.080575,842.52745,827.820515,,,,,,,,,,,,,,,/muse/elements/jaw_clench
2021-04-18 15:06:10.146,1.1508896,0.39783075,0.6492667,0.9521545,0.6889868,0.6347561,0.354852,0.83877295,0.8273204,0.57434237,0.5853604,0.7469414,0.8152975,1.0520617,0.74038947,0.94860643,0.15097934,0.3177022,-0.02522868,0.28352252,791.3553,819.5604,811.50183,810.293,860.2564,-0.24066162109375,0.05316162109375,0.96746826171875,1.981353759765625,-3.850555419921875,0.8074951171875,1,1.0,1.0,1.0,1.0,100.00
2021-04-18 15:06:10.150,1.1121591,0.39783075,0.374792065,0.751785865,0.62777865,0.6347561,0.169397733,0.804403875,0.7259408,0.57434237,0.4449248249999,0.7146619,0.79107045,1.0520617,0.7154392350000,0.899125765,0.1847064199999,0.3177022,0.0297319049999,0.31567166,801.02565,843.53478,813.113565,,,,,,,,,,,,,,,/muse/elements/jaw_clench
2021-04-18 15:06:10.659,1.0734286,0.39783075,0.10031743,0.55141723,0.5665705,0.6347561,-0.016056534,0.7700348,0.6245612,0.57434237,0.30448925,0.6823824,0.7668434,1.0520617,0.690489,0.8496451,0.2184335,0.3177022,0.08469249,0.3478208,810.696,867.50916,814.7253,802.23444,797.3993,-0.30279541015625,0.03131103515625,0.943115234375,5.196380615234375,-4.299163818359375,-3.94775390625,1,1.0,1.0,1.0,1.0,100.00
2021-04-18 15:06:11.184,1.2890992,0.39783075,1.0780122,0.55141723,1.0433426,0.6347561,0.98175687,0.7700348,1.0795654,0.57434237,1.0361972,0.6823824,0.9496137,1.0520617,0.8276456,0.8496451,0.39821905,0.3177022,0.24578089,0.3478208,784.90845,837.6923,814.7253,762.74725,723.663,-0.27423095703125,0.030029296875,0.955810546875,7.962799072265625,-11.551666259765625,-0.755157470703125,1,1.0,1.0,1.0,1.0,100.00
2021-04-18 15:06:11.710,1.1626734,0.39783075,0.85957015,0.55141723,1.0260336,0.6347561,0.7670676,0.7700348,1.0844071,0.57434237,1.0361972,0.6823824,0.93551165,1.0520617,0.82664496,0.8496451,0.455098,0.3177022,0.2261002,0.3478208,750.2564,784.10254,810.696,760.32965,799.011,-0.2103271484375,0.06585693359375,0.98626708984375,4.44122314453125,-6.59454345703125,7.79083251953125,1,1.0,1.0,1.0,1.0,100.00
2021-04-18 15:06:11.804,1.1678701500000,0.39783075,0.8335951,0.55141723,1.04830485,0.6347561,0.76455555,0.7700348,1.0656032,0.57434237,1.0373866999999,0.6823824,0.924716505,1.0520617,0.8227211299999,0.8496451,0.45800349,0.3177022,0.29811485,0.3478208,799.4139,828.62637,821.1722,,,,,,,,,,,,,,,/muse/elements/blink
2021-04-18 15:06:12.239,1.1730669,0.39783075,0.80762005,0.55141723,1.0705761,0.6347561,0.7620435,0.7700348,1.0467993,0.57434237,1.0385762,0.6823824,0.91392136,1.0520617,0.8187973,0.8496451,0.46090898,0.3177022,0.3701295,0.3478208,848.5714,873.1502,831.6484,790.54944,717.2161,-0.1365966796875,0.03173828125,0.9849853515625,4.127197265625,-20.83038330078125,-7.424468994140625,1,1.0,1.0,1.0,1.0,100.00
2021-04-18 15:06:12.405,1.0010003,0.39783075,0.728351145,0.55141723,1.0600056,0.6347561,0.651417835,0.7700348,0.977112085,0.57434237,0.8326403250000,0.6823824,0.90521458,1.0520617,0.81039638,0.8496451,0.49002601,0.3177022,0.34546555,0.3478208,791.55675,833.26006499999,812.30772,,,,,,,,,,,,,,,/muse/elements/blink
2021-04-18 15:06:12.761,0.8289337,0.39783075,0.64908224,0.55141723,1.0494351,0.6347561,0.54079217,0.7700348,0.90742487,0.57434237,0.62670445,0.6823824,0.8965078,1.0520617,0.80199546,0.8496451,0.51914304,0.3177022,0.3208016,0.3478208,734.5421,793.36993,792.96704,745.82416,691.02563,-0.0728759765625,0.0406494140625,0.99322509765625,3.289794921875,-8.755340576171875,-2.534637451171875,1,1.0,1.0,1.0,1.0,100.00
2021-04-18 15:06:13.289,0.8289337,0.39783075,0.691564,0.55141723,1.0494351,0.6347561,0.4915851,0.7700348,0.90742487,0.57434237,0.56685203,0.6823824,0.8965078,1.0520617,0.7610172,0.8496451,0.51914304,0.3177022,0.27038354,0.3478208,686.5934,792.96704,807.0696,737.76556,725.2747,-0.01324462890625,0.04290771484375,1.0045166015625,2.699127197265625,-9.4805908203125,-2.61688232421875,1,1.0,1.0,1.0,1.0,100.00
2021-04-18 15:06:13.817,0.8289337,0.39783075,0.67410916,0.55141723,1.0494351,0.6347561,0.185477,0.7700348,0.90742487,0.57434237,0.29631075,0.6823824,0.8965078,1.0520617,0.729654,0.8496451,0.51914304,0.3177022,0.09819036,0.3478208,534.2857,781.28204,842.52747,488.75458,697.8755,0.0096435546875,0.0283203125,1.02325439453125,1.248626708984375,9.091796875,3.90289306640625,1,1.0,1.0,1.0,1.0,100.00
2021-04-18 15:06:13.950,0.8289337,0.39783075,0.65809816,0.55141723,1.0494351,0.6347561,0.15887662,0.7700348,0.90742487,0.57434237,0.24663606,0.6823824,0.8965078,1.0520617,0.70569777,0.8496451,0.51914304,0.3177022,0.1423853,0.3478208,730.31135,805.25642,829.230785,,,,,,,,,,,,,,,/muse/elements/blink
2021-04-18 15:06:14.343,0.8289337,0.39783075,0.64208716,0.55141723,1.0494351,0.6347561,0.13227624,0.7700348,0.90742487,0.57434237,0.19696137,0.6823824,0.8965078,1.0520617,0.68174154,0.8496451,0.51914304,0.3177022,0.18658024,0.3478208,926.337,829.2308,815.9341,852.1978,870.7326,-0.13592529296875,-0.0445556640625,0.9888916015625,2.1832275390625,0.755157470703125,2.534637451171875,1,2.0,1.0,1.0,2.0,100.00
2021-04-18 15:06:14.643,0.8289337,0.39783075,0.6732643549999,0.55141723,1.0494351,0.6347561,0.085564105,0.7700348,0.90742487,0.57434237,0.131887435,0.6823824,0.8965078,1.0520617,0.69157092,0.8496451,0.51914304,0.3177022,0.209438295,0.3478208,884.6337,827.21615,821.97804999999,,,,,,,,,,,,,,,/muse/elements/blink
2021-04-18 15:06:14.869,0.8289337,0.39783075,0.70444155,0.55141723,1.0494351,0.6347561,0.03885197,0.7700348,0.90742487,0.57434237,0.0668135,0.6823824,0.8965078,1.0520617,0.7014003,0.8496451,0.51914304,0.3177022,0.23229635,0.3478208,842.9304,825.2015,828.022,823.5897,722.4542,-0.1533203125,-0.017333984375,0.98944091796875,4.882354736328125,-6.4300537109375,3.820648193359375,1,2.0,1.0,1.0,2.0,100.00
2021-04-18 15:06:15.397,0.8289337,0.39783075,0.9469643,0.55141723,1.0494351,0.6347561,0.6539658,0.7700348,0.90742487,0.57434237,0.510121,0.6823824,0.8965078,1.0520617,0.7319332,0.8496451,0.51914304,0.3177022,0.0368037,0.3478208,882.8205,834.4689,832.0513,837.28937,792.96704,-0.18109130859375,-0.00897216796875,0.990478515625,5.4132080078125,-1.854248046875,3.985137939453125,1,2.0,1.0,1.0,2.0,100.00
2021-04-18 15:06:15.921,0.4667303,0.39783075,0.703786,0.37773392,0.09212061,0.6347561,0.46104714,-0.04346551,0.17109662,0.57434237,0.510121,0.2349806,0.48057097,1.0520617,0.74475586,0.63633686,0.19646746,0.3177022,0.123587154,0.24752727,805.4579,844.1392,814.3223,773.22345,730.10986,-0.17205810546875,-0.016845703125,0.97314453125,4.42626953125,-3.57391357421875,1.89910888671875,1,1.0,1.0,1.0,1.0,100.00
2021-04-18 15:06:15.962,0.41810335,0.410087025,0.645789735,0.30995537,0.134707755,0.315178785,0.40728772,0.05777748,0.3885616950000,0.51638657,0.5102653,0.30263465,0.525572035,0.91129307,0.7380835800000,0.67208373,0.22007736,0.4484926299999,0.163232122,0.2351187149999,841.117225,840.91575,822.582385,,,,,,,,,,,,,,,/muse/elements/blink
2021-04-18 15:06:16.449,0.3694764,0.4223433,0.58779347,0.24217682,0.1772949,-0.00439853,0.3535283,0.15902047,0.60602677,0.45843077,0.5104096,0.3702887,0.5705731,0.77052444,0.7314113,0.7078306,0.24368726,0.57928306,0.20287709,0.22271016,876.77655,837.6923,830.84247,820.3663,772.4176,-0.16961669921875,-0.02166748046875,0.9970703125,2.07855224609375,-7.529144287109375,5.241241455078125,1,1.0,1.0,1.0,1.0,100.00
2021-04-18 15:06:16.976,0.5532797,0.5588111,0.28449658,0.3311398,0.3271361,0.17984158,0.036799088,0.20212713,0.7591001,0.58467,0.26336664,0.59809154,0.59971607,0.84903896,0.76234335,0.7430746,0.21958178,0.56342083,0.251375,0.1856476,751.4652,812.71063,807.8755,761.53845,718.4249,-0.19525146484375,-0.0029296875,0.9866943359375,3.237457275390625,-3.84307861328125,3.1103515625,1,1.0,1.0,1.0,1.0,100.00
2021-04-18 15:06:17.274,0.6173176,0.62827385,0.42157629,0.38707605,0.370864315,0.24448989,0.1975351639999,0.317380475,0.7777846,0.5858837,0.317545595,0.6216343950000,0.627622365,0.87374136,0.754917445,0.7331548,0.208287565,0.563502995,0.226834325,0.17254563,715.20147,818.55311499999,809.08425,,,,,,,,,,,,,,,/muse/elements/blink
2021-04-18 15:06:17.500,0.6813555,0.6977366,0.558656,0.4430123,0.41459253,0.3091382,0.35827124,0.43263382,0.7964691,0.5870974,0.37172455,0.64517725,0.65552866,0.89844376,0.74749154,0.723235,0.19699335,0.56358516,0.20229365,0.15944366,678.93774,824.3956,810.293,714.7985,658.3883,-0.232666015625,-0.00604248046875,0.97845458984375,2.6617431640625,-2.52716064453125,3.87298583984375,1,1.0,1.0,1.0,1.0,100.00
2021-04-18 15:06:18.029,0.6849944,0.60373193,0.5013594,0.46358296,0.3626024,0.37862232,0.37240574,0.4196604,0.7567691,0.5372824,0.3716587,0.61597747,0.6359199,0.93050224,0.7117286,0.66195446,0.07326283,0.38183492,0.07760613,0.127676,823.9927,816.7399,812.3077,822.381,836.4835,-0.23175048828125,-0.01171875,0.975341796875,5.749664306640625,-2.011260986328125,-2.848663330078125,1,1.0,1.0,1.0,1.0,100.00
2021-04-18 15:06:18.556,0.52882123,0.56529284,0.44954738,0.36586663,0.21892458,0.28061447,0.45978028,0.4609355,0.5762616,0.23445469,0.26623908,0.37725976,0.62226003,0.8666803,0.6353715,0.5751793,0.002630205,0.45865938,0.114625864,0.11343538,887.25275,826.4103,822.7839,837.28937,800.2198,-0.22412109375,-0.00823974609375,0.9659423828125,4.867401123046875,-4.717864990234375,-2.175750732421875,1,1.0,1.0,1.0,1.0,100.00
2021-04-18 15:06:19.085,-0.032875616,0.5522172,0.40083033,-0.02745267,-0.030992988,0.22629824,0.33389974,0.20236963,0.28119457,0.160846,0.3485749,0.012854964,0.56749356,0.8585603,0.64029783,0.576412,-0.20735201,0.4869923,0.17476055,0.03218547,832.8571,826.8132,815.12823,819.5604,760.32965,-0.216064453125,-0.00543212890625,0.9755859375,4.687957763671875,-6.9384765625,1.248626708984375,1,1.0,1.0,1.0,1.0,100.00
2021-04-18 15:06:19.594,0.07006816,0.6358392,0.5288277,0.48678088,0.27340275,0.07284568,0.33115363,0.35921118,0.58972275,-0.033823952,0.39551365,0.43181798,0.77566856,0.8244668,0.59507746,0.75224054,0.007665193,0.61004144,0.33729008,0.38526812,900.9524,800.2198,807.47253,862.674,1066.5568,-0.24395751953125,-0.02099609375,0.96990966796875,4.78515625,0.485992431640625,-0.70281982421875,1,1.0,1.0,1.0,1.0,100.00
2021-04-18 15:06:20.056,0.05963127,0.24558868,0.50527275,0.48598369,0.2388318900000,0.0576129675,0.259377955,0.34287349,0.58972275,0.083603604,0.3722723249999,0.460104155,0.7388285299999,0.8287639,0.601431105,0.7466590399999,0.0144248415,0.4578794550000,0.311654525,0.323717875,852.19782,828.82784999999,818.351665,,,,,,,,,,,,,,,/muse/elements/blink
2021-04-18 15:06:20.101,0.04919438,-0.14466184,0.4817178,0.4851865,0.20426103,0.042380255,0.18760228,0.3265358,0.58972275,0.20103116,0.349031,0.48839033,0.7019885,0.833061,0.60778475,0.74107754,0.02118449,0.30571747,0.28601897,0.26216763,803.44324,857.4359,829.2308,777.6557,735.34796,-0.2288818359375,-0.01806640625,0.97088623046875,4.164581298828125,-0.650482177734375,-1.33087158203125,1,1.0,1.0,1.0,1.0,100.00
2021-04-18 15:06:20.627,0.04919438,-0.14466184,0.39305076,0.47115734,0.20426103,0.042380255,0.103163004,0.39011934,0.58972275,0.20103116,0.37211302,0.49122953,0.7019885,0.833061,0.55422693,0.7399199,0.02118449,0.30571747,0.29295084,0.25312042,701.50183,817.1429,798.60803,744.61536,770.0,-0.255615234375,-0.01434326171875,0.9649658203125,2.878570556640625,-3.99261474609375,-0.777587890625,1,1.0,1.0,1.0,1.0,100.00
2021-04-18 15:06:21.157,0.021607,-0.14466184,0.15887603,0.3984407,0.09873084,0.042380255,0.0983792,0.46119148,0.055963803,0.20103116,0.21054706,0.3754837,0.5878476,0.833061,0.58168966,0.7162466,0.037512466,0.30571747,0.21863051,0.0917872,703.5165,822.7839,801.02563,738.1685,836.4835,-0.2581787109375,-0.02734375,0.96435546875,3.24493408203125,-5.4730224609375,2.27294921875,1,1.0,1.0,1.0,1.0,100.00
2021-04-18 15:06:21.454,0.021607,0.2807667299999,0.16528967,0.28180981,0.09873084,0.4124209775,0.115820315,0.56260804,0.055963803,0.20163647,0.206303605,0.38050096,0.5878476,0.842909315,0.57980478,0.715266015,0.037512466,0.414220185,0.243268205,0.169916495,761.337015,840.51283,815.329665,,,,,,,,,,,,,,,/muse/elements/blink
2021-04-18 15:06:21.663,0.021607,0.7061953,0.17170331,0.16517892,0.09873084,0.7824617,0.13326143,0.6640246,0.055963803,0.20224178,0.20206015,0.38551822,0.5878476,0.85275763,0.5779199,0.71428543,0.037512466,0.5227229,0.2679059,0.24804579,819.15753,858.24176,829.6337,791.3553,769.19415,-0.18170166015625,-0.00115966796875,0.97906494140625,5.38330078125,-9.031982421875,4.658050537109375,1,1.0,1.0,1.0,1.0,100.00
2021-04-18 15:06:22.177,0.021607,0.58523405,0.1510365,0.16517892,0.09873084,0.6108446,0.016397292,0.6640246,0.055963803,0.26303214,0.015675183,0.38551822,0.5878476,0.92143196,0.5831445,0.71428543,0.037512466,0.58577204,0.28208923,0.24804579,874.7619,820.7692,815.5311,839.707,923.1135,-0.18536376953125,-0.006103515625,0.98876953125,4.6954345703125,-3.730926513671875,-0.216827392578125,1,1.0,1.0,1.0,1.0,100.00
2021-04-18 15:06:22.345,0.021607,0.591851575,0.2236535699999,0.16517892,0.09873084,0.577175225,0.048897756,0.6640246,0.055963803,0.2921080700000,0.2580334415,0.38551822,0.5878476,0.91833583,0.601120865,0.71428543,0.037512466,0.536942645,0.2204870400000,0.24804579,832.05126999999,822.38095,815.1282,,,,,,,,,,,,,,,/muse/elements/blink
2021-04-18 15:06:22.681,0.021607,0.5984691,0.29627064,0.16517892,0.09873084,0.54350585,0.08139822,0.6640246,0.055963803,0.321184,0.5003917,0.38551822,0.5878476,0.9152397,0.61909723,0.71428543,0.037512466,0.48811325,0.15888485,0.24804579,789.34064,823.9927,814.7253,768.3883,722.0513,-0.1951904296875,-0.0145263671875,0.9754638671875,4.007568359375,-3.401947021484375,2.385101318359375,1,1.0,1.0,1.0,1.0,100.00
2021-04-18 15:06:23.192,1.0760194,0.5936852,0.602041,0.16517892,0.89599437,0.47476435,0.32671165,0.6640246,0.6830299,0.36433557,0.5521371,0.38551822,0.5495278,0.9138212,0.6134449,0.71428543,0.39479387,0.57441026,0.26248905,0.24804579,680.54944,809.89014,799.81683,724.0659,674.5055,-0.1810302734375,-0.02294921875,0.9810791015625,4.1571044921875,-3.050537109375,-0.829925537109375,1,1.0,1.0,1.0,1.0,100.00
2021-04-18 15:06:23.710,1.3295437,0.62792087,0.6221574,0.16517892,1.0503802,0.40195847,0.40693387,0.6640246,0.8593337,0.38534203,0.55297816,0.38551822,0.65226805,0.8709491,0.64112353,0.71428543,0.3236013,0.56686854,0.2512831,0.24804579,740.58606,755.09155,851.79486,797.8022,792.96704,-0.20074462890625,-0.03271484375,0.98553466796875,3.06549072265625,-4.05242919921875,0.8673095703125,1,1.0,1.0,1.0,1.0,100.00
2021-04-18 15:06:23.785,1.2925336500000,0.629958215,0.6550777299999,0.16517892,1.0196595,0.406379485,0.434822235,0.6640246,0.8700391000000,0.3301319900000,0.512551695,0.38551822,0.66239944,0.8599907,0.634821765,0.71428543,0.29706284,0.630467085,0.30278285,0.24804579,790.54943,807.069575,828.22345,,,,,,,,,,,,,,,/muse/elements/blink
2021-04-18 15:06:24.213,1.2555236,0.63199556,0.68799806,0.16517892,0.9889388,0.4108005,0.4627106,0.6640246,0.8807445,0.27492195,0.47212523,0.38551822,0.67253083,0.8490323,0.62852,0.71428543,0.27052438,0.69406563,0.3542826,0.24804579,840.5128,859.0476,804.65204,801.8315,826.8132,-0.1915283203125,0.00799560546875,0.98162841796875,2.3028564453125,-5.076751708984375,-0.07476806640625,1,1.0,1.0,1.0,1.0,100.00
2021-04-18 15:06:24.722,1.3891456,0.5677326,0.4613537,0.16517892,1.110654,0.11457107,0.2922576,0.6640246,0.99503934,0.24621022,0.12558751,0.38551822,0.77291256,0.864358,0.6737964,0.71428543,0.1565098,0.61291754,0.24187778,0.24804579,687.3993,831.2454,796.5934,720.0366,595.5311,-0.21240234375,0.01361083984375,0.97564697265625,0.58319091796875,-7.91046142578125,-0.37384033203125,1,1.0,1.0,1.0,1.0,100.00
2021-04-18 15:06:25.237,1.1454101,0.58376676,0.4902583,0.16517892,0.9575603,0.12403208,0.32631308,0.6640246,0.8874514,0.21385467,0.05782188,0.38551822,0.7286534,0.87393713,0.66736263,0.71428543,0.048430827,0.55689055,0.20372093,0.24804579,743.00366,803.44324,791.75824,782.49084,822.7839,-0.2237548828125,-8.544921875E-4,0.97021484375,3.895416259765625,-3.72344970703125,-1.114044189453125,1,1.0,1.0,1.0,1.0,100.00
2021-04-18 15:06:25.754,1.0452793,0.58376676,0.6392481,0.9533047,0.9060143,0.12403208,0.49725702,1.037727,0.92348355,0.21385467,0.37488845,0.77569497,0.698455,0.87393713,0.71186244,0.73269427,0.04058213,0.55689055,0.047046795,-0.04180545,852.1978,845.7509,826.0073,806.6667,898.93774,-0.192626953125,-0.0050048828125,0.97161865234375,4.747772216796875,-3.30474853515625,-0.680389404296875,1,1.0,1.0,1.0,1.0,100.00
2021-04-18 15:06:26.145,0.943949775,0.58376676,0.52635475,0.8456128199999,0.88865848,0.12403208,0.508574975,1.0929383000000,0.921672375,0.21385467,0.3832121950000,0.797896955,0.66509713,0.87393713,0.70026027,0.7280250850000,0.0052396105,0.55689055,0.0332521535,-0.01924884405,868.11355,837.0879,823.58975,,,,,,,,,,,,,,,/muse/elements/blink
2021-04-18 15:06:26.275,0.84262025,0.58376676,0.4134614,0.73792094,0.87130266,0.12403208,0.51989293,1.1481496,0.9198612,0.21385467,0.39153594,0.82009894,0.63173926,0.87393713,0.6886581,0.7233559,-0.030102909,0.55689055,0.019457512,0.0033077619,884.0293,828.4249,821.1722,834.4689,859.45056,-0.224609375,5.4931640625E-4,0.982666015625,4.194488525390625,-5.644989013671875,1.86920166015625,1,1.0,1.0,1.0,1.0,100.00
2021-04-18 15:06:26.802,0.76738095,0.3029253,0.50124085,0.7129358,0.8961894,0.48654205,0.4959995,1.014922,0.7850673,0.56599927,0.4159061,0.8312174,0.6174751,0.80332214,0.6514399,0.7267705,-0.048451286,0.45380732,-0.016419262,-0.06434952,778.86444,836.8865,815.5311,768.7912,756.30035,-0.20501708984375,-0.00213623046875,0.9815673828125,4.6356201171875,-6.856231689453125,-2.04864501953125,1,1.0,1.0,1.0,1.0,100.00
2021-04-18 15:06:27.331,0.6755248,0.3029253,0.29839173,0.40792963,0.8726585,0.48654205,0.3927119,0.86839217,0.7841788,0.56599927,0.24412578,0.7493275,0.57889754,0.80332214,0.6842603,0.67370254,-0.0026479778,0.45380732,-0.03746643,-0.019372838,857.03296,826.8132,831.2454,809.89014,715.2015,-0.2291259765625,1.220703125E-4,0.9786376953125,4.927215576171875,-3.656158447265625,1.1663818359375,1,1.0,1.0,1.0,1.0,100.00
2021-04-18 15:06:27.364,0.4828941,0.311497115,0.27726288,0.4169021400000,0.7900467,0.40077171,0.255425735,0.7002477650000,0.70503345,0.527043225,0.2317610299999,0.6942441,0.54991642,0.7717511699999,0.69970947,0.6556918949999,0.0076900445999,0.4975443300000,-0.009779533000,-0.021034372,805.45787999999,812.710615,812.91207000000,,,,,,,,,,,,,,,/muse/elements/blink
2021-04-18 15:06:27.854,0.2902634,0.32006893,0.25613403,0.42587465,0.7074349,0.31500137,0.11813957,0.53210336,0.6258881,0.48808718,0.21939628,0.6391607,0.5209353,0.7401802,0.71515864,0.63768125,0.018028067,0.54128134,0.017907364,-0.022695906,753.8828,798.60803,794.57874,759.12085,830.4396,-0.24188232421875,-0.00274658203125,0.97186279296875,2.893524169921875,-4.239349365234375,0.500946044921875,1,1.0,1.0,1.0,1.0,100.00
2021-04-18 15:06:28.358,0.36508003,0.32006893,0.09382054,0.51175463,0.6238819,0.31500137,0.025442664,0.6461908,0.60247844,0.48808718,0.081199296,0.5783233,0.41828942,0.7401802,0.72990197,0.593587,0.053547848,0.54128134,0.03967135,0.03306032,676.9231,822.381,794.9817,719.2308,697.47253,-0.25653076171875,-0.01153564453125,0.955322265625,3.342132568359375,-4.1571044921875,4.366455078125,1,1.0,1.0,1.0,1.0,100.00
2021-04-18 15:06:28.869,0.5786453,0.32006893,0.23498437,0.783298,0.6431505,0.31500137,-0.026738228,0.64537305,0.5723847,0.48808718,0.15454006,0.6298753,0.398766,0.7401802,0.6891442,0.62809694,-0.010195519,0.54128134,0.055174686,0.05545476,801.02563,813.91943,831.6484,802.6374,792.5641,-0.23626708984375,0.006103515625,0.984130859375,4.32159423828125,-4.007568359375,-0.575714111328125,1,1.0,1.0,1.0,1.0,100.00
2021-04-18 15:06:29.384,0.60062164,0.0754469,0.39910784,0.7751402,0.5554155,0.022370627,0.039284393,0.5348246,0.57739776,0.07279698,0.23727082,0.6132755,0.3567256,0.94216263,0.65592057,0.6088164,0.012579906,0.1166707,-0.05054163,0.027819311,856.2271,833.663,826.0073,820.7692,839.707,-0.25738525390625,0.005615234375,0.9661865234375,4.628143310546875,-4.127197265625,-1.428070068359375,1,1.0,1.0,1.0,1.0,100.00
2021-04-18 15:06:29.900,0.58314797,0.158130865,0.43578665,0.7248713849999,0.5983686500000,0.1299319135,-0.0423602385,0.5331249,0.63936275,0.097051778,0.2170057,0.580587285,0.4089342,0.92638078,0.654375285,0.65407525,0.025679832,0.168016755,-0.050263955,0.0276411479999,856.8315,840.5128,828.22345,,,,,,,,,,,,,,,/muse/elements/blink
2021-04-18 15:06:29.901,0.5656743,0.24081483,0.47246546,0.67460257,0.6413218,0.2374932,-0.12400487,0.5314252,0.70132774,0.121306576,0.19674058,0.54789907,0.4611428,0.91059893,0.65283,0.6993341,0.038779758,0.21936281,-0.04998628,0.027462985,857.4359,847.3626,830.4396,809.0842,696.26373,-0.2550048828125,-0.01177978515625,0.96502685546875,3.730926513671875,-3.828125,0.28411865234375,1,1.0,1.0,1.0,1.0,100.00
2021-04-18 15:06:30.408,0.58100617,0.3460006,0.4750882,0.3636741,0.70170856,0.36934385,-0.19407742,0.7168114,0.70132774,0.119053334,0.17591581,0.57022476,0.46046633,0.8764047,0.5993545,0.72455764,0.055756748,0.31385535,0.013769532,0.06902003,792.1612,821.5751,815.12823,795.78754,728.49817,-0.252685546875,-0.00762939453125,0.96533203125,3.9178466796875,-4.358978271484375,0.276641845703125,1,1.0,1.0,1.0,1.0,100.00
2021-04-18 15:06:30.933,0.61157244,0.4085149,0.21684398,0.21012892,0.8370668,0.4192255,-0.18172179,0.78888047,0.67991626,0.32842636,0.044506527,0.62290525,0.41388303,0.84017086,0.5591107,0.6461671,0.10839729,0.42622566,0.09447921,0.1815298,853.00366,815.12823,818.3516,822.7839,845.34796,-0.2564697265625,0.00323486328125,0.981689453125,5.226287841796875,-4.149627685546875,2.220611572265625,1,1.0,1.0,1.0,1.0,100.00
2021-04-18 15:06:31.434,0.55080056,0.46919304,-0.09176531,0.15016124,0.7177554,0.43068427,-0.16931777,0.6846664,0.4612564,0.40873125,0.052369323,0.59032655,0.34691027,0.82326716,0.5429341,0.5297492,0.17708382,0.448853,0.10686035,0.23900005,809.4872,839.304,828.4249,803.8461,748.24176,-0.28375244140625,0.0057373046875,0.962646484375,4.029998779296875,-3.75335693359375,0.814971923828125,1,1.0,1.0,1.0,1.0,100.00
2021-04-18 15:06:31.947,0.32054147,0.54338306,-0.02771055,0.2918212,0.575567,0.29064128,-0.07479203,0.3664904,0.550958,0.60218805,0.08098566,0.55755603,0.42309797,0.8147524,0.5364809,0.52433234,0.22832216,0.43879557,0.18779987,0.2870899,737.76556,796.1905,788.1319,746.2271,744.61536,-0.265380859375,-0.00274658203125,0.97808837890625,4.448699951171875,-5.540313720703125,0.7476806640625,1,1.0,1.0,1.0,1.0,100.00
2021-04-18 15:06:32.454,0.24035364,0.729448,0.10266745,0.33310038,0.31178787,0.42113712,-0.16039243,0.3005369,0.5917396,0.60218805,0.06680537,0.5202694,0.52678365,0.7726127,0.5348921,0.67057973,0.16807406,0.39856714,0.18373004,0.2541404,705.5311,803.44324,803.8461,746.2271,740.58606,-0.27642822265625,-0.00164794921875,0.9649658203125,4.164581298828125,-4.717864990234375,1.07666015625,1,1.0,1.0,1.0,1.0,100.00
2021-04-18 15:06:32.975,0.3512912,0.6127008,0.086990334,0.37365863,0.45728093,0.25651675,0.11278434,0.52971226,0.5927674,0.53912556,0.09200792,0.5159027,0.54142934,0.69434816,0.54218525,0.6915821,0.1974336,0.32328537,0.19337061,0.26007572,789.34064,835.6777,824.7985,793.7729,769.59705,-0.2752685546875,-0.019775390625,0.9591064453125,4.246826171875,-2.714080810546875,-2.370147705078125,1,1.0,1.0,1.0,1.0,100.00
2021-04-18 15:06:33.501,0.3858045,0.6194479,0.19739556,0.34411168,0.7161283,0.22267441,0.6877373,0.80708694,0.6505417,0.30465692,0.47324836,0.5076388,0.60935724,0.70124924,0.6014404,0.69515604,0.14697376,0.2131412,0.041736875,0.16779873,873.95605,826.0073,832.8571,847.3626,961.79486,-0.263916015625,-0.010986328125,0.96923828125,5.271148681640625,-4.762725830078125,2.31781005859375,1,1.0,1.0,1.0,1.0,100.00
2021-04-18 15:06:33.732,0.4045339500000,0.617066925,0.25636238,0.4271053649999,0.819108135,0.39589857,0.7553295250000,0.83580247,0.633393725,0.48967746,0.47804738,0.4884998299999,0.604430585,0.704604535,0.6102008649999,0.64820767,0.1527639949999,0.2175614599999,-0.017734104499,0.1517099250000,855.824175,829.83515,834.2674,,,,,,,,,,,,,,,/muse/elements/blink
2021-04-18 15:06:34.027,0.4232634,0.61468595,0.3153292,0.51009905,0.92208797,0.56912273,0.82292175,0.864518,0.61624575,0.674698,0.4828464,0.46936086,0.59950393,0.70795983,0.61896133,0.6012593,0.15855423,0.22198172,-0.077205084,0.13562112,837.6923,833.663,835.6777,792.96704,774.83514,-0.27862548828125,-0.00823974609375,0.9664306640625,4.119720458984375,-4.68048095703125,-0.859832763671875,1,1.0,1.0,1.0,1.0,100.00
2021-04-18 15:06:34.529,0.3603475,0.75125057,0.43470636,0.46667555,0.90658534,0.8090387,0.8293971,0.7404587,0.6266175,0.70020545,0.485957,0.4476219,0.582843,0.7480306,0.55000997,0.56612873,0.016688325,0.31844172,-0.14771338,0.12219855,879.19415,815.9341,823.5897,839.707,883.22345,-0.27874755859375,-0.01373291015625,0.9591064453125,4.358978271484375,-4.65057373046875,0.426177978515625,1,1.0,1.0,1.0,1.0,100.00
2021-04-18 15:06:34.984,0.303333815,0.7364669349999,0.3976599400000,0.42740105,0.847909155,0.8495706000000,0.6956423,0.607333525,0.616572175,0.70020545,0.4419094,0.4507563500000,0.503010775,0.751642225,0.5315696599999,0.5363137149999,-0.002609777000,0.34462793,-0.162712275000,0.10759426,792.16119,805.65937,811.30035,,,,,,,,,,,,,,,/muse/elements/blink
2021-04-18 15:06:35.050,0.24632013,0.7216833,0.36061352,0.38812655,0.78923297,0.8901025,0.5618875,0.47420835,0.60652685,0.70020545,0.3978618,0.4538908,0.42317855,0.75525385,0.51312935,0.5064987,-0.021907879,0.37081414,-0.17771117,0.09298997,705.12823,795.38464,799.011,743.8095,722.0513,-0.2974853515625,0.002197265625,0.9547119140625,6.041259765625,-3.641204833984375,2.654266357421875,1,1.0,1.0,1.0,1.0,100.00
2021-04-18 15:06:35.563,0.31671873,0.71186733,0.25060144,0.114521064,0.4941444,0.4356825,0.25147215,0.02183425,0.6477954,0.4432967,0.40206754,0.43961373,0.34531087,0.75672984,0.5199269,0.5567609,0.050396636,0.4622242,-0.009590879,0.15573373,692.6374,806.26373,802.6374,727.28937,584.2491,-0.274169921875,-0.0059814453125,0.9627685546875,3.416900634765625,-5.869293212890625,3.0804443359375,1,1.0,1.0,1.0,1.0,100.00
2021-04-18 15:06:36.083,0.33793268,0.6445566,0.29254255,0.12290864,0.36351553,-0.11150818,0.099052496,-0.025151383,0.40779817,0.4002227,0.41138208,0.4938568,0.35021928,0.7557819,0.56326485,0.6083803,0.06455851,0.43941873,0.03108571,0.15002078,879.59705,834.87177,824.7985,842.52747,742.6007,-0.300537109375,0.004638671875,0.9544677734375,4.807586669921875,-3.252410888671875,1.3458251953125,1,1.0,1.0,1.0,1.0,100.00
2021-04-18 15:06:36.593,0.48620015,0.59257716,0.2102063,0.14384349,0.38485563,0.15445332,0.034529313,0.06226386,0.4351865,0.4848851,0.40672794,0.5732913,0.40503114,0.7588153,0.5828262,0.6446883,0.03063762,0.3392894,0.016959712,0.10096261,822.7839,832.0513,830.4396,809.89014,774.43225,-0.29595947265625,0.00115966796875,0.963623046875,4.583282470703125,-5.72723388671875,-0.216827392578125,1,1.0,1.0,1.0,1.0,100.00
2021-04-18 15:06:37.118,0.43376923,0.7326984,0.19518575,0.06470615,0.27205813,0.3382927,-0.06967317,0.13255183,0.4492229,0.38970947,0.4525045,0.63347137,0.39014348,0.7405991,0.5914814,0.61854094,-0.11802063,0.28983513,-0.0021609804,0.06593429,736.9597,817.5458,815.9341,748.24176,670.07324,-0.3118896484375,-0.00738525390625,0.9530029296875,3.461761474609375,-0.740203857421875,0.13458251953125,1,1.0,1.0,1.0,1.0,100.00
2021-04-18 15:06:37.485,0.4181175649999,0.73624745,0.210819245,0.125691975,0.172784612,0.37246773,0.0066366699999,0.1131731100000,0.37416031,0.447765855,0.449078015,0.6289717850000,0.369638025,0.74945292,0.6070982,0.56411922,-0.19227918,0.27994898,-0.0532748752,0.0146956820000,776.8498,815.732615,823.79125,,,,,,,,,,,,,,,/muse/elements/blink
2021-04-18 15:06:37.645,0.4024659,0.7397965,0.22645274,0.1866778,0.073511094,0.40664276,0.08294651,0.09379439,0.29909772,0.50582224,0.44565153,0.6244722,0.34913257,0.75830674,0.622715,0.5096975,-0.26653773,0.27006283,-0.10438877,-0.036542926,816.7399,813.91943,831.6484,803.0403,745.0183,-0.30169677734375,0.0050048828125,0.948974609375,1.27105712890625,-7.499237060546875,12.93487548828125,1,1.0,1.0,1.0,1.0,100.00
2021-04-18 15:06:38.174,0.37848675,0.7935072,0.6738757,0.8846398,0.23794828,0.46609423,0.40809473,0.59281296,0.59986126,0.5503114,0.4020186,0.7857815,0.41566396,0.76643634,0.67900586,0.49448344,-0.14712065,0.2757167,-0.07237382,0.0930834,691.02563,866.30035,803.8461,717.2161,615.2747,-0.284912109375,0.02001953125,0.9599609375,4.9346923828125,-6.676788330078125,3.050537109375,1,1.0,1.0,1.0,1.0,100.00
2021-04-18 15:06:38.606,0.412299725,0.7378534299999,0.7663346,0.9844361,0.34156283,0.479031995,0.490894615,0.68966083,0.6144381800000,0.5295172,0.3486581250000,0.780069975,0.4654098450000,0.78046289,0.69462558,0.532938555,-0.11105701,0.2114362099999,-0.124591325,0.1075073199999,670.07323999999,845.95237500000,798.80950000000,,,,,,,,,,,,,,,/muse/elements/blink
2021-04-18 15:06:38.700,0.4461127,0.68219966,0.8587935,1.0842324,0.44517738,0.49196976,0.5736945,0.7865087,0.6290151,0.508723,0.29529765,0.77435845,0.51515573,0.79448944,0.7102453,0.57139367,-0.07499337,0.14715572,-0.17680883,0.12193124,649.12085,825.6044,793.7729,663.22345,745.0183,-0.24676513671875,0.00445556640625,0.97674560546875,0.695343017578125,-8.456268310546875,-1.4056396484375,1,1.0,1.0,1.0,1.0,100.00
2021-04-18 15:06:39.230,0.5010602,0.604986,1.064685,1.2800488,0.6105759,0.46129665,0.77245945,0.9836973,0.6270067,0.4644389,0.26477447,0.7417059,0.5737668,0.80748206,0.7335059,0.6618523,-0.016424168,0.0739324,-0.2127077,0.22381355,909.011,845.34796,822.7839,883.6264,821.978,-0.249267578125,-0.00714111328125,0.9752197265625,6.1907958984375,-4.912261962890625,-0.112152099609375,1,1.0,1.0,1.0,1.0,100.00
2021-04-18 15:06:39.743,0.5169702,0.604986,1.064685,1.3549937,0.7269787,0.46129665,0.77245945,1.0708992,0.6184793,0.4644389,0.26477447,0.6346604,0.63573277,0.80748206,0.7335059,0.7762752,-0.07266504,0.0739324,-0.2127077,0.25683463,762.74725,836.4835,805.05493,763.5531,758.71796,-0.29156494140625,0.01171875,0.97894287109375,5.435638427734375,-3.529052734375,-0.037384033203125,1,1.0,1.0,1.0,1.0,100.00
2021-04-18 15:06:40.255,0.5169702,0.604986,1.064685,1.3549937,0.7269787,0.46129665,0.77245945,1.0708992,0.6184793,0.4644389,0.26477447,0.6346604,0.63573277,0.80748206,0.7335059,0.7762752,-0.07266504,0.0739324,-0.2127077,0.25683463,853.00366,841.31866,821.5751,801.8315,894.10254,-0.24151611328125,0.01898193359375,0.973876953125,6.572113037109375,-5.869293212890625,0.52337646484375,1,1.0,1.0,1.0,1.0,100.00
2021-04-18 15:06:40.761,0.5169702,0.604986,0.8157033,1.3549937,0.7269787,0.46129665,0.3210465,1.0708992,0.6184793,0.4644389,0.60016966,0.6346604,0.63573277,0.80748206,0.5630727,0.7762752,-0.07266504,0.0739324,0.18034792,0.25683463,757.9121,829.2308,839.707,717.619,754.68866,-0.257568359375,0.0130615234375,0.97381591796875,5.51788330078125,-4.8748779296875,-2.691650390625,1,1.0,1.0,1.0,1.0,100.00
2021-04-18 15:06:40.859,0.5169702,0.604986,0.8157033,1.3549937,0.7269787,0.46129665,0.3210465,1.0708992,0.6184793,0.4644389,0.60016966,0.6346604,0.63573277,0.80748206,0.5630727,0.7762752,-0.07266504,0.0739324,0.18034792,0.25683463,766.37362000000,815.3297,817.34435000000,,,,,,,,,,,,,,,/muse/elements/blink
2021-04-18 15:06:41.285,0.5169702,0.604986,0.8157033,1.3549937,0.7269787,0.46129665,0.3210465,1.0708992,0.6184793,0.4644389,0.60016966,0.6346604,0.63573277,0.80748206,0.5630727,0.7762752,-0.07266504,0.0739324,0.18034792,0.25683463,774.83514,801.4286,794.9817,777.25275,849.3773,-0.2310791015625,0.00628662109375,0.9715576171875,4.628143310546875,-2.803802490234375,2.85614013671875,1,2.0,1.0,1.0,2.0,100.00
2021-04-18 15:06:41.812,0.5169702,0.604986,0.7842546,1.3549937,0.7269787,0.46129665,0.23013781,1.0708992,0.6184793,0.4644389,0.60000414,0.6346604,0.63573277,0.80748206,0.46282566,0.7762752,-0.07266504,0.0739324,0.15438204,0.25683463,857.4359,804.65204,815.9341,833.663,923.5165,-0.28155517578125,0.0115966796875,0.96112060546875,4.68048095703125,-2.220611572265625,1.435546875,1,2.0,1.0,1.0,2.0,100.00
2021-04-18 15:06:42.323,0.5169702,0.33446825,0.18284415,1.3549937,0.7269787,0.2502797,-0.23128265,1.0708992,0.6184793,0.26881397,0.11142364,0.6346604,0.63573277,0.5563346,0.4442628,0.7762752,-0.07266504,0.3637824,0.10826726,0.25683463,772.8205,822.381,829.6337,775.2381,797.8022,-0.258056640625,0.01031494140625,0.97174072265625,3.60382080078125,-4.94964599609375,0.3289794921875,1,2.0,1.0,1.0,2.0,100.00
2021-04-18 15:06:42.851,0.2989647,0.49375108,0.06521606,0.29769087,0.23889701,0.15651707,-0.3743312,0.2941602,0.75721455,0.45921752,0.15232843,0.5563899,0.43752965,0.6303324,0.47943863,0.5460469,0.13174738,0.29844716,0.10946306,0.23063329,868.315,786.1172,803.0403,849.3773,970.2564,-0.25421142578125,0.01129150390625,0.9669189453125,6.280517578125,-4.1571044921875,1.816864013671875,1,1.0,1.0,1.0,1.0,100.00
2021-04-18 15:06:43.351,0.54572695,0.44438943,-0.19968188,0.36507797,0.1885802,0.042677253,-0.22569591,0.17057124,0.75721455,0.47877443,0.25251216,0.68390507,0.4035428,0.7146777,0.47318235,0.6222577,0.33533752,0.56204426,0.2615589,0.4316558,992.4176,805.4579,874.35895,975.4945,770.80585,-0.2425537109375,0.02392578125,0.98004150390625,3.760833740234375,-5.600128173828125,3.805694580078125,1,1.0,1.0,1.0,1.0,100.00
2021-04-18 15:06:43.465,0.592150475,0.46299204,-0.19972528,0.394222935,0.2127060900000,-0.0183931555,-0.20986365,0.14846089,0.752063725,0.46070899,0.2384334599999,0.68390507,0.42777005,0.73971475,0.465761765,0.6319322,0.3606003100000,0.591751155,0.28527217,0.45290372,866.300385,806.26375000000,846.15382500000,,,,,,,,,,,,,,,/muse/elements/blink
2021-04-18 15:06:43.885,0.638574,0.48159465,-0.19976868,0.4233679,0.23683198,-0.079463564,-0.19403139,0.12635054,0.7469129,0.44264355,0.22435476,0.68390507,0.4519973,0.7647518,0.45834118,0.6416067,0.3858631,0.62145805,0.30898544,0.47415164,740.18317,807.0696,817.9487,734.5421,646.30035,-0.23577880859375,0.02642822265625,0.9727783203125,2.04864501953125,-8.590850830078125,7.110443115234375,1,1.0,1.0,1.0,1.0,100.00
2021-04-18 15:06:44.410,0.7745176,0.43655422,-0.16817664,0.45496938,0.09354466,0.08218307,0.04946921,-0.1543044,0.47378072,0.5720899,0.17712678,0.6485309,0.34294122,0.81762433,0.37191248,0.7217711,0.53912604,0.76352745,0.44429925,0.6338286,532.674,815.12823,763.5531,556.8498,685.38464,-0.2255859375,0.01495361328125,0.97705078125,1.55517578125,-3.357086181640625,-9.3609619140625,1,1.0,1.0,1.0,1.0,100.00
2021-04-18 15:06:44.588,0.7788849,0.53117776,-0.165673214999,0.46667084,0.094963885,0.336038185,0.07364525,-0.140281575,0.45895996,0.55024397,0.17712678,0.6485309,0.33850522,0.773196165,0.35540296,0.73962295,0.557789895,0.635851525,0.464096425,0.65666795,660.80586999999,820.970715,784.70695,,,,,,,,,,,,,,,/muse/elements/blink
2021-04-18 15:06:44.936,0.7832522,0.6258013,-0.16316979,0.4783723,0.09638311,0.5898933,0.09782129,-0.12625875,0.4441392,0.52839804,0.17712678,0.6485309,0.33406922,0.728768,0.33889344,0.7574748,0.57645375,0.5081756,0.4838936,0.6795073,788.93774,826.8132,805.8608,788.1319,743.00366,-0.25189208984375,-0.04296875,0.97064208984375,3.805694580078125,-1.614990234375,-6.8487548828125,1,1.0,1.0,1.0,1.0,100.00
2021-04-18 15:06:45.441,0.7832522,0.75519145,-0.16316979,0.4783723,0.09638311,0.66892695,0.09782129,-0.12625875,0.4441392,0.5340093,0.17712678,0.6485309,0.33406922,0.7116721,0.33889344,0.7574748,0.57645375,0.2892734,0.4838936,0.6795073,939.6337,843.73627,789.34064,880.40295,797.3993,-0.2603759765625,-0.05401611328125,0.9486083984375,5.802001953125,-3.170166015625,0.82244873046875,1,1.0,1.0,1.0,1.0,100.00
2021-04-18 15:06:45.961,0.7832522,0.9241572,-0.16316979,0.4783723,0.09638311,0.6004082,0.09782129,-0.12625875,0.4441392,0.3573604,0.17712678,0.6485309,0.33406922,0.64671105,0.33889344,0.7574748,0.57645375,0.33594185,0.4838936,0.6795073,852.6007,816.7399,819.5604,809.89014,725.6777,-0.2628173828125,-0.04132080078125,0.96124267578125,4.23187255859375,-1.996307373046875,1.158905029296875,1,1.0,1.0,1.0,1.0,100.00
2021-04-18 15:06:46.464,0.7832522,0.9241572,0.80727726,0.4783723,0.09638311,0.6004082,0.10014823,-0.12625875,0.4441392,0.3573604,0.21580943,0.6485309,0.33406922,0.64671105,0.5251708,0.7574748,0.57645375,0.33594185,0.06566686,0.6795073,751.06226,815.5311,811.0989,763.1502,595.9341,-0.236083984375,-0.034912109375,0.9775390625,5.540313720703125,-7.85064697265625,1.21124267578125,1,2.0,1.0,1.0,2.0,100.00
2021-04-18 15:06:46.995,0.7832522,0.6771534,0.64318126,0.4783723,0.09638311,0.25597852,0.17557171,-0.12625875,0.4441392,0.33609068,0.32541135,0.6485309,0.33406922,0.5374376,0.4640794,0.7574748,0.57645375,0.32216337,0.01462239,0.6795073,716.4103,805.8608,803.8461,770.80585,683.36993,-0.25311279296875,-0.03363037109375,0.964599609375,5.046844482421875,-4.598236083984375,1.368255615234375,1,2.0,1.0,1.0,2.0,100.00
2021-04-18 15:06:47.483,0.884735265,0.402123485,0.526060295,0.4783723,0.502633855,0.04947762,0.1703002049999,-0.12625875,0.5484511,0.3889299,0.338955255,0.6485309,0.32171481,0.536227725,0.4479516,0.7574748,0.426137435,0.36514771,0.0693929975,0.6795073,762.1429,812.1062,814.9267,,,,,,,,,,,,,,,/muse/elements/blink
2021-04-18 15:06:47.499,0.98621833,0.12709357,0.40893933,0.4783723,0.9088846,-0.15702328,0.1650287,-0.12625875,0.652763,0.44176912,0.35249916,0.6485309,0.3093604,0.53501785,0.4318238,0.7574748,0.27582112,0.40813205,0.124163605,0.6795073,807.8755,818.3516,826.0073,807.47253,786.9231,-0.25592041015625,-0.03350830078125,0.96868896484375,6.676788330078125,-3.6785888671875,-1.248626708984375,1,2.0,1.0,1.0,2.0,100.00
2021-04-18 15:06:48.010,0.8621904,0.31040487,0.39503568,0.7533335,0.93836725,0.19513686,0.09579136,0.7129397,0.84909236,0.7089743,0.36588272,0.5872005,0.38073567,0.6287475,0.4931811,0.5005387,0.33138034,0.46749339,0.2031729,0.50130516,871.9414,815.9341,836.4835,830.84247,754.68866,-0.26019287109375,-0.033203125,0.9820556640625,5.420684814453125,-2.76641845703125,-0.22430419921875,1,1.0,1.0,1.0,1.0,100.00
2021-04-18 15:06:48.520,0.72805816,0.27402642,0.3536209,0.52053744,0.9016306,0.40163273,-0.012374563,0.62152106,0.8555185,0.70800555,0.40639257,0.5387533,0.3991009,0.6676756,0.5585549,0.45649388,0.26310354,0.3855242,0.21205227,0.36949202,858.6447,817.9487,813.5165,813.1135,913.44324,-0.23101806640625,-0.02008056640625,0.9796142578125,7.3870849609375,-11.327362060546875,2.25799560546875,1,1.0,1.0,1.0,1.0,100.00
2021-04-18 15:06:48.971,0.854238955,0.27321351,0.4600955,0.60240597,0.9906435499999,0.438473825,0.0130730485,0.7368779299999,0.81863763,0.6694439249999,0.408264515,0.5528603,0.42452508,0.678266875,0.59247563,0.47743268,0.22945134,0.36121345,0.168323997,0.3135425,791.9597,818.95605,808.6813,,,,,,,,,,,,,,,/muse/elements/blink
2021-04-18 15:06:49.031,0.98041975,0.2724006,0.5665701,0.6842745,1.0796565,0.47531492,0.03852066,0.8522348,0.78175676,0.6308823,0.41013646,0.5669673,0.44994926,0.68885815,0.62639636,0.49837148,0.19579914,0.3369027,0.124595724,0.25759298,725.2747,819.9634,803.8461,741.79486,637.4359,-0.234375,-0.01708984375,0.971435546875,6.1907958984375,-4.9945068359375,1.757049560546875,1,1.0,1.0,1.0,1.0,100.00
2021-04-18 15:06:49.548,1.0858735,-0.038493514,0.55597776,0.75087786,1.140304,0.30509564,-0.04148001,0.8772535,0.65307784,0.17375693,0.36810791,0.73877656,0.46171477,0.66040796,0.58867216,0.57134575,0.033987377,0.17211884,0.039061632,-0.06553586,732.1245,797.3993,801.02563,760.32965,773.22345,-0.22296142578125,-0.0025634765625,0.97430419921875,5.8917236328125,-5.443115234375,-0.0299072265625,1,1.0,1.0,1.0,1.0,100.00
2021-04-18 15:06:50.060,1.0420878,-0.104631476,0.5274438,0.6987432,1.0508381,-0.093172416,-0.12412229,0.8900402,0.5942552,0.22239143,0.13925733,0.68855655,0.55177426,0.6441727,0.5314143,0.66175765,-0.08667538,-0.020766575,0.031991314,-0.08519208,806.26373,814.7253,808.2784,798.60803,852.6007,-0.2158203125,0.00201416015625,0.98260498046875,7.01324462890625,-4.867401123046875,-1.652374267578125,1,1.0,1.0,1.0,1.0,100.00
2021-04-18 15:06:50.114,0.9996073999999,0.100985397,0.321710972,0.7188759,0.9802910499999,0.020380162,-0.24522081,0.8001186149999,0.6382321,0.23288289,0.0364450100000,0.7031722250000,0.57060148,0.61545457,0.4889784299999,0.6666520549999,-0.079857437,-0.008482669,0.0062474625,-0.0572465085,775.439545,821.97804999999,812.71065,,,,,,,,,,,,,,,/muse/elements/blink
2021-04-18 15:06:50.561,0.957127,0.30660227,0.115978144,0.7390086,0.909744,0.13393274,-0.36631933,0.71019703,0.682209,0.24337435,-0.06636731,0.7177879,0.5894287,0.58673644,0.44654256,0.67154646,-0.073039494,0.003801237,-0.019496389,-0.029300937,744.61536,829.2308,817.1429,745.82416,764.7619,-0.22113037109375,0.0177001953125,0.971923828125,5.480499267578125,-2.4822998046875,8.44879150390625,1,1.0,1.0,1.0,1.0,100.00
2021-04-18 15:06:51.071,0.93549,0.55037266,0.29928356,0.71836835,0.8677305,0.37013412,-0.058981635,0.707942,0.7017513,0.43281507,0.3224264,0.49099627,0.56618357,0.5502641,0.4701123,0.6647859,-0.062753454,-0.05152537,-0.09812512,-0.018738117,826.0073,813.5165,812.71063,789.7436,761.9414,-0.21905517578125,0.02557373046875,0.98614501953125,6.5496826171875,-5.81695556640625,-0.67291259765625,1,1.0,1.0,1.0,1.0,100.00
2021-04-18 15:06:51.583,1.0103409,0.81423444,0.42359295,0.72723436,0.8447329,0.59615815,0.09388635,0.66836745,0.7086291,0.5332851,0.36916178,0.66512275,0.5944157,0.5444045,0.47149098,0.6194717,0.008810261,0.13628297,-0.08870992,0.06781574,788.1319,817.1429,806.26373,794.9817,777.6557,-0.163330078125,0.05413818359375,0.99267578125,10.385284423828125,-9.68994140625,-0.67291259765625,1,1.0,1.0,1.0,1.0,100.00
2021-04-18 15:06:52.099,0.7338467,0.850849,0.44742292,0.21501634,0.3776023,0.6040392,0.13823776,0.24491711,0.634379,0.5273735,0.38939035,0.65297693,0.52577126,0.60252875,0.4089529,0.54403645,-0.03165083,0.18681355,-0.02882324,-0.011547584,856.2271,829.6337,831.2454,816.7399,812.71063,-0.19793701171875,0.07568359375,0.97515869140625,4.673004150390625,-4.538421630859375,13.884429931640625,1,1.0,1.0,1.0,1.0,100.00
2021-04-18 15:06:52.428,0.7141115499999,0.8485723000000,0.43158804,0.42653309,0.39155818,0.563012065,0.2312897649999,0.360642805,0.62103445,0.4920618250000,0.393024205,0.6665558149999,0.5251854300000,0.61325669,0.37432135,0.53254935,-0.052289972000,0.23142179,-0.006126090000,-0.0033136508,862.47253,818.55311499999,822.17945000000,,,,,,,,,,,,,,,/muse/elements/blink
2021-04-18 15:06:52.627,0.6943764,0.8462956,0.41575316,0.63804984,0.40551406,0.52198493,0.32434177,0.4763685,0.6076899,0.45675015,0.39665806,0.6801347,0.5245996,0.62398463,0.3396898,0.52106225,-0.072929114,0.27603003,0.01657106,0.0049202824,868.71796,807.47253,813.1135,821.978,813.91943,-0.15228271484375,0.123046875,0.97979736328125,5.061798095703125,-4.18701171875,10.9759521484375,1,1.0,1.0,1.0,1.0,100.00
2021-04-18 15:06:52.728,0.8036331,0.81584415,0.40141133,0.86706952,0.60423318,0.48840688,0.3510313149999,0.69160185,0.58016605,0.450035275,0.4380785299999,0.7691312,0.49380844,0.6158348,0.35179615,0.527353875,-0.117945647000,0.2535318199999,0.0644318349999,0.0242421837000,809.08426,809.285715,809.688615,,,,,,,,,,,,,,,/muse/elements/blink
2021-04-18 15:06:53.130,0.9128898,0.7853927,0.3870695,1.0960892,0.8029523,0.45482883,0.37772086,0.9068352,0.5526422,0.4433204,0.479499,0.8581277,0.46301728,0.60768497,0.3639025,0.5336455,-0.16296218,0.23103361,0.11229261,0.043564085,749.45056,811.0989,806.26373,751.06226,664.0293,-0.1318359375,0.106201171875,0.9869384765625,4.26177978515625,-4.957122802734375,3.925323486328125,1,1.0,1.0,1.0,1.0,100.00
2021-04-18 15:06:53.661,0.95119196,0.7853927,0.39809236,1.139757,0.84324485,0.45482883,0.3858931,0.9578555,0.61609656,0.4433204,0.479499,0.83646655,0.43480268,0.60768497,0.42995712,0.5234922,-0.14185934,0.23103361,0.110852495,0.0743434,705.5311,815.9341,807.8755,741.39197,568.93774,-0.10723876953125,0.08642578125,0.99078369140625,4.47113037109375,-6.02630615234375,7.603912353515625,1,1.0,1.0,1.0,1.0,100.00
2021-04-18 15:06:54.170,0.8383822,0.7853927,0.22157688,0.99199307,0.7871445,0.45482883,0.08159889,0.8569253,0.6227352,0.4433204,0.34377506,0.8232374,0.35717887,0.60768497,0.49663585,0.51072985,-0.07557618,0.23103361,0.09455076,0.01141316,733.3333,811.9048,808.2784,743.8095,711.978,-0.1226806640625,0.08367919921875,1.001708984375,3.611297607421875,-2.3626708984375,-2.7215576171875,1,1.0,1.0,1.0,1.0,100.00
2021-04-18 15:06:54.682,0.5360579,0.7853927,0.210185,0.5891388,0.47144076,0.45482883,-0.037504893,0.49487275,0.5834129,0.4433204,0.08961086,0.58600616,0.3493306,0.60768497,0.47002584,0.5084482,-0.043866437,0.23103361,-0.034399483,-0.093314365,775.64105,817.5458,803.44324,761.13556,688.60803,-0.0897216796875,0.0911865234375,0.99395751953125,4.62066650390625,-8.26934814453125,1.936492919921875,1,1.0,1.0,1.0,1.0,100.00
2021-04-18 15:06:55.113,0.4008595,0.7853927,0.23784678,0.50137585,0.4064644699999,0.45482883,-0.0422494785,0.44941266,0.52571448,0.4433204,0.086579878,0.60461098,0.3468903,0.60768497,0.41997932,0.48748363,0.0078318915,0.23103361,-0.01581465995,-0.0828499175,808.882775,824.5971,817.94872,,,,,,,,,,,,,,,/muse/elements/blink
2021-04-18 15:06:55.185,0.2656611,0.7853927,0.26550856,0.4136129,0.34148818,0.45482883,-0.046994064,0.40395257,0.46801606,0.4433204,0.083548896,0.6232158,0.34445,0.60768497,0.3699328,0.46651906,0.05953022,0.23103361,0.0027701631,-0.07238547,842.1245,831.6484,832.4542,804.65204,775.64105,-0.10638427734375,0.07696533203125,0.990966796875,2.519683837890625,-5.2337646484375,-1.502838134765625,1,1.0,1.0,1.0,1.0,100.00
2021-04-18 15:06:55.706,0.32806036,0.7166615,0.17430872,0.4050108,0.30956665,0.28982925,0.035266414,0.45722666,0.4169242,0.69293666,0.1161541,0.6307626,0.32004645,0.31768823,0.24122494,0.42006987,0.1260998,0.35288712,0.048073158,0.09369971,750.2564,805.4579,792.1612,759.5238,765.16486,-0.09332275390625,0.06768798828125,1.00030517578125,3.24493408203125,-8.25439453125,3.22998046875,1,1.0,1.0,1.0,1.0,100.00
2021-04-18 15:06:56.019,0.31972778,0.7596738999999,0.2022297450000,0.4100079749999,0.2997981349999,0.3586729250000,0.087714277,0.47523143,0.3497934000000,0.69293666,0.173106965,0.5719970299999,0.2913605849999,0.3554729650000,0.273649335,0.365346385,0.154391605,0.3399890100000,0.046968859,0.1292435,810.4945,826.00733,809.4872,,,,,,,,,,,,,,,/muse/elements/blink
2021-04-18 15:06:56.214,0.3113952,0.8026863,0.23015077,0.41500515,0.29002962,0.4275166,0.14016214,0.4932362,0.2826626,0.69293666,0.23005983,0.51323146,0.26267472,0.3932577,0.30607373,0.3106229,0.18268341,0.3270909,0.04586456,0.16478729,870.7326,846.55676,826.8132,830.0366,697.0696,-0.1060791015625,0.0621337890625,0.99017333984375,2.325286865234375,-6.6094970703125,-0.478515625,1,1.0,1.0,1.0,1.0,100.00
2021-04-18 15:06:56.739,0.31688368,0.8820935,0.40732938,0.52346766,0.42158937,0.48431772,0.3037236,0.60516876,0.2785175,0.691294,0.2658193,0.43064636,0.21729048,0.4047681,0.41419235,0.27251568,0.18755944,0.3632611,-0.06765311,0.27514404,799.41394,815.12823,811.50183,793.36993,868.315,-0.0928955078125,0.0672607421875,0.9949951171875,4.74029541015625,-5.39825439453125,-0.560760498046875,1,1.0,1.0,1.0,1.0,100.00
2021-04-18 15:06:57.252,0.37136352,0.724331,0.43690073,0.58687764,0.43956286,0.55418456,0.2864984,0.6248313,0.2537992,0.1777784,0.2658193,0.41044053,0.19008346,0.5361667,0.49079394,0.2963144,0.13942288,0.31623843,-0.13358395,0.2902402,844.1392,788.5348,827.2161,850.18317,753.8828,-0.09197998046875,0.0743408203125,0.99981689453125,5.046844482421875,-4.5458984375,-0.201873779296875,1,1.0,1.0,1.0,1.0,100.00
2021-04-18 15:06:57.778,1.6948237,0.724331,0.51081336,1.6285381,1.0000442,0.55418456,0.3631705,1.0874337,0.5830779,0.1777784,0.41876638,0.86639017,0.65080076,0.5361667,0.47448152,0.55335647,0.30689898,0.31623843,-0.08453556,0.30003756,867.50916,830.84247,826.0073,809.4872,720.0366,-0.09808349609375,0.07952880859375,1.00396728515625,7.813262939453125,-6.796417236328125,-2.190704345703125,1,1.0,1.0,1.0,1.0,100.00
2021-04-18 15:06:58.296,1.634183,0.5781297,0.5024776,1.5723372,0.98016614,0.3566228,0.2877042,1.0512011,0.7847367,0.33672866,0.4726755,0.92152137,0.5915366,0.5562924,0.3855012,0.5130624,0.3697227,0.31638774,0.036491003,0.32345152,890.07324,812.71063,829.2308,863.47986,920.696,-0.06781005859375,0.11810302734375,0.9996337890625,8.433837890625,-9.45068359375,-2.654266357421875,1,1.0,1.0,1.0,1.0,100.00
2021-04-18 15:06:58.814,1.5507787,0.51338434,0.4952828,1.4917899,0.90116596,0.024212519,0.24276547,0.9597384,0.79049164,0.47356972,0.4905906,0.92152137,0.5348875,0.54852873,0.33975405,0.5102741,0.33701938,0.3291861,0.03599828,0.2823356,699.0842,812.3077,798.60803,727.28937,700.696,-0.05523681640625,0.1258544921875,0.99432373046875,4.59075927734375,-4.366455078125,-1.472930908203125,1,1.0,1.0,1.0,1.0,100.00
2021-04-18 15:06:58.818,1.4265243,0.51338434,0.518435015,1.41982385,0.80476138,0.024212519,0.199259815,0.881548625,0.77292722,0.47356972,0.5068336499999,0.864111285,0.4987872599999,0.54852873,0.34455511,0.50424046,0.30305179,0.3291861,0.078397785,0.2598247700000,721.44685,807.674,799.010985,,,,,,,,,,,,,,,/muse/elements/blink
2021-04-18 15:06:59.343,1.3022699,0.51338434,0.54158723,1.3478578,0.7083568,0.024212519,0.15575416,0.80335885,0.7553628,0.47356972,0.5230767,0.8067012,0.46268702,0.54852873,0.34935617,0.49820682,0.2690842,0.3291861,0.12079729,0.23731394,743.8095,803.0403,799.41394,757.50916,668.0586,-0.0699462890625,0.117431640625,0.9976806640625,3.895416259765625,-5.600128173828125,0.35888671875,1,1.0,1.0,1.0,1.0,100.00
2021-04-18 15:06:59.818,1.1480697,0.51984122,0.5327005650000,1.16359185,0.597193675,0.1126297295,0.15072841,0.628806145,0.7061255,0.4727719700000,0.411791825,0.70889275,0.42323779,0.541965365,0.368045685,0.512752335,0.257809705,0.399328165,0.14239587,0.2607837400000,730.5128,798.00367,803.443235,,,,,,,,,,,,,,,/muse/elements/blink
2021-04-18 15:06:59.851,0.9938695,0.5262981,0.5238139,0.9793259,0.48603055,0.20104694,0.14570266,0.45425344,0.6568882,0.47197422,0.30050695,0.6110843,0.38378856,0.535402,0.3867352,0.52729785,0.24653521,0.46947023,0.16399445,0.28425354,717.2161,792.96704,807.47253,755.4945,745.42126,-0.058349609375,0.11651611328125,0.99078369140625,5.031890869140625,-4.867401123046875,-0.351409912109375,1,1.0,1.0,1.0,1.0,100.00
2021-04-18 15:07:00.353,0.93332744,0.6220897,0.62111294,0.72279114,0.6844694,0.4257621,0.21089108,0.6530544,0.7590429,0.22203302,0.32994255,0.5160227,0.42678177,0.5567303,0.38850793,0.5221187,0.2338625,0.5172551,0.19347712,0.32715347,805.05493,821.978,813.1135,806.6667,816.7399,-0.1007080078125,0.10540771484375,0.9730224609375,5.749664306640625,-4.80010986328125,-19.432220458984375,1,1.0,1.0,1.0,1.0,100.00
2021-04-18 15:07:00.862,0.9585875,0.6220897,0.59324706,0.72279114,0.82967466,0.4257621,0.22644857,0.6530544,0.7590429,0.22203302,0.2421262,0.5160227,0.37980685,0.5567303,0.37227714,0.5221187,0.2515365,0.5172551,0.118577994,0.32715347,782.8938,803.0403,803.0403,782.0879,846.1539,-0.092041015625,0.086181640625,0.9918212890625,1.03179931640625,-4.306640625,5.9515380859375,1,1.0,1.0,1.0,1.0,100.00
2021-04-18 15:07:01.372,1.0052377,0.58413357,0.57797974,0.8990562,0.9052155,0.4352594,0.2348655,0.8645708,0.75902665,0.20367937,0.26728573,0.5085892,0.37792295,0.53827965,0.39004934,0.49684936,0.23994152,0.46946374,0.041612584,0.1888063,701.50183,804.65204,804.2491,737.76556,765.56775,-0.09375,0.04766845703125,1.00286865234375,2.6019287109375,-3.81317138671875,3.267364501953125,1,1.0,1.0,1.0,1.0,100.00
2021-04-18 15:07:01.876,0.41339397,0.58413357,0.5609274,0.7630693,0.69533956,0.4352594,0.299426,0.8061579,0.6819635,0.20367937,0.26951784,0.55122864,0.48089248,0.53827965,0.43361855,0.5859462,0.43067,0.46946374,-0.015383577,0.19375484,782.0879,815.12823,828.8278,779.2674,768.3883,-0.07342529296875,0.03521728515625,1.00091552734375,4.732818603515625,-4.762725830078125,1.203765869140625,1,1.0,1.0,1.0,1.0,100.00
2021-04-18 15:07:02.371,0.37418182,0.3312736,0.4041346649999,0.6823644,0.64172876,0.4691210999999,0.27392255,0.73721675,0.7217709,0.28415061,0.19283032,0.5836246700000,0.49646327,0.6044662599999,0.4846753499999,0.54940143,0.34872322,0.3192036000000,-0.0394908435,0.17592637,818.35163,801.63006500000,836.08055,,,,,,,,,,,,,,,/muse/elements/blink
2021-04-18 15:07:02.402,0.33496967,0.07841363,0.24734193,0.6016595,0.58811796,0.5029828,0.2484191,0.6682756,0.7615783,0.36462185,0.1161428,0.6160207,0.51203406,0.67065287,0.53573215,0.51285666,0.26677644,0.16894346,-0.06359811,0.1580979,854.61536,788.1319,843.3333,847.76556,838.49817,-0.06927490234375,0.048828125,0.99017333984375,7.9852294921875,-6.527252197265625,-3.446807861328125,1,1.0,1.0,1.0,1.0,100.00
2021-04-18 15:07:02.924,0.33109015,0.36884192,0.29682812,0.54962605,0.46090305,0.53083694,0.20972043,0.58489615,0.75460064,0.4607868,0.17233154,0.5836281,0.47377676,0.6297389,0.54895425,0.4971277,0.0910736,0.100573316,-0.16925621,0.104089566,840.9158,821.5751,822.7839,807.0696,753.0769,-0.0557861328125,0.04290771484375,1.00787353515625,5.181427001953125,-4.35150146484375,-1.375732421875,1,1.0,1.0,1.0,1.0,100.00
2021-04-18 15:07:03.432,0.2493346,0.464551,0.30258036,0.49186897,0.34465006,0.43825698,0.07834673,0.43828446,0.78981173,0.4616603,0.2291778,0.45735845,0.4960247,0.6061199,0.52001756,0.46288764,-0.09166691,0.07605655,-0.13172139,0.10919558,768.3883,798.60803,807.8755,769.19415,717.2161,-0.05859375,0.04632568359375,1.01861572265625,5.0543212890625,-5.72723388671875,-0.10467529296875,1,1.0,1.0,1.0,1.0,100.00
2021-04-18 15:07:03.615,0.33779217,0.51589925,0.30257559,0.570407735,0.30504401,0.367862165,-0.018098169999,0.40618723,0.655653445,0.4345892500000,0.227078975,0.487879725,0.4721672249999,0.5849440850000,0.49537754,0.460919645,-0.090076202,0.046648085,-0.109431255,0.1208475800000,741.7949,795.38461499999,801.02567,,,,,,,,,,,,,,,/muse/elements/blink
2021-04-18 15:07:03.941,0.42624974,0.5672475,0.30257082,0.6489465,0.26543796,0.29746735,-0.11454307,0.37409,0.52149516,0.4075182,0.22498015,0.518401,0.44830975,0.56376827,0.47073752,0.45895165,-0.088485494,0.01723962,-0.08714112,0.13249958,715.2015,792.1612,794.17584,746.2271,805.8608,-0.038330078125,0.03363037109375,0.99359130859375,5.5926513671875,-5.802001953125,-1.71966552734375,1,1.0,1.0,1.0,1.0,100.00
2021-04-18 15:07:04.451,0.3985183,0.5183938,0.19250792,0.5747942,0.27093747,0.0712394,0.006669924,0.2650852,0.44144943,0.19981836,0.4873139,0.55399317,0.45574462,0.5770089,0.4686546,0.40525272,-0.05253695,0.04932236,-0.0332988,0.09805682,785.7143,814.7253,819.15753,788.5348,792.1612,-0.05206298828125,0.04095458984375,0.99420166015625,5.345916748046875,-4.32159423828125,1.89910888671875,1,1.0,1.0,1.0,1.0,100.00
2021-04-18 15:07:04.955,0.51428103,0.51790863,0.18132207,0.39296347,0.25430885,0.09441204,0.08569318,0.23530956,0.35256386,0.2387602,0.45143288,0.60894305,0.37878424,0.59256655,0.48338512,0.39188427,-0.09016239,0.0407872,-0.049917,0.060290065,849.3773,822.381,813.1135,829.6337,834.0659,-0.065185546875,0.0399169921875,0.99688720703125,6.1907958984375,-5.286102294921875,-0.2093505859375,1,1.0,1.0,1.0,1.0,100.00
2021-04-18 15:07:05.465,0.6076113,0.46820757,0.22761782,0.43272787,0.4403164,0.21817394,0.16424692,0.39425588,0.33317897,0.23054548,0.44471988,0.5775137,0.35241574,0.6256523,0.4957906,0.37330562,-0.0922191,0.073651694,-0.07697348,-0.03074806,869.12085,821.978,807.8755,834.87177,743.00366,-0.04278564453125,0.03839111328125,1.0035400390625,5.555267333984375,-5.5029296875,0.13458251953125,1,1.0,1.0,1.0,1.0,100.00
2021-04-18 15:07:05.973,0.72004235,0.9116535,0.58809847,0.5194512,0.47045353,0.6670684,0.23355423,0.4579854,0.2776771,0.44146273,0.3991913,0.5374223,0.31793207,0.60275835,0.5183771,0.35647616,-0.16714524,4.134356E-4,-0.21876729,-0.07727238,758.71796,828.022,809.0842,765.16486,774.43225,-0.04931640625,0.0472412109375,0.997802734375,4.957122802734375,-4.403839111328125,0.590667724609375,1,1.0,1.0,1.0,1.0,100.00
2021-04-18 15:07:06.141,0.772340375,0.9743552499999,0.644334555,0.66836807,0.5542994649999,0.6788771499999,0.32963469,0.5462659999999,0.253952865,0.4375263900000,0.4381761600000,0.4825592800000,0.32215895,0.582886975,0.53354345,0.3413874799999,-0.121999219999,0.0422235578,-0.24353263,-0.092823815,812.10623,814.1209,817.9487,,,,,,,,,,,,,,,/muse/elements/blink
2021-04-18 15:07:06.499,0.8246384,1.037057,0.70057064,0.81728494,0.6381454,0.6906859,0.42571515,0.6345466,0.23022863,0.43359005,0.47716102,0.42769626,0.32638583,0.5630156,0.5487098,0.3262988,-0.0768532,0.08403368,-0.26829797,-0.10837525,865.4945,800.2198,826.8132,842.1245,950.9158,-0.03570556640625,0.04351806640625,1.0006103515625,4.53094482421875,-5.2935791015625,-3.177642822265625,1,1.0,1.0,1.0,1.0,100.00
2021-04-18 15:07:07.021,0.40846783,0.8033878,0.60689074,0.6627436,0.18216728,0.3831071,0.37802705,0.60161674,0.08632434,0.43359005,0.4979385,0.23836616,0.48254603,0.5970473,0.49840337,0.42125264,0.16722584,0.16522557,-0.13843681,0.07526148,844.5421,811.9048,818.3516,819.5604,820.7692,-0.0413818359375,0.05902099609375,1.00140380859375,3.760833740234375,-7.9852294921875,2.863616943359375,1,1.0,1.0,1.0,1.0,100.00
2021-04-18 15:07:07.436,0.58359805,0.834304025,0.67966847,0.7257469750000,0.27446502,0.453260915,0.411563215,0.59499497,0.29357297,0.603517375,0.4966501650000,0.25584911,0.50797653,0.5756325,0.4931228450000,0.43208404,0.1044827825,0.171965135,-0.120940815000,0.06662334,810.09157499999,807.06962,821.17215,,,,,,,,,,,,,,,/muse/elements/blink
2021-04-18 15:07:07.537,0.75872827,0.86522025,0.7524462,0.78875035,0.36676276,0.52341473,0.44509938,0.5883732,0.5008216,0.7734447,0.49536183,0.27333206,0.53340703,0.5542177,0.48784232,0.44291544,0.041739725,0.1787047,-0.10344482,0.0579852,775.64105,802.23444,823.9927,757.9121,667.25275,0.0595703125,0.04840087890625,1.00274658203125,5.1739501953125,-5.884246826171875,5.136566162109375,1,1.0,1.0,1.0,1.0,100.00
2021-04-18 15:07:08.043,0.9038851,0.880605,0.77012426,0.8618783,0.6808022,0.55623406,0.4462347,0.85896707,0.7945704,0.78475565,0.48591837,0.84027165,0.5167832,0.551233,0.43128678,0.48381725,0.070133545,0.15960066,-0.09463439,0.12564723,836.8865,801.4286,805.05493,807.0696,909.81683,0.0404052734375,0.04736328125,1.00341796875,4.059906005859375,-5.973968505859375,1.457977294921875,1,1.0,1.0,1.0,1.0,100.00
2021-04-18 15:07:08.556,0.87573314,1.0218971,0.7293934,0.73652375,0.68428254,0.7162921,0.4255463,0.82089716,0.7945704,0.7813652,0.4992211,0.84628403,0.48811883,0.50505304,0.41473287,0.48628047,0.14336266,0.114479356,-0.1754831,0.18745224,762.74725,801.02563,815.9341,778.46155,764.7619,0.0609130859375,0.05096435546875,1.01220703125,1.3458251953125,-7.394561767578125,0.201873779296875,1,1.0,1.0,1.0,1.0,100.00
2021-04-18 15:07:08.959,0.82788007,0.8870264699999,0.55227695,0.643119275,0.69494077,0.5317552999999,0.3393587700000,0.796754655,0.79254172,0.75069403,0.478586425,0.845168865,0.4713296150000,0.52302202,0.392605305,0.475165275,0.2418396300000,0.065293164,-0.187234295,0.25102324,830.439575,817.54576500000,820.9707,,,,,,,,,,,,,,,/muse/elements/blink
2021-04-18 15:07:09.060,0.780027,0.75215584,0.3751605,0.5497148,0.705599,0.3472185,0.25317124,0.77261215,0.79051304,0.72002286,0.45795175,0.8440537,0.4545404,0.540991,0.37047774,0.46405008,0.3403166,0.016106972,-0.19898549,0.31459424,898.1319,834.0659,826.0073,869.5238,790.14655,0.02178955078125,0.00665283203125,1.008544921875,0.83740234375,-2.03369140625,5.465545654296875,1,1.0,1.0,1.0,1.0,100.00
2021-04-18 15:07:09.579,-0.0692236,0.5176707,0.23368512,-0.051676407,0.30546543,0.15321636,0.12842831,0.4864026,0.47748402,0.46656853,0.3521928,0.6983043,0.3909161,0.54891324,0.3792624,0.40102774,0.4655957,0.0058025033,-0.21567377,0.35910514,892.0879,802.6374,838.9011,876.77655,772.8205,0.00738525390625,-0.0543212890625,0.99066162109375,3.596343994140625,-3.48419189453125,2.25799560546875,1,1.0,1.0,1.0,1.0,100.00
2021-04-18 15:07:09.858,-0.16244595,0.5176707,0.416847875,-0.3070040735,0.256777575,0.15321636,0.11472906,0.36409205,0.3899114449999,0.46656853,0.339268735,0.590377435,0.43541615,0.54891324,0.4117033850000,0.4239490500000,0.52382405,0.0058025033,-0.215736529999,0.42107828,871.135535,819.56045,840.31135,,,,,,,,,,,,,,,/muse/elements/blink
2021-04-18 15:07:10.093,-0.2556683,0.5176707,0.60001063,-0.56233174,0.20808972,0.15321636,0.10102981,0.2417815,0.30233887,0.46656853,0.32634467,0.48245057,0.4799162,0.54891324,0.44414437,0.44687036,0.5820524,0.0058025033,-0.21579929,0.48305142,850.18317,836.4835,841.7216,825.6044,811.50183,-0.0242919921875,-0.0296630859375,1.00042724609375,2.34771728515625,-2.639312744140625,4.867401123046875,1,1.0,1.0,1.0,1.0,100.00
2021-04-18 15:07:10.614,-0.2556683,0.9521272,0.8899527,-0.56233174,0.20808972,0.5727937,0.1747976,0.2417815,0.30233887,0.40642622,0.43594643,0.48245057,0.4799162,0.5419389,0.56484413,0.44687036,0.5820524,-0.0138623705,-0.25329918,0.48305142,718.4249,798.60803,801.4286,748.24176,716.8132,-0.03546142578125,-0.03753662109375,1.00140380859375,5.929107666015625,-3.865509033203125,3.357086181640625,1,1.0,1.0,1.0,1.0,100.00
2021-04-18 15:07:11.117,-0.2556683,0.9521272,0.93865335,-0.56233174,0.20808972,0.5727937,0.21963756,0.2417815,0.30233887,0.40642622,0.43594643,0.48245057,0.4799162,0.5419389,0.5806584,0.44687036,0.5820524,-0.0138623705,-0.23853877,0.48305142,785.7143,820.3663,809.0842,789.7436,761.13556,-0.03790283203125,-0.040283203125,0.9947509765625,4.18701171875,-4.41131591796875,1.1663818359375,1,1.0,1.0,1.0,1.0,100.00
2021-04-18 15:07:11.621,1.3190345,1.0294964,0.7673654,0.7315251,0.9735502,0.6584526,0.31829366,0.51247346,0.86951536,0.7350203,0.34296972,0.4784499,0.5518652,0.5711118,0.48241904,0.5850606,-0.010216649,0.1455442,-0.104910746,0.13041739,846.1539,829.6337,835.2747,821.5751,767.5824,-0.02838134765625,-0.03741455078125,0.9920654296875,5.465545654296875,-5.241241455078125,2.086029052734375,1,1.0,1.0,1.0,1.0,100.00
2021-04-18 15:07:12.143,1.1133893,1.1000191,0.88305855,0.79717845,0.959825,0.7364232,0.4503332,0.68100417,0.72512776,0.72466594,0.21816576,0.57574475,0.519519,0.6087977,0.42287958,0.61532176,0.028651671,0.2507217,0.046671398,0.13123462,850.989,808.68134,826.0073,811.0989,755.89746,-0.05267333984375,-0.03424072265625,1.003662109375,3.865509033203125,-3.51409912109375,-0.10467529296875,1,1.0,1.0,1.0,1.0,100.00
2021-04-18 15:07:12.441,1.0674724,0.94630375,0.796533645,0.769772575,1.0076817,0.7063580199999,0.38857257,0.824896885,0.72914985,0.72651332,0.2416105449999,0.581438455,0.4879623349999,0.6036579,0.41053934,0.59239288,-0.0119295345,0.184099987,-0.005092401,0.0923991075,796.79485,795.38462,822.17945,,,,,,,,,,,,,,,/muse/elements/blink
2021-04-18 15:07:12.669,1.0215555,0.7925884,0.71000874,0.7423667,1.0555384,0.67629284,0.32681194,0.9687896,0.73317194,0.7283607,0.26505533,0.58713216,0.45640567,0.5985181,0.3981991,0.569464,-0.05251074,0.117478274,-0.0568562,0.053563595,742.6007,782.0879,818.3516,751.8681,624.5421,-0.024169921875,-0.03533935546875,1.01446533203125,5.375823974609375,-1.652374267578125,-1.742095947265625,1,1.0,1.0,1.0,1.0,100.00
2021-04-18 15:07:13.179,0.6607985,0.39428052,0.61368877,0.6210942,1.2173,0.69026047,0.3017944,1.1690112,0.85158634,0.3800331,0.31626788,0.3327662,0.394939,0.5595162,0.4158795,0.51953095,-0.06708022,-0.12234607,-0.10952219,-0.0022168176,711.5751,792.5641,798.20514,729.707,634.21246,-0.03424072265625,-0.03472900390625,1.0078125,3.78326416015625,-4.388885498046875,2.071075439453125,1,1.0,1.0,1.0,1.0,100.00
2021-04-18 15:07:13.677,0.5603357499999,0.39537029,0.3891776,0.4978097,1.2416786499999,0.67936522,0.2186181950000,1.1869451999999,0.8441423450000,0.40212999,0.33751244,0.3285027000000,0.37927955,0.53449932,0.41081375,0.511580025,-0.074376229999,-0.086997658,-0.1701723,-0.0047458923,756.300365,793.97437,799.010985,,,,,,,,,,,,,,,/muse/elements/blink
2021-04-18 15:07:13.705,0.459873,0.39646006,0.16466643,0.3745252,1.2660573,0.66846997,0.13544199,1.2048792,0.83669835,0.42422688,0.358757,0.3242392,0.3636201,0.50948244,0.405748,0.5036291,-0.08167224,-0.051649246,-0.23082241,-0.007274967,801.02563,795.38464,799.81683,797.3993,873.95605,-0.0240478515625,-0.03582763671875,1.00006103515625,3.342132568359375,-6.44500732421875,3.087921142578125,1,1.0,1.0,1.0,1.0,100.00
2021-04-18 15:07:14.209,0.26344952,0.42396906,0.17523694,0.16665204,1.209876,0.64710534,0.16570048,1.0628369,0.85033876,0.39890856,0.31203464,0.39266142,0.41282946,0.45855215,0.3729358,0.52529323,0.050814863,0.09213228,-0.13782936,0.041863803,854.61536,820.7692,848.5714,832.0513,870.32965,-0.06085205078125,-0.030517578125,1.00225830078125,5.031890869140625,-2.175750732421875,0.426177978515625,1,1.0,1.0,1.0,1.0,100.00
2021-04-18 15:07:14.717,0.35956517,0.47805122,0.53320557,0.19606675,0.99860144,0.6043869,0.19792177,0.76866263,0.6184218,0.35055375,0.32229677,0.3350188,0.43238327,0.41345415,0.35796243,0.5701608,0.1099623,0.18143736,-0.018356567,0.09153389,849.3773,806.6667,821.978,825.6044,769.59705,-0.0345458984375,-0.0302734375,0.9957275390625,4.964599609375,-6.38519287109375,2.115936279296875,1,1.0,1.0,1.0,1.0,100.00
2021-04-18 15:07:15.230,0.34917006,0.48496002,0.62209135,0.19224428,0.849488,0.53437585,0.2177655,0.48557928,0.57371026,0.16314685,0.26261404,0.3745279,0.41891348,0.44180807,0.30121928,0.561168,0.08913451,0.14183973,0.042546097,0.051891573,757.1062,810.696,796.1905,756.7033,584.2491,-0.05419921875,-0.02520751953125,1.0032958984375,4.8150634765625,-4.90478515625,-0.10467529296875,1,1.0,1.0,1.0,1.0,100.00
2021-04-18 15:07:15.748,0.25135782,0.43309483,0.6645864,0.26506838,0.63666207,0.40857798,0.20609474,0.20748872,0.41085097,0.32129237,0.19127026,0.3985567,0.35136223,0.45376182,0.4161498,0.49436906,0.04706765,0.031884097,0.09788953,0.072335206,862.674,813.91943,822.381,840.5128,805.05493,-0.05621337890625,-0.0277099609375,1.00885009765625,4.807586669921875,-4.882354736328125,0.777587890625,1,1.0,1.0,1.0,1.0,100.00
2021-04-18 15:07:16.250,0.48605075,0.45155746,0.273226,0.45988923,0.46559212,0.14031368,-0.029239561,0.006661135,0.52971506,0.3611872,0.23111197,0.24139583,0.32008773,0.48307526,0.39630044,0.42044502,0.010229794,-0.05356081,0.09194049,0.09371464,803.8461,811.9048,817.5458,806.26373,802.6374,-0.0465087890625,-0.03448486328125,0.98980712890625,4.119720458984375,-3.887939453125,0.9271240234375,1,1.0,1.0,1.0,1.0,100.00
2021-04-18 15:07:16.758,0.56667763,0.43665022,0.13613673,0.5227627,0.24785016,0.030598676,-0.09091794,-0.15776989,0.46825796,0.41246548,0.24111864,0.17462824,0.26890966,0.45362335,0.3890673,0.27728364,0.03926623,0.0785408,0.09234715,0.16890527,767.1795,795.38464,799.81683,759.92676,691.4286,-0.039794921875,-0.03759765625,1.01263427734375,4.673004150390625,-5.9814453125,1.9140625,1,1.0,1.0,1.0,1.0,100.00
2021-04-18 15:07:17.269,0.5766353,0.40399703,-0.07141233,0.46989402,0.4775367,0.08009797,-0.21271776,0.30169943,0.63615674,0.46340126,0.23080657,0.31303474,0.30900526,0.44149533,0.32817373,0.28719497,0.16707182,0.08761958,0.049849883,0.23471975,706.7399,804.65204,806.26373,732.52747,708.7546,-0.06903076171875,-0.0322265625,1.001953125,4.762725830078125,-1.68975830078125,1.906585693359375,1,1.0,1.0,1.0,1.0,100.00
2021-04-18 15:07:17.774,0.32456145,0.099724516,-0.3752905,0.10006247,0.38114312,0.1139825,-0.24515237,0.45803455,0.6295121,0.38689366,0.040885165,0.38040915,0.31402814,0.46392128,0.44405702,0.24135597,0.15961793,0.046171635,-0.047993332,0.14718089,767.98535,767.98535,790.14655,773.22345,826.4103,-0.03912353515625,-0.04681396484375,1.0120849609375,5.5926513671875,-3.12530517578125,-2.332763671875,1,1.0,1.0,1.0,1.0,100.00
2021-04-18 15:07:18.275,0.23572406,-0.03515058,-0.36027515,-0.14797418,0.4841547,0.18867536,-0.2555108,0.4772126,0.63260734,0.38689366,-0.011861348,0.3851666,0.36330527,0.51057744,0.44208845,0.3620432,0.15566047,-0.033844415,-0.13199337,0.10520761,838.49817,802.23444,817.1429,822.381,831.6484,-0.0587158203125,-0.03839111328125,0.98858642578125,3.237457275390625,-5.540313720703125,0.500946044921875,1,1.0,1.0,1.0,1.0,100.00
2021-04-18 15:07:18.789,0.15516073,0.0037935195,-0.27542374,-0.1411859,0.47200638,0.26637518,-0.34343925,0.3349339,0.5299005,0.34168494,0.043399293,0.353511,0.37779704,0.51959205,0.44246468,0.3993213,0.031925306,-0.027440406,-0.21804896,-0.039336603,850.18317,807.0696,821.1722,810.696,772.01465,-0.06524658203125,-0.0426025390625,0.99859619140625,4.35150146484375,-2.10845947265625,-0.844879150390625,1,1.0,1.0,1.0,1.0,100.00
2021-04-18 15:07:19.315,0.06826638,0.23408873,-0.17780088,0.026702313,0.669693,0.35985234,-0.32563442,0.2759355,0.68601125,0.26120567,0.076451816,0.27627072,0.40895268,0.4907359,0.37727225,0.4715557,0.010432296,0.0027924776,-0.20998642,-0.035284214,770.40295,799.41394,798.60803,774.0293,781.28204,-0.0518798828125,-0.03173828125,1.00927734375,4.792633056640625,-4.6356201171875,-1.7047119140625,1,1.0,1.0,1.0,1.0,100.00
2021-04-18 15:07:19.826,0.061289232,0.43636084,0.03986423,0.06038463,0.7196207,0.46020728,-0.10806708,0.50228834,0.71168005,0.50170326,0.03969398,0.36760753,0.3897315,0.40645194,0.30925155,0.38145018,-0.030564845,0.08140002,-0.13161637,0.011852575,721.2454,811.50183,803.0403,741.39197,706.7399,-0.06488037109375,-0.03594970703125,0.99969482421875,5.151519775390625,-6.5496826171875,0.186920166015625,1,1.0,1.0,1.0,1.0,100.00
2021-04-18 15:07:19.860,0.124567591,0.516123745,0.159121365,0.106870485,0.74786007,0.48788694,-0.004243324999,0.6229461700000,0.707464375,0.53936433,0.105458845,0.49240914,0.402257625,0.4034979050000,0.3055460599999,0.39631604,-0.0401206505,0.104155355,-0.11325366,0.0479270245000,758.11355,808.076935,810.69595,,,,,,,,,,,,,,,/muse/elements/blink
2021-04-18 15:07:20.350,0.18784595,0.59588665,0.2783785,0.15335634,0.77609944,0.5155666,0.09958043,0.743604,0.7032487,0.5770254,0.17122371,0.61721075,0.41478375,0.40054387,0.30184057,0.4111819,-0.049676456,0.12691069,-0.09489095,0.084001474,794.9817,804.65204,818.3516,796.1905,760.7326,-0.054931640625,-0.034912109375,1.0015869140625,3.45428466796875,-6.063690185546875,-0.16448974609375,1,1.0,1.0,1.0,1.0,100.00
2021-04-18 15:07:20.853,0.26692897,0.53788877,0.31410587,0.23097515,0.6529694,0.45465755,0.22063006,0.824864,0.5421551,0.5650738,0.20848854,0.61044216,0.41794133,0.41525862,0.20426154,0.41187415,0.018051717,0.12943389,-0.15377654,0.13685603,852.1978,825.2015,812.71063,822.381,803.8461,-0.0640869140625,-0.04400634765625,1.002197265625,1.614990234375,-7.82073974609375,2.878570556640625,1,1.0,1.0,1.0,1.0,100.00
2021-04-18 15:07:21.362,0.3917571,0.35877144,0.28232107,0.5362164,0.7301397,0.58657736,0.4569732,0.7722303,0.38564387,0.4826509,0.29589158,0.60982156,0.44024155,0.41902557,0.19574057,0.43582037,-0.006591871,0.115739405,-0.22774804,0.091696754,847.3626,823.1868,811.0989,805.8608,712.7839,-0.09075927734375,-0.03369140625,1.0025634765625,5.084228515625,-3.48419189453125,-1.846771240234375,1,1.0,1.0,1.0,1.0,100.00
2021-04-18 15:07:21.873,0.4014722,0.26538402,0.24882369,0.54736495,0.9217461,0.8536912,0.67688286,0.6609135,0.42177483,0.41945145,0.3500927,0.5052095,0.38244185,0.45361787,0.122380696,0.41940308,-0.012495378,0.21750353,-0.08909902,0.12694006,767.5824,803.8461,810.696,761.13556,680.9524,-0.09869384765625,-0.0418701171875,1.0003662109375,4.687957763671875,-4.224395751953125,-1.547698974609375,1,1.0,1.0,1.0,1.0,100.00
2021-04-18 15:07:22.385,0.36540473,0.24211356,0.2607068,0.52644455,1.0522914,0.9087277,0.6965707,0.55106086,0.43903828,0.4487343,0.41315493,0.49450827,0.37151608,0.47260472,0.20991221,0.4313413,-0.008520212,0.26988652,-0.022278784,0.13040636,853.8095,813.5165,829.6337,843.73627,808.2784,-0.10601806640625,-0.03057861328125,0.99554443359375,4.373931884765625,-1.712188720703125,-0.441131591796875,1,1.0,1.0,1.0,1.0,100.00
2021-04-18 15:07:22.894,0.27203324,0.22385673,0.2495339,0.29784074,1.0800588,0.8208749,0.5668066,0.5313602,0.58763146,0.42787707,0.3895256,0.48096016,0.37392837,0.51439285,0.24223164,0.38246885,0.012846334,0.2515925,0.035406683,0.12006412,832.4542,812.71063,832.8571,790.9524,772.8205,-0.08837890625,-0.04107666015625,1.01263427734375,4.448699951171875,-2.76641845703125,-3.30474853515625,1,1.0,1.0,1.0,1.0,100.00
2021-04-18 15:07:23.415,0.19234219,0.3176506,0.32914844,0.24463704,0.9410557,0.47458333,0.3229346,0.5222943,0.72100013,0.3057753,0.40698925,0.45698848,0.37560835,0.4309661,0.25979233,0.4138051,0.051950645,0.14992048,0.0050832275,0.05909292,758.315,800.6227,795.78754,755.89746,717.2161,-0.06976318359375,-0.0323486328125,0.992919921875,2.639312744140625,-5.57769775390625,0.844879150390625,1,1.0,1.0,1.0,1.0,100.00
2021-04-18 15:07:23.792,0.209262475,0.386186665,0.49306187,0.28776741,0.9141917500000,0.3794373,0.2487311750000,0.64602485,0.734814115,0.36102707,0.3765104900000,0.45008081,0.412978005,0.455533725,0.2930451950000,0.447936075,0.0613337254999,0.11365228,0.01529989675,0.100313775,797.19778500000,810.4945,806.66667000000,,,,,,,,,,,,,,,/muse/elements/blink
2021-04-18 15:07:23.921,0.22618276,0.45472273,0.6569753,0.33089778,0.8873278,0.28429127,0.17452775,0.7697554,0.7486281,0.41627884,0.34603173,0.44317314,0.45034766,0.48010135,0.32629806,0.48206705,0.070716806,0.07738408,0.025516566,0.14153463,836.08057,820.3663,817.5458,814.3223,684.9817,-0.0771484375,-0.0516357421875,0.995849609375,3.222503662109375,-6.168365478515625,3.416900634765625,1,1.0,1.0,1.0,1.0,100.00
2021-04-18 15:07:24.424,0.28678563,0.5301196,0.6508045,0.33996323,1.0320281,0.47318417,0.13352878,0.941512,0.6675098,0.39982185,0.3441912,0.4313508,0.46914026,0.46352813,0.37209803,0.5164434,0.09004972,0.06508903,0.0043955985,0.26471084,790.14655,807.8755,822.381,803.8461,836.4835,-0.09716796875,-0.037109375,0.98822021484375,5.69732666015625,-1.54022216796875,2.953338623046875,1,1.0,1.0,1.0,1.0,100.00
2021-04-18 15:07:24.931,0.55480474,0.59709245,0.5423969,0.50026727,1.1127658,0.70744836,-0.24730387,0.96776825,0.5618444,0.36643705,0.24741723,0.4138774,0.52005506,0.41538912,0.35147062,0.47657666,-0.012747653,0.04021683,-0.049517244,0.26744622,877.1795,832.0513,820.7692,848.5714,882.4176,-0.0843505859375,-0.04559326171875,1.00079345703125,5.78704833984375,-7.469329833984375,5.046844482421875,1,1.0,1.0,1.0,1.0,100.00
2021-04-18 15:07:24.987,0.582758545,0.6091515750000,0.403501435,0.4963091750000,1.08314925,0.719881415,-0.219283035000,0.945920925,0.4708525,0.26901944,0.18206593,0.4614606650000,0.47205605,0.366786285,0.29162612,0.470661595,-0.053731069,0.0112973660000,-0.105608367000,0.2227957850000,803.44325,820.36632,813.315,,,,,,,,,,,,,,,/muse/elements/blink
2021-04-18 15:07:25.435,0.61071235,0.6212107,0.26460597,0.49235108,1.0535327,0.73231447,-0.1912622,0.9240736,0.3798606,0.17160183,0.11671463,0.50904393,0.42405704,0.31818345,0.23178162,0.46474653,-0.094714485,-0.017622098,-0.16169949,0.17814535,729.707,808.68134,805.8608,758.315,723.2601,-0.14263916015625,-0.02667236328125,0.99945068359375,3.96270751953125,-3.162689208984375,0.7476806640625,1,1.0,1.0,1.0,1.0,100.00
2021-04-18 15:07:25.959,0.65926546,0.8267135,0.054489944,0.42828867,0.92898816,0.7512036,-0.08041733,0.748483,0.39439842,0.1710711,0.20968282,0.48021927,0.33965966,0.2747518,0.25422418,0.46361995,-0.0148981465,-0.0026263928,-0.16960195,-0.057709657,742.1978,796.99634,804.65204,744.21246,619.304,-0.12371826171875,-0.0445556640625,1.006103515625,4.164581298828125,-2.474822998046875,-2.519683837890625,1,1.0,1.0,1.0,1.0,100.00
2021-04-18 15:07:26.489,0.45881653,0.83106965,0.22403923,0.060993034,0.9110633,0.41443852,-0.069250174,0.74100673,0.413039,0.09391652,0.32015738,0.47168994,0.2044129,0.39449486,0.34698504,0.41550305,0.03630104,0.10970683,-0.13737758,-0.1316806,724.0659,797.3993,802.23444,754.68866,701.9048,-0.0928955078125,-0.03521728515625,1.00164794921875,3.99261474609375,-8.381500244140625,3.970184326171875,1,1.0,1.0,1.0,1.0,100.00
2021-04-18 15:07:26.996,0.25684252,0.83106965,0.13457355,-0.09887453,0.8637086,0.41443852,-0.16463201,0.6945538,0.4954036,0.09391652,0.3263507,0.45523632,0.3663662,0.39449486,0.4084147,0.37258357,0.013872515,0.10970683,-0.120477475,-0.113280214,810.696,822.7839,826.0073,809.4872,770.0,-0.131103515625,-0.02008056640625,0.9912109375,4.32159423828125,-3.87298583984375,-1.099090576171875,1,1.0,1.0,1.0,1.0,100.00
2021-04-18 15:07:27.523,0.0018509533,0.77000654,0.1153709,0.11520841,0.8848599,0.78268546,-0.15757011,0.85877126,0.5423729,0.55401427,0.2347669,0.40751642,0.34890905,0.41975895,0.37770876,0.40243292,0.02773457,0.30027384,-0.028770523,0.068840176,773.6264,802.23444,812.3077,773.6264,582.6374,-0.12628173828125,-0.03851318359375,0.98150634765625,5.988922119140625,-2.22808837890625,-1.016845703125,1,1.0,1.0,1.0,1.0,100.00
2021-04-18 15:07:28.049,0.2199819,0.77071327,0.1678586,0.32252917,0.9944253,0.7483897,-0.083598234,0.9025407,0.63511086,0.57701266,0.13297117,0.53894305,0.3493634,0.47090325,0.33314872,0.42599988,0.08549672,0.27838334,0.005550405,0.111092,832.4542,812.3077,822.7839,803.0403,727.28937,-0.12738037109375,-0.04913330078125,0.9974365234375,4.702911376953125,-0.695343017578125,1.816864013671875,1,1.0,1.0,1.0,1.0,100.00
2021-04-18 15:07:28.552,0.4119572,0.7881509,0.1600999,0.4201712,1.1227238,0.7332011,0.018678972,0.9318141,0.6088533,0.5617831,0.22442687,0.7564114,0.21188214,0.48448744,0.30694577,0.44554716,0.15774402,0.20976171,0.02083988,0.08712833,840.10986,830.84247,820.3663,808.68134,673.2967,-0.12469482421875,-0.0299072265625,1.0125732421875,4.747772216796875,-3.058013916015625,5.241241455078125,1,1.0,1.0,1.0,1.0,100.00
2021-04-18 15:07:28.654,0.493277,0.77546945,0.1931717800000,0.40774755,1.1373856999999,0.68907205,0.057005726,0.922532185,0.6765995,0.4905082699999,0.248314285,0.7564114,0.24581225,0.500201805,0.31308131,0.445389805,0.1288963100000,0.16801347,-0.036785685,0.0066090050000,783.29668,812.1062,807.0696,,,,,,,,,,,,,,,/muse/elements/blink
2021-04-18 15:07:29.074,0.5745968,0.762788,0.22624366,0.3953239,1.1520476,0.644943,0.09533248,0.91325027,0.7443457,0.41923344,0.2722017,0.7564114,0.27974236,0.51591617,0.31921685,0.44523245,0.1000486,0.12626523,-0.09441125,-0.07391032,726.4835,793.36993,793.7729,758.71796,755.09155,-0.12603759765625,-0.03472900390625,0.99163818359375,3.1103515625,-2.03369140625,1.48040771484375,1,1.0,1.0,1.0,1.0,100.00
2021-04-18 15:07:29.580,0.69977146,0.7515681,0.33711395,0.7653511,1.094973,0.5588686,0.38525954,1.0653944,0.705422,0.23562396,0.60515594,0.9476759,0.35531607,0.50395525,0.32504424,0.50462776,0.032699306,-0.106010415,-0.21524483,-0.15794401,825.2015,817.9487,825.2015,818.3516,814.3223,-0.14141845703125,-0.0263671875,1.003662109375,6.35528564453125,-3.33465576171875,2.811279296875,1,1.0,1.0,1.0,1.0,100.00
2021-04-18 15:07:30.090,0.7307116,0.7515681,0.42051402,0.78161967,1.03545,0.5588686,0.46807998,1.0769916,0.8548209,0.23562396,0.61003494,0.8973561,0.3979125,0.50395525,0.3005228,0.4743339,-0.06770406,-0.106010415,-0.25974047,-0.22945338,855.42126,817.1429,813.5165,815.5311,742.6007,-0.1400146484375,-0.02081298828125,0.99505615234375,6.078643798828125,-2.190704345703125,0.261688232421875,1,1.0,1.0,1.0,1.0,100.00
2021-04-18 15:07:30.617,0.60433286,0.4900572,0.2971772,0.7212506,0.9970098,0.4971227,0.51467127,1.0763843,0.8645769,0.28454477,0.59554636,0.91093636,0.38965395,0.49008086,0.3064299,0.43195313,-0.08182462,-0.032856498,-0.24801216,-0.1336423,818.7546,798.60803,808.2784,793.7729,715.6044,-0.125732421875,-0.04931640625,0.99285888671875,4.687957763671875,-2.549591064453125,-1.607513427734375,1,1.0,1.0,1.0,1.0,100.00
2021-04-18 15:07:31.142,0.3768266,0.51330656,-0.13819979,-4.188086E-4,0.94486314,0.4676497,0.38139743,0.93203384,0.9083904,0.66456735,0.3536763,0.7488342,0.4112172,0.57054627,0.30125505,0.40164483,-0.035960976,-0.011047078,-0.21137947,-0.062421236,730.9158,814.3223,801.02563,758.71796,672.0879,-0.1162109375,-0.049072265625,0.99151611328125,4.85992431640625,-5.674896240234375,0.695343017578125,1,1.0,1.0,1.0,1.0,100.00
2021-04-18 15:07:31.212,0.4916818,0.61123851,-0.035477522,0.2488899257000,1.04269197,0.476658165,0.367824865,1.03602832,0.98969655,0.661093725,0.342722035,0.8186703,0.442894065,0.575661985,0.344774425,0.432156325,-0.011000287249,0.007130138,-0.230934145,-0.015571927999,758.31504999999,812.30765,802.838835,,,,,,,,,,,,,,,/muse/elements/blink
2021-04-18 15:07:31.668,0.606537,0.70917046,0.067244746,0.49819866,1.1405208,0.48566663,0.3542523,1.1400228,1.0710027,0.6576201,0.33176777,0.8885064,0.47457093,0.5807777,0.3882938,0.46266782,0.0139604015,0.025307354,-0.25048882,0.03127738,785.7143,810.293,804.65204,779.67035,665.64105,-0.10418701171875,-0.03399658203125,1.00042724609375,4.284210205078125,-3.626251220703125,5.345916748046875,1,1.0,1.0,1.0,1.0,100.00
2021-04-18 15:07:32.177,0.76381284,0.90829915,0.39537004,0.64768046,1.2107481,0.45248646,0.38269597,1.1696417,1.0682167,0.680158,0.44612694,0.8634485,0.5495857,0.6246144,0.40402782,0.50958234,0.07291757,0.027598696,-0.26330912,0.02289457,800.2198,815.9341,821.5751,789.34064,838.49817,-0.16070556640625,-0.0311279296875,0.98291015625,7.05810546875,-1.203765869140625,1.398162841796875,1,1.0,1.0,1.0,1.0,100.00
2021-04-18 15:07:32.659,0.861222805,0.981306625,0.43586886,0.7520869050000,1.3153899999999,0.466794655,0.39832845,1.23627645,1.03231133,0.654269475,0.4876386550000,0.85938373,0.5634748,0.599704,0.41610216,0.52941672,0.070041205,0.0282934764999,-0.26272126,0.0347696065,859.04765,826.007335,829.2308,,,,,,,,,,,,,,,/muse/elements/blink
2021-04-18 15:07:32.687,0.95863277,1.0543141,0.47636768,0.85649335,1.4200319,0.48110285,0.41396093,1.3029112,0.99640596,0.62838095,0.52915037,0.85531896,0.5773639,0.5747936,0.4281765,0.5492511,0.06716484,0.028988257,-0.2621334,0.046644643,917.8755,836.08057,836.8865,882.01465,732.9304,-0.178955078125,0.00445556640625,0.98065185546875,6.98333740234375,-4.88983154296875,0.411224365234375,1,1.0,1.0,1.0,1.0,100.00
2021-04-18 15:07:33.199,0.95863277,1.2012769,0.533258,0.869088,1.4200319,0.6386485,0.43665925,1.3674917,0.99640596,0.43723962,0.5505467,0.8336448,0.5773639,0.6363921,0.410331,0.5635184,0.06716484,-0.039234567,-0.16432792,0.017910592,809.4872,838.0952,809.4872,789.34064,682.1612,-0.16162109375,0.045166015625,0.99127197265625,7.110443115234375,-10.2581787109375,-6.512298583984375,1,1.0,1.0,1.0,1.0,100.00
2021-04-18 15:07:33.725,0.95863277,1.2012769,0.6102072,0.869088,1.4200319,0.6386485,0.34557247,1.3674917,0.99640596,0.43723962,0.53887266,0.8336448,0.5773639,0.6363921,0.38095728,0.5635184,0.06716484,-0.039234567,-0.10846897,0.017910592,732.9304,834.4689,772.8205,732.1245,705.12823,-0.1241455078125,0.05535888671875,0.994140625,2.1832275390625,-6.587066650390625,-6.168365478515625,1,1.0,1.0,1.0,1.0,100.00
2021-04-18 15:07:34.251,0.95863277,0.959457,0.87379247,0.869088,1.4200319,0.61145395,0.29549974,1.3674917,0.99640596,0.6776604,0.50266963,0.8336448,0.5773639,0.36205128,0.3409248,0.5635184,0.06716484,0.07417633,-0.07954341,0.017910592,780.4762,807.47253,820.7692,790.54944,734.5421,-0.0933837890625,0.0653076171875,0.99676513671875,4.88983154296875,-1.981353759765625,-0.246734619140625,1,1.0,1.0,1.0,1.0,100.00
2021-04-18 15:07:34.778,0.87156075,0.8843248,0.97917783,0.94163865,0.73351294,0.52715564,0.418711,0.50035673,1.0087074,0.68917805,0.41058654,0.6823021,0.49367195,0.3812644,0.23291539,0.5164296,-0.023317693,0.089964494,-0.13871309,-0.14791663,743.4066,796.5934,803.44324,765.9707,743.4066,-0.10797119140625,0.0062255859375,0.99493408203125,0.964508056640625,-9.67498779296875,-4.149627685546875,1,1.0,1.0,1.0,1.0,100.00
2021-04-18 15:07:35.290,0.72108495,0.7819154,0.9368231,0.796099,0.66335225,0.4733705,0.40296403,0.4597058,1.0087074,0.7046188,0.38442189,0.6823021,0.50723714,0.42620304,0.29607064,0.47598112,-0.08072111,0.025221743,-0.16937792,-0.16498539,840.9158,809.4872,815.12823,813.91943,696.26373,-0.06427001953125,0.00933837890625,0.98992919921875,6.871185302734375,-3.33465576171875,-8.486175537109375,1,1.0,1.0,1.0,1.0,100.00
2021-04-18 15:07:35.815,0.5815911,0.5676263,0.72179586,0.39646673,0.62558,0.30360848,0.34808227,0.34649003,1.0033001,0.57502824,0.31869006,0.57755685,0.48256317,0.46547228,0.30405295,0.5061861,-0.08801594,-0.013056561,-0.19158696,-0.11408683,764.7619,795.38464,807.47253,756.30035,680.9524,-0.01080322265625,0.01568603515625,1.021484375,9.01702880859375,-16.082611083984375,-12.09747314453125,1,1.0,1.0,1.0,1.0,100.00
2021-04-18 15:07:36.338,0.82915276,0.51475364,0.5055703,0.13089575,0.56922287,0.27552146,0.19673409,0.24709229,0.52928156,0.34456578,0.16696337,0.12650524,0.41759914,0.4510044,0.34170645,0.5117808,-0.09009207,0.010691508,-0.1335343,0.05798842,804.2491,804.65204,810.293,799.011,738.1685,0.00164794921875,0.01995849609375,1.02587890625,1.383209228515625,-4.508514404296875,-14.2657470703125,1,1.0,1.0,1.0,1.0,100.00
2021-04-18 15:07:36.866,1.0875194,0.596804,0.73783815,0.49915987,0.5754522,0.3303683,0.2600594,0.16979954,0.56354666,0.26698458,0.25666082,0.06669344,0.37137446,0.39414638,0.24190485,0.56428266,-0.044438392,0.105597205,-0.049566425,0.17478591,744.61536,815.9341,810.293,747.4359,628.1685,-0.0184326171875,0.03936767578125,1.0008544921875,6.62445068359375,-3.028106689453125,4.015045166015625,1,1.0,1.0,1.0,1.0,100.00
2021-04-18 15:07:37.370,1.108395,0.6673255,0.81502783,0.6421834,0.53241044,0.3460977,0.22691932,0.1304243,0.5870087,0.2320666,0.27560714,0.15124778,0.39966726,0.34909636,0.34131333,0.4931268,0.029649153,0.1575147,-0.06947013,0.16914815,774.43225,803.0403,812.71063,778.0586,792.5641,-0.0523681640625,0.052001953125,0.99700927734375,7.588958740234375,-3.357086181640625,2.923431396484375,1,1.0,1.0,1.0,1.0,100.00
2021-04-18 15:07:37.880,1.0407584,0.5441187,0.75178576,0.66012526,0.6070809,0.1501249,0.09569454,0.1409039,0.73298275,0.16377988,0.27560714,0.19832683,0.42597386,0.43464267,0.40626216,0.521731,0.026885966,0.15185536,-0.021201652,0.022386355,796.99634,795.78754,815.5311,795.78754,752.674,-0.00927734375,0.0924072265625,1.00872802734375,3.850555419921875,-8.61328125,-4.269256591796875,1,1.0,1.0,1.0,1.0,100.00
2021-04-18 15:07:38.392,0.90320146,0.49953273,0.4817116,0.7415659,0.5611072,0.08647818,0.040581867,0.14633225,0.80927795,0.116050914,0.08057577,0.6173718,0.39668196,0.4638144,0.4725684,0.52903926,0.28839839,0.044687297,-0.019912232,0.14693336,822.381,782.0879,813.91943,795.78754,733.3333,0.01690673828125,0.10125732421875,1.00146484375,1.757049560546875,-5.495452880859375,1.308441162109375,1,1.0,1.0,1.0,1.0,100.00
2021-04-18 15:07:38.923,0.83224773,0.40848044,0.15170926,0.814178,0.5277126,0.28407475,0.086486526,0.19811955,0.7890484,0.13921298,0.008129019,0.6609723,0.4271708,0.48149717,0.41983128,0.5411907,0.28363657,0.12148757,0.042831764,0.12417873,784.5055,801.02563,801.02563,772.4176,728.9011,-0.00543212890625,0.07501220703125,1.002685546875,1.368255615234375,-3.93280029296875,2.504730224609375,1,1.0,1.0,1.0,1.0,100.00
2021-04-18 15:07:39.447,0.75024635,0.58722985,0.39984664,0.89059854,0.50907624,0.37150666,0.3716085,0.43400136,0.6894697,0.21609007,0.23955494,0.6697765,0.41951266,0.44789538,0.40853444,0.5325323,0.32426223,0.0938558,-0.05607535,0.14568701,732.52747,809.4872,803.0403,747.4359,645.4945,-0.079345703125,0.06866455078125,0.99847412109375,3.312225341796875,1.31591796875,1.3458251953125,1,1.0,1.0,1.0,1.0,100.00
2021-04-18 15:07:39.958,1.0306695,0.60185474,0.44448987,1.2141004,0.8107742,0.37422886,0.43007228,0.809928,0.87922144,0.28322464,0.26222765,0.8397715,0.5200981,0.47036466,0.36110416,0.5972351,0.17639978,0.09036322,-0.17550349,-0.09051351,755.4945,788.1319,830.4396,762.74725,616.4835,-0.02142333984375,-0.03997802734375,1.01263427734375,-15.454559326171875,-16.5386962890625,27.282867431640625,1,1.0,1.0,1.0,1.0,100.00
2021-04-18 15:07:40.489,1.1545306,0.7330284,0.5422607,1.3663576,0.927538,0.27918914,0.4663572,0.97481817,0.87922144,0.2749863,0.2618485,0.82910156,0.5183087,0.4259084,0.33723527,0.6164294,0.22286038,0.036464278,-0.22118911,-0.11710261,809.89014,813.5165,832.0513,793.7729,786.52014,-0.02801513671875,-0.22149658203125,0.944091796875,-8.800201416015625,-3.33465576171875,34.580230712890625,1,1.0,1.0,1.0,1.0,100.00
2021-04-18 15:07:41.011,1.3964597,0.5888484,0.59143114,1.4288741,1.2032748,0.22751282,0.2138042,1.0748806,1.0369011,0.22127064,0.29533765,0.84660405,0.59610623,0.44608435,0.29764295,0.77506864,0.31672636,0.0152057875,-0.14820722,0.34414774,813.1135,1026.2638,803.0403,796.1905,855.0183,-0.09429931640625,-0.33544921875,0.96722412109375,1.383209228515625,-9.1815185546875,1.622467041015625,1,1.0,1.0,1.0,1.0,100.00
2021-04-18 15:07:41.514,1.417333,0.7204814,0.8216912,1.3157388,1.2444043,0.2188056,0.114712216,1.0459214,1.0003854,0.088681035,0.23630407,0.6526924,0.5800365,0.3640817,0.40695226,0.80934525,0.37688032,0.05968512,0.05704665,0.49172673,873.95605,873.5531,808.2784,794.57874,932.381,-0.0584716796875,-0.3167724609375,0.9520263671875,2.818756103515625,-5.585174560546875,2.235565185546875,1,1.0,1.0,1.0,1.0,100.00
2021-04-18 15:07:42.015,1.3605558,0.7204814,0.87084067,1.3755739,1.167194,0.2188056,0.11943685,1.097733,0.99574053,0.088681035,0.23630407,0.63903236,0.5624361,0.3640817,0.47082716,0.84181243,0.38346243,0.05968512,0.08330603,0.54108936,797.3993,845.7509,804.2491,767.5824,714.3956,-0.02423095703125,-0.30572509765625,0.96221923828125,8.32916259765625,-7.873077392578125,1.562652587890625,1,1.0,1.0,1.0,1.0,100.00
2021-04-18 15:07:42.518,1.1463183,0.7204814,1.2757676,1.4503256,0.74577254,0.2188056,0.5536159,1.1453753,0.9180093,0.088681035,0.46682933,0.6082943,0.4151051,0.3640817,0.3702442,0.8662488,0.41379255,0.05968512,-0.04905239,0.6000583,780.87915,971.4652,794.17584,770.80585,697.8755,-0.0343017578125,-0.219970703125,0.952880859375,9.876861572265625,-4.702911376953125,3.828125,1,1.0,1.0,1.0,1.0,100.00
2021-04-18 15:07:43.034,1.0637157,0.7204814,1.2376376,1.4325109,0.54718727,0.2188056,0.67079556,0.75903565,0.9318185,0.088681035,0.6508307,0.81584406,0.46135023,0.3640817,0.25034615,0.9199106,0.3336903,0.05968512,-0.13386856,0.39081132,864.68866,811.9048,801.4286,795.38464,855.42126,0.021484375,-0.2156982421875,0.98004150390625,3.768310546875,-8.5235595703125,0.79254150390625,1,1.0,1.0,1.0,1.0,100.00
2021-04-18 15:07:43.538,1.1055199,0.7204814,1.1066482,1.4189644,0.57498604,0.2188056,0.60132897,0.81012726,0.888563,0.088681035,0.69110906,0.88151854,0.4366113,0.3640817,0.2317152,0.87645996,0.35927153,0.05968512,-0.04105636,0.42408848,707.9487,791.3553,797.8022,759.92676,823.1868,-0.01568603515625,-0.259765625,0.947998046875,-2.310333251953125,-5.2935791015625,7.25250244140625,1,1.0,1.0,1.0,1.0,100.00
2021-04-18 15:07:44.050,0.9430261,0.7204814,0.7115515,1.2291313,0.5567596,0.2188056,0.39291564,0.6793813,0.81409645,0.088681035,0.656438,0.89429784,0.511689,0.3640817,0.23833378,0.822322,0.18449204,0.05968512,-0.052952506,0.44029203,733.73627,890.4762,790.9524,788.93774,739.7802,0.02288818359375,-0.3411865234375,0.97625732421875,3.790740966796875,-8.3740234375,0.179443359375,1,1.0,1.0,1.0,1.0,100.00
2021-04-18 15:07:44.560,1.0106387,0.7204814,0.29907942,0.9590227,0.7762611,0.2188056,0.09211745,0.6342544,0.9371427,0.088681035,0.5029518,1.045305,0.44573697,0.3640817,0.28469834,0.73554635,0.124593325,0.05968512,-0.089286454,0.5924909,720.0366,785.31134,807.8755,783.2967,720.0366,0.07635498046875,-0.32470703125,0.96502685546875,8.994598388671875,-6.901092529296875,1.495361328125,1,1.0,1.0,1.0,1.0,100.00
2021-04-18 15:07:45.071,0.98157185,0.7204814,0.06692834,0.7040436,0.802136,0.2188056,-0.17493248,0.75697875,0.9680682,0.088681035,0.37690708,0.96231675,0.4143734,0.3640817,0.32913628,0.7815601,0.12283719,0.05968512,-0.14168274,0.62884635,760.32965,793.36993,817.9487,744.21246,768.3883,0.13330078125,-0.294921875,0.91485595703125,4.97955322265625,-5.36834716796875,5.390777587890625,1,1.0,1.0,1.0,1.0,100.00
2021-04-18 15:07:45.220,1.021896975,0.7204814,0.065661255,0.75057502,0.8345038,0.2188056,-0.17989526,0.8151894749999,0.9659494500000,0.088681035,0.369815855,0.96231675,0.398073675,0.3640817,0.3513215899999,0.7935298,0.114731202,0.05968512,-0.091459071,0.656778605,767.179475,792.362615,807.674,,,,,,,,,,,,,,,/muse/elements/blink
2021-04-18 15:07:45.579,1.0622221,0.7204814,0.06439417,0.79710644,0.8668716,0.2188056,-0.18485804,0.8734002,0.9638307,0.088681035,0.36272463,0.96231675,0.38177395,0.3640817,0.3735069,0.8054995,0.106625214,0.05968512,-0.041235402,0.68471086,774.0293,791.3553,797.3993,826.0073,779.2674,0.093505859375,-0.30169677734375,0.9588623046875,2.908477783203125,-13.9666748046875,0.770111083984375,1,1.0,1.0,1.0,1.0,100.00
2021-04-18 15:07:46.095,0.9237807,0.7204814,0.0100654,0.6644315,0.84514844,0.2188056,-0.09037052,0.9285447,0.9127404,0.088681035,0.32631087,0.7075123,0.3514899,0.3640817,0.388767,0.8205537,0.11965815,0.05968512,-0.030372063,0.61933327,737.76556,795.38464,799.41394,798.60803,722.8571,0.13726806640625,-0.2403564453125,0.9732666015625,25.5108642578125,-2.40753173828125,-12.299346923828125,1,1.0,1.0,1.0,1.0,100.00
2021-04-18 15:07:46.621,0.7614935,0.7204814,0.034515306,0.53001136,0.74138516,0.2188056,0.0025804131,0.90843296,0.7893982,0.088681035,0.3352866,0.6072995,0.30844298,0.3640817,0.33137098,0.82740426,0.09782239,0.05968512,-0.06915926,0.5841514,795.38464,788.1319,823.9927,796.1905,660.40295,0.08935546875,0.03240966796875,1.0084228515625,21.465911865234375,-4.68048095703125,-23.79119873046875,1,1.0,1.0,1.0,1.0,100.00
2021-04-18 15:07:47.127,1.4830629,0.7204814,0.23857553,1.4284084,1.0722735,0.2188056,0.24937513,1.1305977,0.94161385,0.088681035,0.4395683,1.1495907,0.7187858,0.3640817,0.28684613,0.6809984,0.50811267,0.05968512,-0.2206852,0.36236078,773.22345,776.4469,796.99634,790.54944,880.0,0.08917236328125,0.19305419921875,0.99603271484375,6.68426513671875,-9.069366455078125,-11.162872314453125,1,1.0,1.0,1.0,1.0,100.00
2021-04-18 15:07:47.644,1.3412702,0.7204814,0.38221502,1.2354767,0.9286757,0.2188056,0.24094653,0.9759487,1.0705246,0.088681035,0.40836465,1.1518829,0.8164478,0.3640817,0.26590508,0.6049569,0.56872535,0.05968512,-0.3350756,0.30269018,780.07324,769.19415,811.0989,785.7143,777.6557,0.12933349609375,0.1695556640625,1.0009765625,4.47113037109375,-6.557159423828125,6.20574951171875,1,1.0,1.0,1.0,1.0,100.00
2021-04-18 15:07:48.145,1.1930351,0.7204814,0.4472584,0.994878,0.7851781,0.2188056,0.23733014,0.78273153,1.0828105,0.088681035,0.43859893,1.1269135,0.90930206,0.3640817,0.285057,0.59341586,0.71057075,0.05968512,-0.34450737,0.24981546,796.1905,768.7912,822.7839,796.1905,728.49817,0.14080810546875,0.15411376953125,1.0123291015625,13.56292724609375,1.30096435546875,-0.657958984375,1,1.0,1.0,1.0,1.0,100.00
2021-04-18 15:07:48.649,0.80179197,0.58915496,0.4273386,0.46596938,0.48113558,0.53075653,0.18973163,0.49349254,0.9630627,0.5048451,0.37004745,0.816461,0.957936,0.44398344,0.26664737,0.5450509,0.8172189,0.07782788,-0.26086417,0.30818704,808.2784,756.7033,793.7729,790.14655,913.0403,-0.02392578125,0.2584228515625,0.9862060546875,8.650665283203125,-14.946136474609375,-8.471221923828125,1,1.0,1.0,1.0,1.0,100.00
2021-04-18 15:07:49.169,1.0085919,0.69342315,0.33498737,0.5960717,0.86585385,0.5007912,0.27854517,0.5681426,1.016153,0.5747081,0.46364754,0.5473092,0.9561848,0.4837252,0.26804066,0.58492595,0.91669494,0.11160903,-0.12228047,0.43363085,831.6484,782.0879,809.0842,833.2601,811.9048,0.10174560546875,0.23797607421875,0.96356201171875,0.859832763671875,1.51031494140625,-4.306640625,1,1.0,1.0,1.0,1.0,100.00
2021-04-18 15:07:49.618,1.23839655,0.659950025,0.4046655,0.8156793,1.049960425,0.50381155,0.274128215,0.70464865,1.04961015,0.593665715,0.4597788299999,0.6823844,0.9679059,0.49744835,0.300770345,0.583096175,0.91583527,0.094552727,-0.0950358,0.507509525,843.93775,775.641025,814.120865,,,,,,,,,,,,,,,/muse/elements/blink
2021-04-18 15:07:49.682,1.4682012,0.6264769,0.47434363,1.0352869,1.234067,0.5068319,0.26971126,0.8411547,1.0830673,0.61262333,0.45591012,0.8174596,0.979627,0.5111715,0.33350003,0.5812664,0.9149756,0.077496424,-0.06779113,0.5813882,856.2271,769.19415,819.15753,857.03296,776.8498,0.05853271484375,0.09161376953125,0.97711181640625,-2.43743896484375,-1.233673095703125,1.577606201171875,1,1.0,1.0,1.0,1.0,100.00
2021-04-18 15:07:50.205,1.6637205,0.7017109,0.73493123,1.2358588,1.4210083,0.5721629,0.29373497,1.0541264,1.0747,0.5327735,0.4547636,0.7855724,0.9914687,0.53001547,0.36656532,0.6241729,0.89729786,0.07365855,-0.0552078,0.6297285,763.95605,780.07324,807.8755,767.1795,698.2784,0.00408935546875,0.06463623046875,1.0057373046875,5.480499267578125,-3.3197021484375,9.1815185546875,1,1.0,1.0,1.0,1.0,100.00
2021-04-18 15:07:50.734,1.9112253,0.672993,0.8009883,1.2358588,1.6232926,0.6632467,0.30235398,1.0541264,1.0256233,0.40111697,0.27055636,0.7855724,1.0503541,0.5287403,0.24387394,0.6241729,0.75351435,0.016224151,-0.16541705,0.6297285,730.9158,782.49084,811.50183,746.2271,691.4286,0.00103759765625,0.08563232421875,1.00567626953125,3.9178466796875,-2.355194091796875,1.069183349609375,1,1.0,1.0,1.0,1.0,100.00
2021-04-18 15:07:51.261,0.7973787,0.47156677,0.76542795,0.8912875,0.7174414,0.736927,0.23056656,0.27573216,0.8471332,0.06892215,0.21614406,0.62049764,0.78928375,0.23195237,0.15729198,0.4136497,0.23845407,-0.030548545,-0.26946688,-0.009648961,801.02563,769.19415,815.12823,802.23444,758.71796,0.00799560546875,0.05987548828125,0.99884033203125,5.38330078125,-4.1571044921875,3.0804443359375,1,1.0,1.0,1.0,1.0,100.00
2021-04-18 15:07:51.792,0.7180874,0.43479478,0.48129818,0.7449124,0.7029119,0.54022086,0.026854867,0.25074664,0.89610076,0.24973631,0.25106096,0.66635484,0.7432024,0.15561838,0.11084087,0.3467225,0.19594882,0.025793936,-0.19850603,-0.0051167193,667.6557,761.53845,822.7839,706.337,728.9011,0.00244140625,0.0870361328125,1.0166015625,-1.30096435546875,-0.10467529296875,11.31988525390625,1,1.0,1.0,1.0,1.0,100.00
2021-04-18 15:07:51.925,0.7180874,0.42187859,0.52520989,0.7449124,0.7029119,0.51922667,0.0141035362,0.25074664,0.89610076,0.24952438,0.34412523,0.66635484,0.7432024,0.14545576,0.112534095,0.3467225,0.19594882,0.024460723,-0.194895715,-0.0051167193,704.72528,757.307675,834.06593,,,,,,,,,,,,,,,/muse/elements/blink
2021-04-18 15:07:52.297,0.7180874,0.4089624,0.5691216,0.7449124,0.7029119,0.49823248,0.0013522054,0.25074664,0.89610076,0.24931245,0.4371895,0.66635484,0.7432024,0.13529314,0.11422732,0.3467225,0.19594882,0.02312751,-0.1912854,-0.0051167193,741.79486,753.0769,845.34796,796.99634,765.16486,-0.132568359375,-0.01116943359375,0.98004150390625,-1.1663818359375,11.521759033203125,30.677337646484375,1,1.0,1.0,1.0,1.0,100.00
2021-04-18 15:07:52.825,0.5929284,0.3861176,0.46050635,0.44301644,0.6840385,0.03506814,0.12599184,0.21734686,0.6277705,0.054232813,0.41961214,0.41846585,0.67773867,0.04177613,0.054576047,0.245301,0.13620278,0.08498025,-0.13965885,4.82869E-4,788.93774,732.52747,794.57874,792.5641,909.41394,-0.194091796875,-0.02728271484375,1.00421142578125,-1.2860107421875,-8.32916259765625,42.191619873046875,1,1.0,1.0,1.0,1.0,100.00
2021-04-18 15:07:53.330,0.5929284,0.36729854,0.6133786,0.44301644,0.6840385,-0.032216348,0.3201768,0.21734686,0.6277705,0.01961127,0.3636047,0.41846585,0.67773867,0.06989393,0.026666459,0.245301,0.13620278,0.10517676,-0.24195345,4.82869E-4,782.49084,840.10986,811.0989,776.8498,751.4652,-0.18438720703125,-0.00140380859375,0.99383544921875,8.314208984375,-6.29547119140625,12.54608154296875,1,1.0,1.0,1.0,1.0,100.00
2021-04-18 15:07:53.845,0.5929284,0.36729854,0.3273207,0.44301644,0.6840385,-0.032216348,0.09874262,0.21734686,0.6277705,0.01961127,0.194205,0.41846585,0.67773867,0.06989393,0.22439499,0.245301,0.13620278,0.10517676,-0.1821301,4.82869E-4,798.20514,823.1868,818.3516,834.4689,784.90845,-0.1466064453125,0.08056640625,0.99224853515625,8.8525390625,-4.538421630859375,2.654266357421875,1,1.0,1.0,1.0,1.0,100.00
2021-04-18 15:07:54.372,1.343654,0.36729854,0.08079894,0.3544535,0.93770766,-0.032216348,-0.10736053,0.24060307,0.9415124,0.01961127,0.22626318,0.26191917,0.601968,0.06989393,0.19288583,0.5113293,-0.15507433,0.10517676,-0.27756867,-0.22994326,858.6447,773.22345,803.8461,847.3626,1085.0916,-0.18359375,0.0728759765625,0.9891357421875,4.29168701171875,-0.64300537109375,6.616973876953125,1,1.0,1.0,1.0,1.0,100.00
2021-04-18 15:07:54.885,1.3669379,0.36729854,0.0045234654,0.57356644,0.89243275,-0.032216348,-0.20214902,0.38619766,0.9692612,0.01961127,0.23099029,0.5951678,0.56826794,0.06989393,0.21438996,0.44495118,-0.11791881,0.10517676,-0.25090387,-0.12189416,811.9048,853.4066,820.7692,806.26373,737.76556,-0.16204833984375,0.109375,0.99676513671875,4.964599609375,-4.6954345703125,4.254302978515625,1,1.0,1.0,1.0,1.0,100.00
2021-04-18 15:07:55.406,1.4249606,0.36729854,-0.05207056,0.745096,0.86785537,-0.032216348,-0.10224246,0.40573457,0.93237275,0.01961127,-0.0030810735,0.63830805,0.4960035,0.06989393,0.22692457,0.3837413,-0.13951814,0.10517676,-0.1865189,-0.022642257,875.56775,943.663,815.9341,816.337,844.5421,-0.20147705078125,0.10260009765625,0.99432373046875,3.611297607421875,-3.207550048828125,-0.94207763671875,1,1.0,1.0,1.0,1.0,100.00
2021-04-18 15:07:55.909,1.4614573,0.36729854,0.34833658,0.79907346,0.74549335,-0.032216348,0.023765326,0.36443153,0.87179613,0.01961127,0.049142484,0.739084,0.43495682,0.06989393,0.24804856,0.451709,-0.054624222,0.10517676,-0.18505271,0.06703581,762.3443,842.9304,807.0696,760.32965,743.00366,-0.1298828125,-0.00933837890625,0.97406005859375,5.465545654296875,-2.160797119140625,5.9814453125,1,1.0,1.0,1.0,1.0,100.00
2021-04-18 15:07:56.421,1.4614573,0.36729854,0.39355412,0.73884624,0.74549335,-0.032216348,0.014684272,0.4084077,0.87179613,0.01961127,0.15422557,0.881635,0.43495682,0.06989393,0.26769283,0.6153096,-0.054624222,0.10517676,-0.21192838,0.11794523,742.1978,846.9597,792.96704,759.5238,709.5604,-0.14703369140625,0.057861328125,0.997314453125,10.48248291015625,-3.45428466796875,0.904693603515625,1,1.0,1.0,1.0,1.0,100.00
2021-04-18 15:07:56.928,0.5301232,0.36729854,0.3751101,0.45164442,0.33569896,-0.032216348,-0.22742884,0.30071598,0.6952156,0.01961127,0.1634573,0.8793721,0.14423208,0.06989393,0.28079808,0.6521894,-0.22543639,0.10517676,-0.31080773,0.102821544,829.6337,809.0842,809.4872,824.3956,884.43225,-0.16265869140625,0.03253173828125,1.002197265625,3.401947021484375,-7.559051513671875,-0.934600830078125,1,1.0,1.0,1.0,1.0,100.00
