TimeStamp,Delta_TP9,Delta_AF7,Delta_AF8,Delta_TP10,Theta_TP9,Theta_AF7,Theta_AF8,Theta_TP10,Alpha_TP9,Alpha_AF7,Alpha_AF8,Alpha_TP10,Beta_TP9,Beta_AF7,Beta_AF8,Beta_TP10,Gamma_TP9,Gamma_AF7,Gamma_AF8,Gamma_TP10,RAW_TP9,RAW_AF7,RAW_AF8,RAW_TP10,AUX_RIGHT,Accelerometer_X,Accelerometer_Y,Accelerometer_Z,Gyro_X,Gyro_Y,Gyro_Z,HeadBandOn,HSI_TP9,HSI_AF7,HSI_AF8,HSI_TP10,Battery,Elements
2021-04-02 17:49:39.190,1.4785446,1.3718386,1.4970903,1.5478395,0.63749194,1.231032,1.4210075,0.9089752,0.3150932,0.16723892,1.263119,0.7280324,0.6835555,0.39680055,0.47556248,0.7474246,0.5320684,-0.46864817,-0.2600889,0.41173342,843.3333,804.2491,819.9634,928.7546,797.8022,0.0355224609375,0.14678955078125,0.9884033203125,4.792633056640625,-3.955230712890625,0.67291259765625,1,2.0,1.0,1.0,2.0,60.00
2021-04-02 17:49:39.645,1.16530935,1.3718386,1.4970903,1.5478395,0.65486422,1.231032,1.4210075,0.9089752,0.4287208799999,0.16723892,1.263119,0.7280324,0.61076255,0.39680055,0.47556248,0.7474246,0.4009301,-0.46864817,-0.2600889,0.41173342,1024.24905,820.97070000000,833.05865,,,,,,,,,,,,,,,/muse/elements/blink
2021-04-02 17:49:39.704,0.8520741,1.3718386,1.4970903,1.5478395,0.6722365,1.231032,1.4210075,0.9089752,0.54234856,0.16723892,1.263119,0.7280324,0.5379696,0.39680055,0.47556248,0.7474246,0.2697918,-0.46864817,-0.2600889,0.41173342,1205.1648,837.6923,846.1539,908.20514,706.7399,0.041259765625,0.1466064453125,0.98907470703125,5.084228515625,-6.377716064453125,8.336639404296875,1,1.0,1.0,1.0,1.0,60.00
2021-04-02 17:49:40.215,0.9153376,1.517975,1.0124091,1.1326835,0.8050372,0.6985396,0.8798514,1.0508507,0.72288,0.53666663,0.86472523,0.9878163,0.51733744,0.1793843,0.0975178,0.7747173,0.31271824,-0.58191466,-0.53953606,0.21270956,878.7912,778.86444,790.9524,668.0586,698.68134,0.09619140625,0.12664794921875,0.999267578125,-1.74957275390625,-6.89361572265625,22.669677734375,1,1.0,1.0,1.0,1.0,60.00
2021-04-02 17:49:40.725,0.9258498,1.517975,1.0124091,1.1326835,0.83063906,0.6985396,0.8798514,1.0508507,0.7165812,0.53666663,0.86472523,0.9878163,0.5213593,0.1793843,0.0975178,0.7747173,0.32360002,-0.58191466,-0.53953606,0.21270956,547.1795,593.1135,568.93774,707.9487,950.9158,0.143310546875,0.0389404296875,0.99884033203125,1.62994384765625,-3.252410888671875,4.119720458984375,1,1.0,1.0,1.0,1.0,60.00
2021-04-02 17:49:41.126,0.9533215799999,1.5513873,1.06482805,1.1480492500000,0.87749016,0.64561085,0.93407525,1.0547583500000,0.7147128,0.525198865,0.86472523,0.9876399149999,0.50628515,0.19031286,0.114067435,0.78859365,0.34139438,-0.57926253,-0.53357968,0.2093879699999,299.17582999999,738.772875,739.377285,,,,,,,,,,,,,,,/muse/elements/blink
2021-04-02 17:49:41.233,0.98079336,1.5847996,1.117247,1.163415,0.92434126,0.5926821,0.9882991,1.058666,0.7128444,0.5137311,0.86472523,0.98746353,0.491211,0.20124142,0.13061707,0.80247,0.35918874,-0.5766104,-0.5276233,0.20606638,51.17216,884.43225,909.81683,945.2747,669.67035,0.13995361328125,-0.00225830078125,0.9954833984375,0.79254150390625,5.211334228515625,2.28790283203125,1,1.0,1.0,1.0,1.0,60.00
2021-04-02 17:49:41.746,0.92977566,1.5847996,1.117247,1.1849017,0.90878385,0.5926821,0.9882991,1.054121,0.68862504,0.5137311,0.86472523,0.980455,0.5084261,0.20124142,0.13061707,0.83746815,0.38871846,-0.5766104,-0.5276233,0.20859605,966.2271,871.13556,844.1392,844.1392,827.2161,-0.23388671875,0.1456298828125,0.97259521484375,10.6170654296875,7.050628662109375,-46.393585205078125,1,1.0,1.0,1.0,1.0,60.00
2021-04-02 17:49:42.257,0.92977566,1.5847996,1.117247,1.1849017,0.90878385,0.5926821,0.9882991,1.054121,0.68862504,0.5137311,0.86472523,0.980455,0.5084261,0.20124142,0.13061707,0.83746815,0.38871846,-0.5766104,-0.5276233,0.20859605,1030.6959,817.9487,854.21246,927.1429,1025.0549,-0.1414794921875,0.04290771484375,1.00775146484375,2.19818115234375,5.084228515625,-40.307464599609375,1,2.0,1.0,1.0,1.0,60.00
2021-04-02 17:49:42.590,0.92977566,1.5847996,1.117247,1.1849017,0.90878385,0.5926821,0.9882991,1.054121,0.68862504,0.5137311,0.86472523,0.980455,0.5084261,0.20124142,0.13061707,0.83746815,0.38871846,-0.5766104,-0.5276233,0.20859605,1091.53845,816.7399,858.64468,,,,,,,,,,,,,,,/muse/elements/blink
2021-04-02 17:49:42.768,0.92977566,1.5847996,1.117247,1.1849017,0.90878385,0.5926821,0.9882991,1.054121,0.68862504,0.5137311,0.86472523,0.980455,0.5084261,0.20124142,0.13061707,0.83746815,0.38871846,-0.5766104,-0.5276233,0.20859605,1152.381,815.5311,863.0769,921.9048,757.9121,-0.23394775390625,0.06817626953125,0.96612548828125,1.039276123046875,3.90289306640625,-6.497344970703125,1,1.0,1.0,1.0,1.0,60.00
2021-04-02 17:49:43.279,0.92977566,1.5847996,1.117247,1.1849017,0.90878385,0.5926821,0.9882991,1.054121,0.68862504,0.5137311,0.86472523,0.980455,0.5084261,0.20124142,0.13061707,0.83746815,0.38871846,-0.5766104,-0.5276233,0.20859605,560.4762,748.24176,783.69965,786.9231,791.3553,-0.27880859375,0.05279541015625,0.95489501953125,5.644989013671875,-6.048736572265625,-0.01495361328125,1,2.0,1.0,1.0,2.0,60.00
2021-04-02 17:49:43.787,0.92977566,1.5847996,1.117247,1.1849017,0.90878385,0.5926821,0.9882991,1.054121,0.68862504,0.5137311,0.86472523,0.980455,0.5084261,0.20124142,0.13061707,0.83746815,0.38871846,-0.5766104,-0.5276233,0.20859605,398.9011,712.381,735.7509,610.84247,613.2601,-0.26971435546875,0.053955078125,0.9620361328125,5.09918212890625,-6.4300537109375,4.38140869140625,1,2.0,1.0,1.0,2.0,60.00
2021-04-02 17:49:43.906,0.92977566,1.5847996,1.117247,1.1849017,0.90878385,0.5926821,0.9882991,1.054121,0.68862504,0.5137311,0.86472523,0.980455,0.5084261,0.20124142,0.13061707,0.83746815,0.38871846,-0.5766104,-0.5276233,0.20859605,645.29305,719.02935,734.139185,,,,,,,,,,,,,,,/muse/elements/blink
2021-04-02 17:49:44.298,0.92977566,1.5847996,1.117247,1.1849017,0.90878385,0.5926821,0.9882991,1.054121,0.68862504,0.5137311,0.86472523,0.980455,0.5084261,0.20124142,0.13061707,0.83746815,0.38871846,-0.5766104,-0.5276233,0.20859605,891.685,725.6777,732.52747,674.10254,694.65204,-0.2601318359375,0.06488037109375,0.9639892578125,5.121612548828125,-4.5458984375,4.0374755859375,1,2.0,1.0,1.0,2.0,60.00
2021-04-02 17:49:44.808,0.92977566,1.5847996,1.117247,1.1849017,0.90878385,0.5926821,0.9882991,1.054121,0.68862504,0.5137311,0.86472523,0.980455,0.5084261,0.20124142,0.13061707,0.83746815,0.38871846,-0.5766104,-0.5276233,0.20859605,1207.1794,839.304,849.7802,946.8865,798.60803,-0.24072265625,0.080322265625,0.96929931640625,5.38330078125,-5.8917236328125,1.188812255859375,1,2.0,1.0,1.0,2.0,60.00
2021-04-02 17:49:45.222,0.92977566,1.5847996,1.117247,1.1849017,0.90878385,0.5926821,0.9882991,1.054121,0.68862504,0.5137311,0.86472523,0.980455,0.5084261,0.20124142,0.13061707,0.83746815,0.38871846,-0.5766104,-0.5276233,0.20859605,942.65564999999,782.692285,794.57875,,,,,,,,,,,,,,,/muse/elements/blink
2021-04-02 17:49:45.321,0.92977566,1.5847996,1.117247,1.1849017,0.90878385,0.5926821,0.9882991,1.054121,0.68862504,0.5137311,0.86472523,0.980455,0.5084261,0.20124142,0.13061707,0.83746815,0.38871846,-0.5766104,-0.5276233,0.20859605,678.1319,726.08057,739.3773,803.0403,685.78754,-0.245849609375,0.0875244140625,0.9688720703125,5.585174560546875,-4.388885498046875,-0.7177734375,1,2.0,1.0,1.0,2.0,60.00
2021-04-02 17:49:45.830,0.92977566,1.5847996,1.117247,1.1849017,0.90878385,0.5926821,0.9882991,1.054121,0.68862504,0.5137311,0.86472523,0.980455,0.5084261,0.20124142,0.13061707,0.83746815,0.38871846,-0.5766104,-0.5276233,0.20859605,581.63005,779.267385,793.97435,,,,,,,,,,,,,,,/muse/elements/blink
2021-04-02 17:49:45.831,0.92977566,1.5847996,1.117247,1.1849017,0.90878385,0.5926821,0.9882991,1.054121,0.68862504,0.5137311,0.86472523,0.980455,0.5084261,0.20124142,0.13061707,0.83746815,0.38871846,-0.5766104,-0.5276233,0.20859605,485.1282,832.4542,848.5714,759.92676,709.15753,-0.2550048828125,0.1021728515625,0.96728515625,4.50103759765625,-5.540313720703125,1.323394775390625,1,2.0,1.0,1.0,2.0,60.00
2021-04-02 17:49:46.338,0.92977566,1.5847996,1.117247,1.1849017,0.90878385,0.5926821,0.9882991,1.054121,0.68862504,0.5137311,0.86472523,0.980455,0.5084261,0.20124142,0.13061707,0.83746815,0.38871846,-0.5766104,-0.5276233,0.20859605,1029.0842,686.5934,722.8571,834.87177,843.3333,-0.24761962890625,0.0794677734375,0.97039794921875,4.59075927734375,-5.869293212890625,1.8243408203125,1,2.0,1.0,1.0,2.0,60.00
2021-04-02 17:49:46.672,0.92977566,1.5847996,1.117247,1.1849017,0.90878385,0.5926821,0.9882991,1.054121,0.68862504,0.5137311,0.86472523,0.980455,0.5084261,0.20124142,0.13061707,0.83746815,0.38871846,-0.5766104,-0.5276233,0.20859605,1043.9926500000,674.5055,700.4945,,,,,,,,,,,,,,,/muse/elements/blink
2021-04-02 17:49:46.852,0.92977566,1.5847996,1.117247,1.1849017,0.90878385,0.5926821,0.9882991,1.054121,0.68862504,0.5137311,0.86472523,0.980455,0.5084261,0.20124142,0.13061707,0.83746815,0.38871846,-0.5766104,-0.5276233,0.20859605,1058.9011,662.4176,678.1319,756.7033,737.76556,-0.23297119140625,0.081298828125,0.966552734375,4.972076416015625,-4.613189697265625,1.79443359375,1,2.0,1.0,1.0,2.0,60.00
2021-04-02 17:49:47.358,0.92977566,1.5847996,1.117247,1.1849017,0.90878385,0.5926821,0.9882991,1.054121,0.68862504,0.5137311,0.86472523,0.980455,0.5084261,0.20124142,0.13061707,0.83746815,0.38871846,-0.5766104,-0.5276233,0.20859605,546.3736,863.47986,867.50916,765.16486,754.2857,-0.23602294921875,0.09405517578125,0.9688720703125,5.7122802734375,-4.127197265625,0.755157470703125,1,2.0,1.0,1.0,2.0,60.00
2021-04-02 17:49:47.870,0.92977566,1.5847996,1.117247,1.1849017,0.90878385,0.5926821,0.9882991,1.054121,0.68862504,0.5137311,0.86472523,0.980455,0.5084261,0.20124142,0.13061707,0.83746815,0.38871846,-0.5766104,-0.5276233,0.20859605,880.80585,741.79486,762.74725,703.1135,738.5714,-0.235595703125,0.097900390625,0.9766845703125,6.572113037109375,-4.044952392578125,1.099090576171875,1,2.0,1.0,1.0,2.0,60.00
2021-04-02 17:49:47.970,0.92977566,1.5847996,1.117247,1.1849017,0.90878385,0.5926821,0.9882991,1.054121,0.68862504,0.5137311,0.86472523,0.980455,0.5084261,0.20124142,0.13061707,0.83746815,0.38871846,-0.5766104,-0.5276233,0.20859605,1022.032975,776.44688,795.183125,,,,,,,,,,,,,,,/muse/elements/blink
2021-04-02 17:49:48.380,0.92977566,1.5847996,1.117247,1.1849017,0.90878385,0.5926821,0.9882991,1.054121,0.68862504,0.5137311,0.86472523,0.980455,0.5084261,0.20124142,0.13061707,0.83746815,0.38871846,-0.5766104,-0.5276233,0.20859605,1163.2601,811.0989,827.619,925.9341,799.011,-0.22149658203125,0.16412353515625,0.98138427734375,6.998291015625,-6.243133544921875,5.375823974609375,1,2.0,1.0,1.0,2.0,70.00
2021-04-02 17:49:48.906,0.92977566,1.5847996,1.117247,1.1849017,0.90878385,0.5926821,0.9882991,1.054121,0.68862504,0.5137311,0.86472523,0.980455,0.5084261,0.20124142,0.13061707,0.83746815,0.38871846,-0.5766104,-0.5276233,0.20859605,977.1062,806.6667,832.8571,992.4176,1045.6044,-0.019775390625,0.09881591796875,0.98687744140625,2.190704345703125,-53.990020751953125,-9.233856201171875,1,2.0,1.0,1.0,2.0,70.00
2021-04-02 17:49:49.287,0.92977566,1.5847996,1.117247,1.1849017,0.90878385,0.5926821,0.9882991,1.054121,0.68862504,0.5137311,0.86472523,0.980455,0.5084261,0.20124142,0.13061707,0.83746815,0.38871846,-0.5766104,-0.5276233,0.20859605,851.59338499999,808.8828,831.04395,,,,,,,,,,,,,,,/muse/elements/blink
2021-04-02 17:49:49.415,0.92977566,1.5847996,1.117247,1.1849017,0.90878385,0.5926821,0.9882991,1.054121,0.68862504,0.5137311,0.86472523,0.980455,0.5084261,0.20124142,0.13061707,0.83746815,0.38871846,-0.5766104,-0.5276233,0.20859605,726.08057,811.0989,829.2308,804.65204,817.9487,0.2357177734375,0.0439453125,0.9560546875,7.932891845703125,-8.433837890625,20.778045654296875,1,2.0,1.0,1.0,2.0,70.00
2021-04-02 17:49:49.713,0.92977566,1.5847996,1.117247,1.1849017,0.90878385,0.5926821,0.9882991,1.054121,0.68862504,0.5137311,0.86472523,0.980455,0.5084261,0.20124142,0.13061707,0.83746815,0.38871846,-0.5766104,-0.5276233,0.20859605,723.260085,797.19779999999,821.77655,,,,,,,,,,,,,,,/muse/elements/blink
2021-04-02 17:49:49.925,0.92977566,1.5847996,1.117247,1.1849017,0.90878385,0.5926821,0.9882991,1.054121,0.68862504,0.5137311,0.86472523,0.980455,0.5084261,0.20124142,0.13061707,0.83746815,0.38871846,-0.5766104,-0.5276233,0.20859605,720.4396,783.2967,814.3223,689.011,614.87177,0.08355712890625,0.13116455078125,0.9866943359375,16.516265869140625,9.906768798828125,1.547698974609375,1,2.0,1.0,1.0,2.0,70.00
2021-04-02 17:49:50.437,0.92977566,1.5847996,1.117247,1.1849017,0.90878385,0.5926821,0.9882991,1.054121,0.68862504,0.5137311,0.86472523,0.980455,0.5084261,0.20124142,0.13061707,0.83746815,0.38871846,-0.5766104,-0.5276233,0.20859605,1039.5604,782.0879,823.5897,956.9597,809.89014,0.1943359375,0.150390625,0.9888916015625,-7.319793701171875,-13.99658203125,62.55096435546875,1,2.0,1.0,1.0,2.0,70.00
2021-04-02 17:49:50.447,0.92977566,1.5847996,1.117247,1.1849017,0.90878385,0.5926821,0.9882991,1.054121,0.68862504,0.5137311,0.86472523,0.980455,0.5084261,0.20124142,0.13061707,0.83746815,0.38871846,-0.5766104,-0.5276233,0.20859605,1019.6153750000,788.93772,816.73992,,,,,,,,,,,,,,,/muse/elements/blink
2021-04-02 17:49:50.943,0.92977566,1.5847996,1.117247,1.1849017,0.90878385,0.5926821,0.9882991,1.054121,0.68862504,0.5137311,0.86472523,0.980455,0.5084261,0.20124142,0.13061707,0.83746815,0.38871846,-0.5766104,-0.5276233,0.20859605,999.67035,795.78754,809.89014,913.0403,693.0403,0.24365234375,-0.005859375,0.9688720703125,7.6263427734375,-7.5067138671875,7.155303955078125,1,2.0,1.0,1.0,2.0,70.00
2021-04-02 17:49:51.458,0.92977566,1.1283795,1.117247,1.1849017,0.90878385,1.065855,0.9882991,1.054121,0.68862504,1.2339225,0.86472523,0.980455,0.5084261,0.47948843,0.13061707,0.83746815,0.38871846,-0.08009138,-0.5276233,0.20859605,1163.663,815.12823,831.2454,837.28937,726.8865,0.2642822265625,0.0413818359375,0.95556640625,5.241241455078125,-7.29736328125,-6.34033203125,1,2.0,1.0,1.0,2.0,70.00
2021-04-02 17:49:51.820,0.92977566,1.18939745,1.117247,1.48066535,0.90878385,1.08190805,0.9882991,1.1867912500000,0.68862504,1.23412835,0.86472523,1.0141825,0.5084261,0.467146865,0.13061707,0.822581425,0.38871846,-0.108988174999,-0.5276233,0.2379588750000,825.402925,790.95239,847.5641,,,,,,,,,,,,,,,/muse/elements/blink
2021-04-02 17:49:51.965,0.92977566,1.2504154,1.117247,1.776429,0.90878385,1.0979611,0.9882991,1.3194615,0.68862504,1.2343342,0.86472523,1.04791,0.5084261,0.4548053,0.13061707,0.8076947,0.38871846,-0.13788497,-0.5276233,0.2673217,487.14285,766.77655,863.8828,779.67035,891.28204,0.31787109375,0.0548095703125,0.97869873046875,0.61309814453125,-8.007659912109375,12.5311279296875,1,2.0,1.0,1.0,2.0,70.00
2021-04-02 17:49:52.474,0.92977566,1.3566669,1.117247,1.7629541,0.90878385,1.1435162,0.9882991,1.2988224,0.68862504,1.3086909,0.86472523,1.1778756,0.5084261,0.56474763,0.13061707,0.8690569,0.38871846,-0.14840066,-0.5276233,0.31393895,1145.5311,829.2308,844.5421,956.9597,788.93774,0.322265625,0.0218505859375,0.95928955078125,4.194488525390625,-5.54779052734375,-1.218719482421875,1,1.0,1.0,1.0,1.0,70.00
2021-04-02 17:49:52.985,0.92977566,1.5444747,1.117247,1.7629541,0.90878385,1.1986966,0.9882991,1.2988224,0.68862504,1.0943098,0.86472523,1.1778756,0.5084261,0.64617383,0.13061707,0.8690569,0.38871846,-0.281696,-0.5276233,0.31393895,1139.4872,824.3956,846.55676,834.4689,703.1135,0.32366943359375,0.0596923828125,0.95050048828125,1.8243408203125,-6.0113525390625,-0.112152099609375,1,1.0,1.0,1.0,1.0,70.00
2021-04-02 17:49:53.136,0.92977566,1.5444747,1.29463345,1.7806273,0.90878385,1.1986966,1.00637565,1.2913715,0.68862504,1.0943098,0.741159645,1.1778756,0.5084261,0.64617383,0.244494445,0.8906241,0.38871846,-0.281696,-0.33605757,0.3316732049999,884.835185,824.59705,840.71426500000,,,,,,,,,,,,,,,/muse/elements/blink
2021-04-02 17:49:53.497,0.92977566,1.5444747,1.4720199,1.7983005,0.90878385,1.1986966,1.0244522,1.2839206,0.68862504,1.0943098,0.61759406,1.1778756,0.5084261,0.64617383,0.35837182,0.9121913,0.38871846,-0.281696,-0.14449184,0.34940746,630.18317,824.7985,834.87177,707.5458,749.0476,0.33245849609375,0.01275634765625,0.95526123046875,7.185211181640625,-4.613189697265625,9.787139892578125,1,1.0,1.0,1.0,1.0,70.00
2021-04-02 17:49:54.006,0.92977566,1.5444747,1.2664187,1.7983005,0.90878385,1.1986966,1.1186986,1.2839206,0.68862504,1.0943098,0.6899764,1.1778756,0.5084261,0.64617383,0.463271,0.9121913,0.38871846,-0.281696,-0.2526462,0.34940746,1244.652,819.9634,821.978,936.8132,726.4835,0.32965087890625,-0.00946044921875,0.95025634765625,6.527252197265625,-1.173858642578125,12.045135498046875,1,1.0,1.0,1.0,1.0,70.00
2021-04-02 17:49:54.517,0.92977566,1.5444747,1.2095653,1.7983005,0.90878385,1.1986966,0.9877723,1.2839206,0.68862504,1.0943098,0.73506415,1.1778756,0.5084261,0.64617383,0.38654906,0.9121913,0.38871846,-0.281696,-0.31430438,0.34940746,904.57874,795.38464,801.4286,940.84247,919.89014,0.25030517578125,0.0255126953125,0.97845458984375,6.856231689453125,-1.084136962890625,11.147918701171875,1,1.0,1.0,1.0,1.0,70.00
2021-04-02 17:49:54.666,0.92977566,1.4505162500000,1.1628376999999,1.7983005,0.90878385,0.9105049999999,0.9522343,1.2839206,0.68862504,0.6505977000000,0.7502084250000,1.1778756,0.5084261,0.5051741999999,0.385033745,0.9121913,0.38871846,-0.20899865,-0.33216603,0.34940746,1112.28937,799.61537,812.71065,,,,,,,,,,,,,,,/muse/elements/blink
2021-04-02 17:49:55.025,0.92977566,1.3565578,1.1161101,1.7983005,0.90878385,0.6223134,0.9166963,1.2839206,0.68862504,0.2068856,0.7653527,1.1778756,0.5084261,0.36417457,0.38351843,0.9121913,0.38871846,-0.1363013,-0.35002768,0.34940746,1320.0,803.8461,823.9927,833.2601,730.5128,0.26654052734375,0.0533447265625,0.991943359375,2.67669677734375,-15.544281005859375,0.441131591796875,1,2.0,1.0,1.0,2.0,70.00
2021-04-02 17:49:55.534,0.92977566,1.2283224,1.1197315,1.7983005,0.90878385,0.77534676,0.7603122,1.2839206,0.68862504,1.0017256,1.0116537,1.1778756,0.5084261,0.32556757,0.20590843,0.9121913,0.38871846,-0.15216854,-0.26147237,0.34940746,442.01465,801.4286,807.47253,838.9011,734.5421,0.23089599609375,0.037353515625,0.97454833984375,3.050537109375,-0.0,-2.75146484375,1,2.0,1.0,1.0,2.0,70.00
2021-04-02 17:49:55.893,0.92977566,1.1711304999999,1.04813022,1.7983005,0.90878385,0.76499823,0.7297280500000,1.2839206,0.68862504,1.0041684000000,1.0100992,1.1778756,0.5084261,0.329218185,0.19825764,0.9121913,0.38871846,-0.138031379999,-0.26270385,0.34940746,667.252745,802.43591999999,807.069615,,,,,,,,,,,,,,,/muse/elements/blink
2021-04-02 17:49:56.039,0.92977566,1.1139386,0.97652894,1.7983005,0.90878385,0.7546497,0.6991439,1.2839206,0.68862504,1.0066112,1.0085447,1.1778756,0.5084261,0.3328688,0.19060685,0.9121913,0.38871846,-0.12389422,-0.26393533,0.34940746,892.49084,803.44324,806.6667,913.44324,778.0586,0.181884765625,-0.01141357421875,0.9947509765625,2.100982666015625,-1.256103515625,4.373931884765625,1,2.0,1.0,1.0,2.0,70.00
2021-04-02 17:49:56.555,0.92977566,0.8784134,0.7729914,1.7983005,0.90878385,0.6299621,0.6390757,1.2839206,0.68862504,1.0063295,1.0136828,1.1778756,0.5084261,0.3071719,0.21900403,0.9121913,0.38871846,-0.21091208,-0.3642206,0.34940746,1205.1648,812.3077,824.3956,815.5311,692.6374,0.2205810546875,0.032958984375,0.98028564453125,4.47113037109375,-7.499237060546875,-2.392578125,1,2.0,1.0,1.0,2.0,70.00
2021-04-02 17:49:57.059,0.92977566,0.8291378,0.78685534,1.7983005,0.90878385,0.32504222,0.50935405,1.2839206,0.68862504,0.7192288,0.68826354,1.1778756,0.5084261,0.27748245,0.28897482,0.9121913,0.38871846,-0.30169177,-0.48165837,0.34940746,762.74725,826.8132,833.2601,716.8132,670.07324,0.26470947265625,0.1251220703125,0.9814453125,18.041534423828125,-6.05621337890625,-36.89056396484375,1,2.0,1.0,1.0,2.0,70.00
2021-04-02 17:49:57.210,0.92977566,0.85001373,0.94113282,1.668366,0.90878385,0.25651543,0.580822705,1.14609345,0.68862504,0.60436651,0.70194672,1.1211228,0.5084261,0.248181095,0.31416461,0.86946105,0.38871846,-0.40504825,-0.49565311,0.31759636,587.875455,808.68132,812.9121,,,,,,,,,,,,,,,/muse/elements/blink
2021-04-02 17:49:57.561,0.92977566,0.87088966,1.0954103,1.5384315,0.90878385,0.18798864,0.65229136,1.0082663,0.68862504,0.48950422,0.7156299,1.06437,0.5084261,0.21887974,0.3393544,0.8267308,0.38871846,-0.50840473,-0.50964785,0.28578526,413.00366,790.54944,792.5641,748.6447,826.4103,0.2496337890625,0.1907958984375,0.97283935546875,5.899200439453125,-8.874969482421875,4.725341796875,1,2.0,1.0,1.0,2.0,70.00
2021-04-02 17:49:58.072,0.92977566,0.80275214,1.2415785,1.4698615,0.90878385,0.29771313,0.7576135,1.0110688,0.68862504,0.44217542,0.69954795,1.0941743,0.5084261,0.1579701,0.332911,0.79215646,0.38871846,-0.4954827,-0.46103626,0.20491421,813.1135,802.6374,809.4872,921.50183,766.77655,0.24908447265625,0.1300048828125,0.95782470703125,-2.37762451171875,-2.70660400390625,18.011627197265625,1,1.0,1.0,1.0,1.0,70.00
2021-04-02 17:49:58.540,0.92977566,0.7951850199999,1.43210695,1.4698615,0.90878385,0.316076295,1.0114820500000,1.0110688,0.68862504,0.437385975,0.756340325,1.0941743,0.5084261,0.155331985,0.3461398850000,0.79215646,0.38871846,-0.487168550000,-0.467013209999,0.20491421,1025.0549,802.23444999999,815.53115,,,,,,,,,,,,,,,/muse/elements/blink
2021-04-02 17:49:58.604,0.92977566,0.7876179,1.6226354,1.4698615,0.90878385,0.33443946,1.2653506,1.0110688,0.68862504,0.43259653,0.8131327,1.0941743,0.5084261,0.15269387,0.35936877,0.79215646,0.38871846,-0.4788544,-0.47299016,0.20491421,1236.9963,801.8315,821.5751,880.40295,799.41394,0.1961669921875,0.0850830078125,0.9757080078125,2.67669677734375,-3.39447021484375,0.49346923828125,1,1.0,1.0,1.0,1.0,70.00
2021-04-02 17:49:59.105,0.92977566,0.7876179,1.4932054,1.4535354,0.90878385,0.33443946,1.1105827,1.0361292,0.68862504,0.43259653,0.6970018,1.033613,0.5084261,0.15269387,0.45746037,0.78987,0.38871846,-0.4788544,-0.46340317,0.07166831,1005.31134,811.50183,816.7399,747.4359,720.0366,0.2249755859375,0.07666015625,0.9859619140625,4.32159423828125,-5.600128173828125,6.32537841796875,1,1.0,1.0,1.0,1.0,70.00
2021-04-02 17:49:59.617,0.92977566,1.5134966,1.4932054,1.4535354,0.90878385,0.6069374,1.1105827,1.0361292,0.68862504,0.5496663,0.6970018,1.033613,0.5084261,0.0087316325,0.45746037,0.78987,0.38871846,-0.413626,-0.46340317,0.07166831,811.50183,794.9817,807.0696,922.71063,745.0183,0.18243408203125,0.05133056640625,0.986328125,2.4822998046875,-1.951446533203125,4.044952392578125,1,1.0,1.0,1.0,1.0,70.00
2021-04-02 17:49:59.842,0.92977566,1.5134966,1.41049245,1.4535354,0.90878385,0.6069374,0.9639126299999,1.0361292,0.68862504,0.5496663,0.66371145,1.033613,0.5084261,0.0087316325,0.422047135,0.78987,0.38871846,-0.413626,-0.44072257,0.07166831,680.95239,798.20515,804.85349999999,,,,,,,,,,,,,,,/muse/elements/blink
2021-04-02 17:50:00.130,0.92977566,1.5134966,1.3277795,1.4535354,0.90878385,0.6069374,0.81724256,1.0361292,0.68862504,0.5496663,0.6304211,1.033613,0.5084261,0.0087316325,0.3866339,0.78987,0.38871846,-0.413626,-0.41804197,0.07166831,550.40295,801.4286,802.6374,873.95605,789.7436,0.18927001953125,0.0609130859375,0.98150634765625,6.23565673828125,-4.119720458984375,2.572021484375,1,1.0,1.0,1.0,1.0,70.00
2021-04-02 17:50:00.661,0.92977566,1.5134966,1.069229,1.4535354,0.90878385,0.6069374,0.71538717,1.0361292,0.68862504,0.5496663,0.4489523,1.033613,0.5084261,0.0087316325,0.23640576,0.78987,0.38871846,-0.413626,-0.40101075,0.07166831,913.44324,795.38464,807.0696,684.17584,712.7839,0.20068359375,0.06158447265625,0.97540283203125,5.749664306640625,-5.2935791015625,0.059814453125,1,2.0,1.0,1.0,2.0,70.00
2021-04-02 17:50:01.172,0.92977566,0.8987703,1.0701874,1.4535354,0.90878385,0.52129537,0.6528699,1.0361292,0.68862504,0.63972443,0.8452759,1.033613,0.5084261,0.31261998,0.28033072,0.78987,0.38871846,-0.2101762,-0.37369058,0.07166831,1157.2161,795.78754,820.3663,754.68866,587.0696,0.1883544921875,0.06396484375,0.9837646484375,4.508514404296875,-7.77587890625,2.093505859375,1,2.0,1.0,1.0,2.0,70.00
2021-04-02 17:50:01.307,1.06674458,0.9725365,1.0771708,1.2851566,1.015860925,0.50073767,0.54646982,0.91392858,0.89917007,0.662093695,0.8452759,0.96603865,0.60938325,0.26492945,0.2609224599999,0.6875913,0.49027273,-0.20909782,-0.38171947,0.0828608600000,915.05495000000,787.124545,800.42125,,,,,,,,,,,,,,,/muse/elements/blink
2021-04-02 17:50:01.698,1.2037135,1.0463027,1.0841542,1.1167778,1.122938,0.48017997,0.44006974,0.79172796,1.1097151,0.68446296,0.8452759,0.8984643,0.7103404,0.21723892,0.2415142,0.5853126,0.591827,-0.20801944,-0.38974836,0.09405341,672.8938,778.46155,780.4762,709.15753,711.5751,0.21221923828125,0.05535888671875,0.97650146484375,4.9346923828125,-6.033782958984375,0.4486083984375,1,1.0,1.0,1.0,1.0,70.00
2021-04-02 17:50:02.208,1.4781344,1.1714941,1.1861862,1.1167778,1.2873894,0.48680824,0.3735598,0.79172796,1.4541183,0.8916194,0.83121824,0.8984643,0.73155844,0.20362757,0.2271532,0.5853126,0.5904864,-0.19788624,-0.4178764,0.09405341,400.51282,826.4103,780.07324,772.8205,806.26373,0.21160888671875,0.0653076171875,0.97161865234375,4.209442138671875,-5.96649169921875,-1.921539306640625,1,1.0,1.0,1.0,1.0,70.00
2021-04-02 17:50:02.626,1.49173225,1.22863365,1.20914115,1.1104348,1.2908262499999,0.512096495,0.29994737,0.77663468,1.4541183,0.84930707,0.77517399,0.8424778150000,0.74077284,0.18740207,0.1713014075,0.5712405700000,0.603668775,-0.222104344999,-0.4483389,0.08824072,747.43590999999,805.659375,782.08789,,,,,,,,,,,,,,,/muse/elements/blink
2021-04-02 17:50:02.718,1.5053301,1.2857732,1.2320961,1.1040918,1.2942631,0.53738475,0.22633494,0.7615414,1.4541183,0.80699474,0.71912974,0.78649133,0.74998724,0.17117657,0.115449615,0.55716854,0.61685115,-0.24632245,-0.4788014,0.08242803,1094.359,784.90845,784.10254,722.0513,631.79486,0.1646728515625,0.09149169921875,0.9873046875,5.794525146484375,-1.577606201171875,-4.224395751953125,1,1.0,1.0,1.0,1.0,70.00
2021-04-02 17:50:03.236,1.6369556,1.3681351,1.0743343,1.0840818,1.3535796,0.5869752,0.8111024,0.7043405,1.4488189,0.7602571,0.57782614,0.6467783,0.6937282,0.1910313,0.1898987,0.5435365,0.450921,-0.27498758,-0.40679643,0.090022944,1184.2124,799.41394,810.696,863.8828,1039.1575,0.2181396484375,0.06365966796875,0.982177734375,2.998199462890625,-5.091705322265625,-10.370330810546875,1,1.0,1.0,1.0,1.0,70.00
2021-04-02 17:50:03.756,1.4408983,1.392241,1.0743343,1.0840818,1.103895,0.6759631,0.8111024,0.7043405,0.92675436,0.5270713,0.57782614,0.6467783,0.61101073,0.21021017,0.1898987,0.5435365,0.32886505,-0.43720362,-0.40679643,0.090022944,872.3443,789.34064,809.89014,701.50183,656.3736,0.20697021484375,0.09521484375,0.9866943359375,7.110443115234375,-7.768402099609375,1.12152099609375,1,1.0,1.0,1.0,1.0,70.00
2021-04-02 17:50:03.924,1.50642955,1.392241,1.1599314500000,1.0840818,1.14324315,0.6759631,0.79250725,0.7043405,1.02724163,0.5270713,0.64032852,0.6467783,0.634031615,0.21021017,0.2208049750000,0.5435365,0.356399355,-0.43720362,-0.403315845,0.090022944,659.59706,792.16117000000,807.06962,,,,,,,,,,,,,,,/muse/elements/blink
2021-04-02 17:50:04.281,1.5719608,1.392241,1.2455286,1.0840818,1.1825913,0.6759631,0.7739121,0.7043405,1.1277289,0.5270713,0.7028309,0.6467783,0.6570525,0.21021017,0.25171125,0.5435365,0.38393366,-0.43720362,-0.39983526,0.090022944,446.84982,794.9817,804.2491,735.34796,851.79486,0.185302734375,0.12237548828125,0.96240234375,2.64678955078125,-2.88604736328125,-11.925506591796875,1,1.0,1.0,1.0,1.0,70.00
2021-04-02 17:50:04.808,1.7008213,1.2176644,1.3157305,1.0840818,1.3843185,0.604592,0.7950491,0.7043405,1.1179624,0.5205959,0.7073999,0.6467783,0.755934,0.38930696,0.28394884,0.5435365,0.4565513,-0.3818482,-0.34230477,0.090022944,726.8865,767.1795,790.14655,872.74725,834.0659,0.176513671875,0.17877197265625,0.978759765625,7.61138916015625,-2.82623291015625,5.884246826171875,1,1.0,1.0,1.0,1.0,70.00
2021-04-02 17:50:05.249,1.7161214,1.2176644,1.3157305,1.0840818,1.41448785,0.604592,0.7950491,0.7043405,1.0944859999999,0.5205959,0.7073999,0.6467783,0.7738487000000,0.38930696,0.28394884,0.5435365,0.46821814,-0.3818482,-0.34230477,0.090022944,634.01103,780.67767,796.99632500000,,,,,,,,,,,,,,,/muse/elements/blink
2021-04-02 17:50:05.320,1.7314215,1.2176644,1.3157305,1.0840818,1.4446572,0.604592,0.7950491,0.7043405,1.0710096,0.5205959,0.7073999,0.6467783,0.7917634,0.38930696,0.28394884,0.5435365,0.47988498,-0.3818482,-0.34230477,0.090022944,541.13556,794.17584,803.8461,804.65204,743.4066,0.15716552734375,0.12255859375,0.9761962890625,2.594451904296875,-3.372039794921875,3.828125,1,1.0,1.0,1.0,1.0,70.00
2021-04-02 17:50:05.848,1.7759622,1.2351305,1.2719986,1.0840818,1.5405904,0.71101344,0.86140794,0.7043405,0.95352745,0.47537822,0.7073999,0.6467783,0.8549643,0.3747042,0.31090036,0.5435365,0.5170642,-0.37965438,-0.31237707,0.090022944,1017.3993,806.6667,803.8461,756.30035,836.8865,0.1729736328125,0.10888671875,0.97845458984375,2.213134765625,-2.639312744140625,15.574188232421875,1,1.0,1.0,1.0,1.0,70.00
2021-04-02 17:50:06.349,1.7759622,1.276608,1.2611196,1.0840818,1.5405904,0.7480606,0.8682242,0.7043405,0.95352745,0.44352067,0.6951593,0.6467783,0.8549643,0.3359325,0.2971692,0.5435365,0.5170642,-0.36842874,-0.30292863,0.090022944,552.01465,815.5311,812.71063,708.3516,755.4945,0.2396240234375,0.0562744140625,0.98419189453125,6.11602783203125,-9.503021240234375,6.676788330078125,1,1.0,1.0,1.0,1.0,70.00
2021-04-02 17:50:06.679,1.7759622,1.276608,1.33006455,1.0840818,1.5405904,0.7480606,0.9236713999999,0.7043405,0.95352745,0.44352067,0.4496703350000,0.6467783,0.8549643,0.3359325,0.238207195,0.5435365,0.5170642,-0.36842874,-0.398310695,0.090022944,501.44688499999,802.63735,800.622715,,,,,,,,,,,,,,,/muse/elements/blink
2021-04-02 17:50:06.851,1.7759622,1.276608,1.3990095,1.0840818,1.5405904,0.7480606,0.9791186,0.7043405,0.95352745,0.44352067,0.20418137,0.6467783,0.8549643,0.3359325,0.17924519,0.5435365,0.5170642,-0.36842874,-0.49369276,0.090022944,450.87912,789.7436,788.5348,813.5165,784.90845,0.26123046875,0.0716552734375,0.9755859375,6.9384765625,-5.525360107421875,-1.48040771484375,1,1.0,1.0,1.0,1.0,70.00
2021-04-02 17:50:07.382,1.7759622,0.8393273,1.3935518,1.0840818,1.5405904,0.7191089,0.89725685,0.7043405,0.95352745,0.3411461,0.86707026,0.6467783,0.8549643,0.27020904,0.39593756,0.5435365,0.5170642,-0.117927104,-0.47012427,0.090022944,968.24176,804.65204,819.15753,927.1429,802.6374,0.2454833984375,0.087646484375,0.96490478515625,3.207550048828125,-4.882354736328125,-3.222503662109375,1,2.0,1.0,1.0,2.0,70.00
2021-04-02 17:50:07.895,1.7759622,1.045375,1.3543882,1.2233648,1.5405904,0.69550866,0.7648013,1.0141635,0.95352745,0.35644323,0.88027024,0.9768442,0.8549643,0.227349,0.43613687,0.7965976,0.5170642,-0.13859743,-0.4542401,0.23486021,1198.7179,808.68134,834.4689,816.7399,625.34796,0.23516845703125,0.068603515625,0.97216796875,5.166473388671875,-0.949554443359375,-0.037384033203125,1,1.0,1.0,1.0,1.0,70.00
2021-04-02 17:50:07.920,1.7759622,1.06945695,1.3710089,1.2233648,1.5405904,0.6524733,0.7448501000000,1.0141635,0.95352745,0.333732615,0.88027024,0.9768442,0.8549643,0.21117475,0.47135721,0.7965976,0.5170642,-0.11774541,-0.429935135,0.23486021,990.80585000000,800.01832,811.50185,,,,,,,,,,,,,,,/muse/elements/blink
2021-04-02 17:50:08.411,1.7759622,1.0935389,1.3876296,1.2233648,1.5405904,0.60943794,0.7248989,1.0141635,0.95352745,0.311022,0.88027024,0.9768442,0.8549643,0.1950005,0.50657755,0.7965976,0.5170642,-0.09689339,-0.40563017,0.23486021,782.8938,791.3553,788.5348,716.8132,676.9231,0.251220703125,0.08929443359375,0.9786376953125,5.4730224609375,-6.243133544921875,2.130889892578125,1,1.0,1.0,1.0,1.0,70.00
2021-04-02 17:50:08.923,1.7759622,1.1889168,1.251296,1.2233648,1.5405904,0.5583613,0.4898334,1.0141635,0.95352745,0.0069636717,0.53548634,0.9768442,0.8549643,0.07818148,0.23476644,0.7965976,0.5170642,-0.27291992,-0.2927373,0.23486021,426.7033,851.39197,802.23444,739.7802,726.08057,0.24212646484375,0.0888671875,0.96728515625,2.758941650390625,-4.26177978515625,-12.7105712890625,1,1.0,1.0,1.0,1.0,65.00
2021-04-02 17:50:09.122,1.7759622,1.1785771,1.2227630999999,1.2233648,1.5405904,0.5260962299999,0.67746412,1.0141635,0.95352745,0.02194024885,0.4014874549999,0.9768442,0.8549643,0.062938925,0.1925912,0.7965976,0.5170642,-0.304006145,-0.334330464999,0.23486021,599.7619,822.783905,802.83883999999,,,,,,,,,,,,,,,/muse/elements/blink
2021-04-02 17:50:09.449,1.7759622,1.1682374,1.1942302,1.2233648,1.5405904,0.49383116,0.86509484,1.0141635,0.95352745,0.036916826,0.26748857,0.9768442,0.8549643,0.04769637,0.15041596,0.7965976,0.5170642,-0.33509237,-0.37592363,0.23486021,772.8205,794.17584,803.44324,903.7729,789.34064,0.23712158203125,0.08587646484375,0.97222900390625,5.061798095703125,-3.970184326171875,-1.07666015625,1,2.0,1.0,1.0,2.0,65.00
2021-04-02 17:50:09.976,1.7759622,1.1682374,1.2317374,1.2233648,1.5405904,0.49383116,0.8517553,1.0141635,0.95352745,0.036916826,0.415632,0.9768442,0.8549643,0.04769637,0.17697535,0.7965976,0.5170642,-0.33509237,-0.39161962,0.23486021,1162.8572,790.54944,805.8608,863.8828,813.5165,0.23626708984375,0.080322265625,0.9764404296875,3.611297607421875,-5.973968505859375,1.816864013671875,1,2.0,1.0,1.0,2.0,65.00
2021-04-02 17:50:10.508,1.7759622,1.3636689,1.2455585,1.2233648,1.5405904,0.768332,0.9822697,1.0141635,0.95352745,0.5375216,0.415632,0.9768442,0.8549643,0.4515845,0.15814234,0.7965976,0.5170642,-0.27851298,-0.49019024,0.23486021,1004.90845,778.0586,790.9524,884.43225,775.64105,0.22064208984375,0.07379150390625,0.97064208984375,3.461761474609375,-3.46923828125,-3.446807861328125,1,2.0,1.0,1.0,2.0,65.00
2021-04-02 17:50:10.604,1.19242845,1.2898177,1.1858271999999,1.2233648,1.29648415,0.6878509500000,0.851659775,1.0141635,0.846234875,0.60775135,0.4487131,0.9768442,0.785198085,0.48794483,0.19251813,0.7965976,0.4184824299999,-0.23347035,-0.4647111,0.23486021,1077.435925,789.94505,801.83151500000,,,,,,,,,,,,,,,/muse/elements/blink
2021-04-02 17:50:11.013,0.6088947,1.2159665,1.1260959,1.2233648,1.0523779,0.6073699,0.72104985,1.0141635,0.7389423,0.6779811,0.4817942,0.9768442,0.71543187,0.52430516,0.22689392,0.7965976,0.31990066,-0.18842772,-0.43923196,0.23486021,1149.9634,801.8315,812.71063,796.99634,759.12085,0.25640869140625,0.0858154296875,0.95928955078125,4.8748779296875,-6.8487548828125,-2.235565185546875,1,1.0,1.0,1.0,1.0,65.00
2021-04-02 17:50:11.524,0.5890095,1.2159665,0.7508806,1.3405848,0.9439791,0.6073699,0.4798834,1.072151,0.86633676,0.6779811,0.77376693,1.1914318,0.7283201,0.52430516,0.2956678,0.44821578,0.34912243,-0.18842772,-0.3680791,0.17795229,693.0403,804.2491,804.65204,692.6374,706.7399,0.2470703125,0.101318359375,0.96160888671875,4.284210205078125,-5.9515380859375,-0.04486083984375,1,1.0,1.0,1.0,1.0,65.00
2021-04-02 17:50:11.840,0.7114648,1.1646082999999,0.9318665500000,1.3802251,0.9632932,0.52916813,0.61186655,1.06093995,0.94782118,0.6765392,0.834142685,1.1914318,0.7239493,0.4632606300000,0.2382688849999,0.4870940150000,0.398063135,-0.22612126,-0.38485371,0.214117035,572.56411,791.75825,794.37729,,,,,,,,,,,,,,,/muse/elements/blink
2021-04-02 17:50:12.029,0.8339201,1.1132501,1.1128525,1.4198654,0.9826073,0.45096636,0.7438497,1.0497289,1.0293056,0.6750973,0.89451844,1.1914318,0.7195785,0.4022161,0.18086997,0.52597225,0.44700384,-0.2638148,-0.40162832,0.25028178,452.08792,779.2674,784.10254,737.76556,684.57874,0.25543212890625,0.0811767578125,0.97320556640625,2.99072265625,-1.024322509765625,0.276641845703125,1,1.0,1.0,1.0,1.0,65.00
2021-04-02 17:50:12.537,0.9821266,1.2696338,1.1878831,1.4920068,0.9690722,0.7068344,0.7800877,1.0958203,1.0023533,0.5729942,0.89451844,1.1914318,0.7373573,0.24854146,0.13034005,0.56191325,0.506304,-0.6579327,-0.3872253,0.29070574,1116.1172,798.60803,806.6667,788.5348,750.2564,0.2249755859375,0.0740966796875,0.9605712890625,4.358978271484375,-2.85614013671875,2.235565185546875,1,1.0,1.0,1.0,1.0,65.00
2021-04-02 17:50:13.047,1.1766933,1.3898427,1.3184844,1.5311279,1.0382932,0.9505923,0.908522,1.0074686,0.98152566,0.68878245,0.78763205,0.8449713,0.71081394,0.10647929,-0.08054957,0.6355084,0.59361327,-0.6482616,-0.42973718,0.3535642,652.3443,819.5604,815.12823,706.337,725.2747,0.20965576171875,0.060791015625,0.96820068359375,3.312225341796875,-2.64678955078125,-1.06170654296875,1,1.0,1.0,1.0,1.0,65.00
2021-04-02 17:50:13.263,1.1766933,1.3405928,1.2162152499999,1.5311279,1.0382932,0.8922818699999,0.7446713,1.0074686,0.98152566,0.695301145,0.6194083100000,0.8449713,0.71081394,0.10949989,-0.08281246,0.6355084,0.59361327,-0.64308275,-0.396149604999,0.3535642,545.97069,825.60439999999,789.74359,,,,,,,,,,,,,,,/muse/elements/blink
2021-04-02 17:50:13.558,1.1766933,1.2913429,1.1139461,1.5311279,1.0382932,0.83397144,0.5808206,1.0074686,0.98152566,0.70181984,0.45118457,0.8449713,0.71081394,0.11252049,-0.08507535,0.6355084,0.59361327,-0.6379039,-0.36256203,0.3535642,439.59708,831.6484,764.35895,733.3333,683.7729,0.2208251953125,0.06884765625,0.973876953125,5.12908935546875,-9.271240234375,-9.70489501953125,1,1.0,1.0,1.0,1.0,65.00
2021-04-02 17:50:14.071,1.1766933,1.2787335,1.2404214,1.5311279,1.0382932,0.8165009,0.8769327,1.0074686,0.98152566,0.6699167,0.4384073,0.8449713,0.71081394,0.029955577,0.023941096,0.6355084,0.59361327,-0.6419898,-0.38914394,0.3535642,477.87546,800.2198,807.0696,730.10986,813.5165,0.21734619140625,0.0794677734375,0.9698486328125,5.14404296875,-5.06927490234375,2.34771728515625,1,1.0,1.0,1.0,1.0,65.00
2021-04-02 17:50:14.584,1.1766933,1.062163,1.1720654,1.5311279,1.0382932,0.5079426,0.82893616,1.0074686,0.98152566,0.45025536,0.4850585,0.8449713,0.71081394,0.10821579,-0.0029793067,0.6355084,0.59361327,-0.66125524,-0.41911402,0.3535642,1142.3077,801.8315,815.12823,840.5128,678.5348,0.28509521484375,0.0740966796875,0.9521484375,11.357269287109375,-11.088104248046875,6.661834716796875,1,1.0,1.0,1.0,1.0,65.00
2021-04-02 17:50:14.619,1.1766933,1.1098463,1.12043235,1.5311279,1.0382932,0.54392295,0.83182438,1.0074686,0.98152566,0.53801398,0.65741218,0.8449713,0.71081394,0.1463784450000,0.0230877781500,0.6355084,0.59361327,-0.650406540000,-0.44622983,0.3535642,804.85348,791.55677,801.63006500000,,,,,,,,,,,,,,,/muse/elements/blink
2021-04-02 17:50:15.089,1.1766933,1.1575296,1.0687993,1.5311279,1.0382932,0.5799033,0.8347126,1.0074686,0.98152566,0.6257726,0.82976586,0.8449713,0.71081394,0.1845411,0.049154863,0.6355084,0.59361327,-0.63955784,-0.47334564,0.3535642,467.39926,781.28204,788.1319,807.8755,719.6337,0.27227783203125,0.082763671875,0.97210693359375,3.611297607421875,-4.358978271484375,-2.37762451171875,1,2.0,1.0,1.0,2.0,65.00
2021-04-02 17:50:15.596,1.6484615,1.3203776,1.106803,1.5311279,1.0292767,0.7026234,0.7230585,1.0074686,1.1924978,0.71820956,0.9261047,0.8449713,0.55878085,0.15335663,0.08523436,0.6355084,0.3623394,-0.517191,-0.38676634,0.3535642,466.99634,784.5055,789.7436,740.18317,781.28204,0.15545654296875,0.1070556640625,0.97515869140625,3.63372802734375,-4.5758056640625,-11.64886474609375,1,1.0,1.0,1.0,1.0,65.00
2021-04-02 17:50:15.913,1.6718682500000,1.3406250000000,1.1194492999999,1.5311279,1.1522111000000,0.7290866,0.69921065,1.0074686,1.2512565,0.73304088,0.9236088,0.8449713,0.55031824,0.14951797,0.1055760799999,0.6355084,0.35972832,-0.51725775,-0.384861185,0.3535642,808.47987,803.0403,811.0989,,,,,,,,,,,,,,,/muse/elements/blink
2021-04-02 17:50:16.114,1.695275,1.3608724,1.1320956,1.5311279,1.2751455,0.7555498,0.6753628,1.0074686,1.3100152,0.7478722,0.9211129,0.8449713,0.54185563,0.14567931,0.1259178,0.6355084,0.35711724,-0.5173245,-0.38295603,0.3535642,1149.9634,821.5751,832.4542,836.08057,884.0293,0.22747802734375,0.095458984375,0.9681396484375,4.66552734375,-5.87677001953125,-3.506622314453125,1,1.0,1.0,1.0,1.0,65.00
2021-04-02 17:50:16.624,1.8425105,1.4613842,1.3759266,1.5311279,1.4791406,0.85558504,0.6465554,1.0074686,1.2929267,0.6245056,0.8619673,0.8449713,0.48497137,0.05108254,0.060864236,0.6355084,0.3493128,-0.49521798,-0.4225524,0.3535642,1160.0366,796.99634,809.89014,892.8938,795.78754,0.2080078125,0.12158203125,0.97918701171875,5.061798095703125,-5.181427001953125,-1.069183349609375,1,1.0,1.0,1.0,1.0,65.00
2021-04-02 17:50:17.143,1.4957594,1.1256512,1.063308,1.5311279,1.551068,0.6298244,0.43809694,1.0074686,1.2868314,0.6864878,0.08865333,0.8449713,0.69614834,0.051093914,0.09483336,0.6355084,0.6508425,-0.48450017,-0.48181933,0.3535642,974.68866,805.05493,805.8608,739.3773,665.64105,0.2178955078125,0.17486572265625,0.96484375,4.74029541015625,-2.4822998046875,-2.70660400390625,1,1.0,1.0,1.0,1.0,65.00
2021-04-02 17:50:17.254,1.4012044000000,1.00830058,1.05400045,1.5311279,1.49090215,0.7016647149999,0.399212255,1.0074686,1.11177833,0.66542675,0.09802462,0.8449713,0.717602045,0.086725527,0.112427345,0.6355084,0.65921385,-0.501651435,-0.451211229999,0.3535642,776.4469,803.04027999999,807.674,,,,,,,,,,,,,,,/muse/elements/blink
2021-04-02 17:50:17.653,1.3066494,0.89094996,1.0446929,1.5311279,1.4307363,0.77350503,0.36032757,1.0074686,0.93672526,0.6443657,0.10739591,0.8449713,0.73905575,0.12235714,0.13002133,0.6355084,0.6675852,-0.5188027,-0.42060313,0.3535642,578.20514,801.02563,809.4872,712.381,657.1795,0.231689453125,0.17230224609375,0.965087890625,0.9271240234375,-5.689849853515625,2.55706787109375,1,1.0,1.0,1.0,1.0,65.00
2021-04-02 17:50:18.160,1.3066494,1.0779073,1.2953441,1.5311279,1.4307363,0.80363,0.5288696,1.0074686,0.93672526,0.8389676,0.8370586,0.8449713,0.73905575,0.30966902,0.30664495,0.6355084,0.6675852,-0.4199896,-0.31871086,0.3535642,1137.0696,813.5165,819.9634,886.4469,750.65936,0.18634033203125,0.1729736328125,0.9725341796875,3.850555419921875,-3.686065673828125,2.983245849609375,1,1.0,1.0,1.0,1.0,65.00
2021-04-02 17:50:18.529,1.2849502,1.11831975,1.35494045,1.5311279,1.42841415,0.8533214,0.532338875,1.0074686,0.909837455,0.8283538500000,0.8370586,0.8449713,0.757697925,0.34572981,0.330635,0.6355084,0.67252538,-0.40966525,-0.31719553,0.3535642,1036.53845,801.63005,805.054975,,,,,,,,,,,,,,,/muse/elements/blink
2021-04-02 17:50:18.672,1.263251,1.1587322,1.4145368,1.5311279,1.426092,0.9030128,0.53580815,1.0074686,0.88294965,0.8177401,0.8370586,0.8449713,0.7763401,0.3817906,0.35462505,0.6355084,0.67746556,-0.3993409,-0.3156802,0.3535642,936.0073,789.7436,790.14655,721.6484,754.68866,0.20159912109375,0.134033203125,0.9658203125,2.145843505859375,-3.656158447265625,7.64129638671875,1,1.0,1.0,1.0,1.0,65.00
2021-04-02 17:50:19.184,1.2049323,1.2900021,1.3797129,1.5311279,1.2746884,0.8530904,1.1110662,1.0074686,1.2931788,0.7973394,1.2628196,0.8449713,0.7080612,0.52201825,0.55608046,0.6355084,0.30482754,-0.2844447,-0.22206612,0.3535642,501.24542,792.96704,779.67035,693.0403,649.12085,0.22467041015625,0.1148681640625,0.96502685546875,4.358978271484375,-6.32537841796875,-2.444915771484375,1,1.0,1.0,1.0,1.0,65.00
2021-04-02 17:50:19.702,1.4023318,1.3029038,1.2770783,1.5311279,1.0852373,0.7487042,1.2564671,1.0074686,1.2957689,0.75229466,1.238505,0.8449713,0.7885014,0.49686697,0.6706757,0.6355084,0.33388013,-0.25607485,-0.20029952,0.3535642,620.9158,808.2784,809.4872,861.8681,930.7692,0.22698974609375,0.17413330078125,0.9791259765625,12.718048095703125,-1.256103515625,-2.0037841796875,1,1.0,1.0,1.0,1.0,65.00
2021-04-02 17:50:19.872,1.40910355,1.20750275,1.3053342,1.5311279,1.08037165,0.6936213,1.21568035,1.0074686,1.30271515,0.7136888299999,1.238505,0.8449713,0.78027155,0.3820979,0.6244285,0.6355084,0.3245402149999,-0.259388555,-0.252826624999,0.3535642,823.3883,794.3773,805.05495,,,,,,,,,,,,,,,/muse/elements/blink
2021-04-02 17:50:20.229,1.4158753,1.1121017,1.3335901,1.5311279,1.075506,0.6385384,1.1748936,1.0074686,1.3096614,0.675083,1.238505,0.8449713,0.7720417,0.26732883,0.5781813,0.6355084,0.3152003,-0.26270226,-0.30535373,0.3535642,1025.8608,780.4762,800.6227,900.54944,763.1502,0.224609375,0.1358642578125,0.97052001953125,4.957122802734375,0.04486083984375,8.919830322265625,1,1.0,1.0,1.0,1.0,65.00
2021-04-02 17:50:20.731,1.5094594,1.1121017,1.5610187,1.5311279,0.8791713,0.6385384,1.2900697,1.0074686,1.0152488,0.675083,1.0967684,0.8449713,0.8077172,0.26732883,0.39186585,0.6355084,0.3215597,-0.26270226,-0.5185757,0.3535642,801.4286,752.674,763.5531,670.4762,584.2491,0.12127685546875,0.12152099609375,1.00115966796875,2.923431396484375,-1.951446533203125,1.816864013671875,1,1.0,1.0,1.0,1.0,65.00
2021-04-02 17:50:21.233,1.4586731,1.1121017,1.5786961,1.5311279,0.9569622,0.6385384,1.3141634,1.0074686,0.6206528,0.675083,0.7208499,0.8449713,0.7003757,0.26732883,0.19010223,0.6355084,0.29526478,-0.26270226,-0.6776946,0.3535642,724.4689,783.69965,783.2967,706.7399,736.1539,0.16632080078125,0.024169921875,0.98004150390625,13.899383544921875,-4.747772216796875,20.35186767578125,1,1.0,1.0,1.0,1.0,65.00
2021-04-02 17:50:21.301,1.4586731,1.1121017,1.6112291,1.5311279,0.9569622,0.6385384,1.3832395499999,1.0074686,0.6206528,0.675083,0.7188917850000,0.8449713,0.7003757,0.26732883,0.177994435,0.6355084,0.29526478,-0.26270226,-0.659210225,0.3535642,426.703315,797.60074000000,793.5714,,,,,,,,,,,,,,,/muse/elements/blink
2021-04-02 17:50:21.740,1.4586731,1.1121017,1.6437621,1.5311279,0.9569622,0.6385384,1.4523157,1.0074686,0.6206528,0.675083,0.71693367,0.8449713,0.7003757,0.26732883,0.16588664,0.6355084,0.29526478,-0.26270226,-0.64072585,0.3535642,128.93773,811.50183,803.8461,719.6337,632.1978,0.0576171875,0.0628662109375,1.15460205078125,5.674896240234375,2.58697509765625,2.52716064453125,1,1.0,1.0,1.0,1.0,65.00
2021-04-02 17:50:22.203,1.4586731,1.1121017,1.6559761499999,1.5311279,0.9569622,0.6385384,1.4800811999999,1.0074686,0.6206528,0.675083,0.71693367,0.8449713,0.7003757,0.26732883,0.17665471,0.6355084,0.29526478,-0.26270226,-0.6344769,0.3535642,668.46156500000,796.39193500000,794.57872,,,,,,,,,,,,,,,/muse/elements/blink
2021-04-02 17:50:22.271,1.4586731,1.1121017,1.6681902,1.5311279,0.9569622,0.6385384,1.5078467,1.0074686,0.6206528,0.675083,0.71693367,0.8449713,0.7003757,0.26732883,0.18742278,0.6355084,0.29526478,-0.26270226,-0.62822795,0.3535642,1207.9854,781.28204,785.31134,1035.5311,1013.7729,0.01873779296875,0.137451171875,0.85467529296875,5.12908935546875,-8.022613525390625,10.265655517578125,1,1.0,1.0,1.0,1.0,65.00
2021-04-02 17:50:22.781,1.4586731,1.1121017,1.4199362,1.5311279,0.9569622,0.6385384,0.8678236,1.0074686,0.6206528,0.675083,0.654726,0.8449713,0.7003757,0.26732883,0.29200935,0.6355084,0.29526478,-0.26270226,-0.5239611,0.3535642,1336.9231,773.6264,786.1172,946.4835,969.0476,0.1279296875,0.1085205078125,0.8739013671875,2.729034423828125,-21.510772705078125,7.40203857421875,1,4.0,1.0,1.0,2.0,65.00
2021-04-02 17:50:23.305,1.4586731,1.1121017,1.4199362,1.5311279,0.9569622,0.6385384,0.8678236,1.0074686,0.6206528,0.675083,0.654726,0.8449713,0.7003757,0.26732883,0.29200935,0.6355084,0.29526478,-0.26270226,-0.5239611,0.3535642,483.51648,92.271065,78.57143,51.17216,645.4945,0.490234375,-0.1131591796875,1.0587158203125,-6.138458251953125,-18.25836181640625,11.252593994140625,1,2.0,1.0,1.0,2.0,65.00
2021-04-02 17:50:23.449,1.4586731,1.1121017,1.42570635,1.5311279,0.9569622,0.6385384,0.82992515,1.0074686,0.6206528,0.675083,0.533739925,0.8449713,0.7003757,0.26732883,0.2509751,0.6355084,0.29526478,-0.26270226,-0.53946365,0.3535642,381.172165,477.6739825,489.157515,,,,,,,,,,,,,,,/muse/elements/blink
2021-04-02 17:50:23.818,1.4586731,1.1121017,1.4314765,1.5311279,0.9569622,0.6385384,0.7920267,1.0074686,0.6206528,0.675083,0.41275385,0.8449713,0.7003757,0.26732883,0.20994085,0.6355084,0.29526478,-0.26270226,-0.5549662,0.3535642,278.82785,863.0769,899.7436,728.49817,819.15753,0.51617431640625,-0.15032958984375,0.95745849609375,15.200347900390625,14.407806396484375,15.5816650390625,1,2.0,1.0,1.0,2.0,65.00
2021-04-02 17:50:24.342,1.4586731,1.1121017,1.4314765,1.5311279,0.9569622,0.6385384,0.7920267,1.0074686,0.6206528,0.675083,0.41275385,0.8449713,0.7003757,0.26732883,0.20994085,0.6355084,0.29526478,-0.26270226,-0.5549662,0.3535642,261.90475,622.1245,633.8095,596.7399,725.2747,-0.1143798828125,0.29962158203125,0.9569091796875,9.49554443359375,16.70318603515625,63.111724853515625,1,2.0,1.0,1.0,2.0,65.00
2021-04-02 17:50:24.818,1.4586731,1.1121017,1.4314765,1.5311279,0.9569622,0.6385384,0.7920267,1.0074686,0.6206528,0.675083,0.41275385,0.8449713,0.7003757,0.26732883,0.20994085,0.6355084,0.29526478,-0.26270226,-0.5549662,0.3535642,715.402925,664.63370000000,680.95235,,,,,,,,,,,,,,,/muse/elements/blink
2021-04-02 17:50:24.845,1.4586731,1.1121017,1.4314765,1.5311279,0.9569622,0.6385384,0.7920267,1.0074686,0.6206528,0.675083,0.41275385,0.8449713,0.7003757,0.26732883,0.20994085,0.6355084,0.29526478,-0.26270226,-0.5549662,0.3535642,1168.9011,707.1429,728.0952,854.21246,734.5421,-0.164306640625,0.0050048828125,0.9603271484375,6.422576904296875,1.293487548828125,13.809661865234375,1,2.0,1.0,1.0,2.0,65.00
2021-04-02 17:50:25.058,1.4586731,1.1121017,1.4314765,1.5311279,0.9569622,0.6385384,0.7920267,1.0074686,0.6206528,0.675083,0.41275385,0.8449713,0.7003757,0.26732883,0.20994085,0.6355084,0.29526478,-0.26270226,-0.5549662,0.3535642,1030.69597,791.55680000000,804.85345000000,,,,,,,,,,,,,,,/muse/elements/blink
2021-04-02 17:50:25.353,1.4586731,1.1121017,1.4314765,1.5311279,0.9569622,0.6385384,0.7920267,1.0074686,0.6206528,0.675083,0.41275385,0.8449713,0.7003757,0.26732883,0.20994085,0.6355084,0.29526478,-0.26270226,-0.5549662,0.3535642,892.49084,875.9707,881.6117,818.3516,1011.3553,-0.07672119140625,0.05828857421875,0.8780517578125,11.70867919921875,-4.194488525390625,-0.16448974609375,1,2.0,1.0,1.0,2.0,65.00
2021-04-02 17:50:25.869,1.4586731,1.1121017,1.4314765,1.5311279,0.9569622,0.6385384,0.7920267,1.0074686,0.6206528,0.675083,0.41275385,0.8449713,0.7003757,0.26732883,0.20994085,0.6355084,0.29526478,-0.26270226,-0.5549662,0.3535642,534.68866,355.3846,316.30035,390.8425,760.7326,-0.171875,0.10614013671875,1.0130615234375,0.874786376953125,12.957305908203125,-10.3179931640625,1,2.0,1.0,1.0,2.0,65.00
2021-04-02 17:50:26.053,1.4586731,1.1121017,1.4314765,1.5311279,0.9569622,0.6385384,0.7920267,1.0074686,0.6206528,0.675083,0.41275385,0.8449713,0.7003757,0.26732883,0.20994085,0.6355084,0.29526478,-0.26270226,-0.5549662,0.3535642,595.732605,608.4249,586.868125,,,,,,,,,,,,,,,/muse/elements/blink
2021-04-02 17:50:26.382,1.4586731,1.1121017,1.4314765,1.5311279,0.9569622,0.6385384,0.7920267,1.0074686,0.6206528,0.675083,0.41275385,0.8449713,0.7003757,0.26732883,0.20994085,0.6355084,0.29526478,-0.26270226,-0.5549662,0.3535642,656.77655,861.4652,857.4359,795.78754,686.1905,-0.0599365234375,0.201904296875,0.96649169921875,4.284210205078125,-22.56500244140625,13.89190673828125,1,4.0,1.0,1.0,2.0,65.00
2021-04-02 17:50:26.447,1.4586731,1.1121017,1.4314765,1.5311279,0.9569622,0.6385384,0.7920267,1.0074686,0.6206528,0.675083,0.41275385,0.8449713,0.7003757,0.26732883,0.20994085,0.6355084,0.29526478,-0.26270226,-0.5549662,0.3535642,739.175825,877.58242500000,884.83517,,,,,,,,,,,,,,,/muse/elements/blink
2021-04-02 17:50:26.890,1.4586731,1.1121017,1.4314765,1.5311279,0.9569622,0.6385384,0.7920267,1.0074686,0.6206528,0.675083,0.41275385,0.8449713,0.7003757,0.26732883,0.20994085,0.6355084,0.29526478,-0.26270226,-0.5549662,0.3535642,821.5751,893.69965,912.23444,872.74725,715.2015,0.29144287109375,-0.03094482421875,0.85125732421875,5.106658935546875,-35.253143310546875,20.478973388671875,1,2.0,1.0,1.0,2.0,65.00
2021-04-02 17:50:27.178,1.4586731,1.1121017,1.4314765,1.5311279,0.9569622,0.6385384,0.7920267,1.0074686,0.6206528,0.675083,0.41275385,0.8449713,0.7003757,0.26732883,0.20994085,0.6355084,0.29526478,-0.26270226,-0.5549662,0.3535642,984.1575,874.560455,891.28204499999,,,,,,,,,,,,,,,/muse/elements/blink
2021-04-02 17:50:27.394,1.4586731,1.1121017,1.4314765,1.5311279,0.9569622,0.6385384,0.7920267,1.0074686,0.6206528,0.675083,0.41275385,0.8449713,0.7003757,0.26732883,0.20994085,0.6355084,0.29526478,-0.26270226,-0.5549662,0.3535642,1146.7399,855.42126,870.32965,958.97437,777.6557,0.40216064453125,0.03448486328125,0.933349609375,7.49176025390625,-16.007843017578125,17.4658203125,1,2.0,1.0,1.0,2.0,65.00
2021-04-02 17:50:27.899,1.4586731,1.1121017,1.4314765,1.5311279,0.9569622,0.6385384,0.7920267,1.0074686,0.6206528,0.675083,0.41275385,0.8449713,0.7003757,0.26732883,0.20994085,0.6355084,0.29526478,-0.26270226,-0.5549662,0.3535642,589.4872,811.9048,823.1868,718.022,633.8095,0.3663330078125,0.0732421875,0.91925048828125,7.46185302734375,1.31591796875,-4.5159912109375,1,2.0,1.0,1.0,2.0,65.00
2021-04-02 17:50:28.413,1.4586731,1.1121017,0.99878174,1.1145054,0.9569622,0.6385384,0.49318904,1.084379,0.6206528,0.675083,0.8605892,0.98237854,0.7003757,0.26732883,0.34470147,0.80794716,0.29526478,-0.26270226,-0.2630556,0.108884014,453.2967,833.663,842.52747,699.4872,647.50916,0.37628173828125,0.0562744140625,0.91357421875,3.39447021484375,-9.1217041015625,7.79083251953125,1,2.0,1.0,1.0,2.0,65.00
2021-04-02 17:50:28.481,1.4586731,1.0262177000000,0.97808802,1.1279450500000,0.9569622,0.6068363,0.4679383700000,1.038763725,0.6206528,0.68887217,0.8624327,0.984089255,0.7003757,0.22364507,0.28784551,0.77775666,0.29526478,-0.248031,-0.310123950000,0.1711217420000,675.7143,839.50548,835.879135,,,,,,,,,,,,,,,/muse/elements/blink
2021-04-02 17:50:28.920,1.4586731,0.9403337,0.9573943,1.1413847,0.9569622,0.5751342,0.4426877,0.99314845,0.6206528,0.70266134,0.8642762,0.98579997,0.7003757,0.17996131,0.23098955,0.74756616,0.29526478,-0.23335974,-0.3571923,0.23335947,898.1319,845.34796,829.2308,864.2857,892.0879,0.54833984375,-0.0703125,0.8824462890625,3.60382080078125,-10.6170654296875,2.056121826171875,1,1.0,1.0,1.0,1.0,65.00
2021-04-02 17:50:29.435,1.7627887,1.1910098,1.0326661,1.2467613,1.7487463,0.43581426,0.39446828,1.0569284,1.4433957,0.71024466,0.8642762,1.0367497,0.58506376,0.1307792,0.1641788,0.6686949,0.62204087,-0.22100765,-0.34876966,0.22428067,1303.0769,836.08057,852.1978,1017.3993,925.12823,0.37030029296875,-0.088134765625,0.9305419921875,6.6693115234375,4.14215087890625,-14.662017822265625,1,1.0,1.0,1.0,1.0,65.00
2021-04-02 17:50:29.845,1.7627887,1.24397665,1.14652645,1.27711355,1.7487463,0.39924818,0.364099475,1.0486773500000,1.4433957,0.662064615,0.787868365,1.00249692,0.58506376,0.13689806,0.097009484,0.61585145,0.62204087,-0.215358060000,-0.397996539999,0.251460125,1060.5128,819.761905,837.49085,,,,,,,,,,,,,,,/muse/elements/blink
2021-04-02 17:50:29.946,1.7627887,1.2969435,1.2603868,1.3074658,1.7487463,0.3626821,0.33373067,1.0404263,1.4433957,0.61388457,0.71146053,0.96824414,0.58506376,0.14301692,0.029840168,0.563008,0.62204087,-0.20970847,-0.44722342,0.27863958,817.9487,803.44324,822.7839,820.3663,649.5238,0.32342529296875,0.13409423828125,0.93817138671875,12.63580322265625,0.46356201171875,-10.12359619140625,1,1.0,1.0,1.0,1.0,65.00
2021-04-02 17:50:30.456,1.7627887,1.3413672,1.2715715,1.3857044,1.7487463,0.2161627,0.2507811,1.1500074,1.4433957,0.4006846,0.3897511,0.91474223,0.58506376,0.16446996,-0.029957624,0.4826084,0.62204087,-0.21099617,-0.49149185,0.20792125,399.30402,786.1172,784.90845,642.674,628.97437,0.29156494140625,0.13555908203125,0.95892333984375,9.1815185546875,-5.99639892578125,-7.79083251953125,1,1.0,1.0,1.0,1.0,65.00
2021-04-02 17:50:30.958,1.7627887,1.214516,1.2038026,0.7341907,1.7487463,0.28040257,0.28001732,0.77256286,1.4433957,0.55046624,0.47222334,0.9774455,0.58506376,0.16704464,-0.011770356,0.73049617,0.62204087,-0.27892092,-0.54602987,0.34167123,691.8315,810.293,828.4249,763.1502,781.28204,0.31317138671875,0.17828369140625,0.93096923828125,5.136566162109375,0.291595458984375,-1.95892333984375,1,1.0,1.0,1.0,1.0,65.00
2021-04-02 17:50:31.196,1.5120847,1.09333218,1.1247414,0.84605345,1.352310225,0.256191075,0.30108846,0.80442768,1.250674,0.62313027,0.55900222,0.9881949999999,0.6038174300000,0.134701675,0.0396844245,0.740270915,0.533736185,-0.32682541,-0.548192355000,0.3269866150000,758.315,809.89010000000,827.01465000000,,,,,,,,,,,,,,,/muse/elements/blink
2021-04-02 17:50:31.473,1.2613807,0.97214836,1.0456802,0.9579162,0.95587415,0.23197958,0.3221596,0.8362925,1.0579523,0.6957943,0.6457811,0.9989445,0.6225711,0.10235871,0.091139205,0.75004566,0.4454315,-0.3747299,-0.55035484,0.312302,824.7985,809.4872,825.6044,837.6923,682.5641,0.28436279296875,0.25543212890625,0.932373046875,7.633819580078125,-1.009368896484375,8.635711669921875,1,1.0,1.0,1.0,1.0,65.00
2021-04-02 17:50:31.977,1.2987156,0.883605,1.00512,1.1178067,1.1646347,0.12401417,0.41740423,0.93399864,1.0609406,0.66581255,0.6429806,0.9989445,0.7397058,0.026463386,0.099677384,0.69927806,0.4426023,-0.41933635,-0.53858507,0.27001068,376.337,811.50183,824.7985,659.19415,691.4286,0.31988525390625,0.23291015625,0.9454345703125,4.486083984375,-6.347808837890625,-1.375732421875,1,1.0,1.0,1.0,1.0,65.00
2021-04-02 17:50:32.380,1.297251,0.855809925,0.9656749,1.1713792,1.18631155,0.0774804720000,0.37854929,0.98162922,1.07299025,0.674005675,0.6260914,0.9594262,0.7493386,0.038269455,0.105421652,0.6746225100000,0.4446499000000,-0.403241275,-0.55807707,0.242771105,507.28938,810.091585,818.956,,,,,,,,,,,,,,,/muse/elements/blink
2021-04-02 17:50:32.485,1.2957864,0.82801485,0.9262298,1.2249517,1.2079884,0.030946774,0.33969435,1.0292598,1.0850399,0.6821988,0.6092022,0.9199079,0.7589714,0.050075524,0.11116592,0.64996696,0.4466975,-0.3871462,-0.57756907,0.21553153,638.24176,808.68134,813.1135,750.65936,762.3443,0.2738037109375,0.20269775390625,0.950439453125,2.669219970703125,-3.8580322265625,-3.72344970703125,1,1.0,1.0,1.0,1.0,65.00
2021-04-02 17:50:32.993,1.3261306,0.79018736,0.6549714,1.3033845,1.3203188,0.1261818,0.21775568,1.1281458,1.0813087,0.69268143,0.5012567,0.80301183,0.8207303,0.080225796,0.07923208,0.53713286,0.43649894,-0.37897602,-0.5703961,0.17821188,1139.8901,800.6227,817.5458,923.1135,844.5421,0.21343994140625,0.20672607421875,0.9541015625,5.809478759765625,-2.31781005859375,1.1663818359375,1,1.0,1.0,1.0,1.0,65.00
2021-04-02 17:50:33.276,1.25503985,0.78504218,0.4632342,1.30518195,1.36795345,0.16915742,0.21381706,1.1398966000000,0.9647859799999,0.629970365,0.4452711299999,0.7405610650000,0.840786385,0.110231108,0.106553015,0.48245512,0.4514945700000,-0.422302425000,-0.57104747,0.14370673,1040.76925,816.337,803.0403,,,,,,,,,,,,,,,/muse/elements/blink
2021-04-02 17:50:33.495,1.1839491,0.779897,0.271497,1.3069794,1.4155881,0.21213304,0.20987844,1.1516474,0.84826326,0.5672593,0.38928556,0.6781103,0.86084247,0.14023642,0.13387395,0.42777738,0.4664902,-0.46562883,-0.57169884,0.10920158,941.6484,832.0513,788.5348,672.0879,728.49817,0.21392822265625,0.23065185546875,0.96875,5.644989013671875,4.867401123046875,-8.49365234375,1,1.0,1.0,1.0,1.0,65.00
2021-04-02 17:50:34.003,1.1839491,0.8287493,0.57765216,1.3069794,1.4155881,0.31104103,0.604802,1.1516474,0.84826326,0.5622799,0.43671408,0.6781103,0.86084247,0.16432834,0.14585868,0.42777738,0.4664902,-0.49609545,-0.52832365,0.10920158,593.91943,1048.4249,820.7692,737.76556,652.74725,-0.0391845703125,0.24041748046875,0.9820556640625,3.147735595703125,16.531219482421875,-31.215667724609375,1,1.0,1.0,1.0,1.0,65.00
2021-04-02 17:50:34.302,1.1839491,0.8459856800000,0.62866971,1.3069794,1.4155881,0.28321253,0.69320775,1.1516474,0.84826326,0.4694530500000,0.43671408,0.6781103,0.86084247,0.1853637349999,0.15351081,0.42777738,0.4664902,-0.499962275,-0.50981009,0.10920158,522.80220000000,857.234425,831.04393,,,,,,,,,,,,,,,/muse/elements/blink
2021-04-02 17:50:34.526,1.1839491,0.86322206,0.67968726,1.3069794,1.4155881,0.25538403,0.7816135,1.1516474,0.84826326,0.3766262,0.43671408,0.6781103,0.86084247,0.20639913,0.16116294,0.42777738,0.4664902,-0.5038291,-0.49129653,0.10920158,451.68497,666.04395,841.31866,697.47253,704.3223,-0.20440673828125,0.20440673828125,0.9580078125,5.256195068359375,-3.386993408203125,-7.22259521484375,1,1.0,1.0,1.0,1.0,65.00
2021-04-02 17:50:34.604,1.1839491,0.873368055,0.75546868,1.3069794,1.4155881,0.303879115,0.8692156849999,1.1516474,0.84826326,0.36261355,0.418309655,0.6781103,0.86084247,0.2224933499999,0.146665765,0.42777738,0.4664902,-0.467136940000,-0.449381515,0.10920158,720.43956,732.527475,834.67033,,,,,,,,,,,,,,,/muse/elements/blink
2021-04-02 17:50:35.034,1.1839491,0.88351405,0.8312501,1.3069794,1.4155881,0.3523742,0.95681787,1.1516474,0.84826326,0.3486009,0.39990523,0.6781103,0.86084247,0.23858757,0.13216859,0.42777738,0.4664902,-0.43044478,-0.4074665,0.10920158,989.19415,799.011,828.022,947.28937,789.34064,-0.194091796875,0.2098388671875,0.9803466796875,4.418792724609375,-12.000274658203125,1.435546875,1,2.0,1.0,1.0,2.0,65.00
2021-04-02 17:50:35.558,1.1839491,0.88351405,0.8312501,1.3069794,1.4155881,0.3523742,0.95681787,1.1516474,0.84826326,0.3486009,0.39990523,0.6781103,0.86084247,0.23858757,0.13216859,0.42777738,0.4664902,-0.43044478,-0.4074665,0.10920158,622.52747,809.0842,839.707,767.5824,879.59705,-0.17877197265625,0.157958984375,0.958740234375,3.8580322265625,-6.29547119140625,0.7177734375,1,2.0,1.0,1.0,2.0,65.00
2021-04-02 17:50:35.955,1.1839491,0.88351405,0.8312501,1.3069794,1.4155881,0.3523742,0.95681787,1.1516474,0.84826326,0.3486009,0.39990523,0.6781103,0.86084247,0.23858757,0.13216859,0.42777738,0.4664902,-0.43044478,-0.4074665,0.10920158,760.934055,796.79485,837.08795,,,,,,,,,,,,,,,/muse/elements/blink
2021-04-02 17:50:36.084,1.1839491,0.88351405,0.8312501,1.3069794,1.4155881,0.3523742,0.95681787,1.1516474,0.84826326,0.3486009,0.39990523,0.6781103,0.86084247,0.23858757,0.13216859,0.42777738,0.4664902,-0.43044478,-0.4074665,0.10920158,899.34064,784.5055,834.4689,834.4689,715.2015,-0.20111083984375,0.17547607421875,0.980224609375,1.74957275390625,-2.13836669921875,-0.8074951171875,1,2.0,1.0,1.0,2.0,65.00
2021-04-02 17:50:36.587,1.1839491,0.88351405,0.8312501,1.3069794,1.4155881,0.3523742,0.95681787,1.1516474,0.84826326,0.3486009,0.39990523,0.6781103,0.86084247,0.23858757,0.13216859,0.42777738,0.4664902,-0.43044478,-0.4074665,0.10920158,432.34433,805.4579,824.3956,670.4762,646.30035,-0.21929931640625,0.16961669921875,0.95721435546875,2.863616943359375,-3.701019287109375,1.024322509765625,1,2.0,1.0,1.0,2.0,65.00
2021-04-02 17:50:37.106,1.0291983,0.5622978,0.74115705,1.1694319,1.046917,0.36992344,0.32828188,0.72855246,1.1678836,0.45729673,0.22880606,0.49594006,0.7563637,0.46115965,0.1986182,0.64974374,0.5395943,0.10485334,-0.08235879,0.2749642,586.26373,791.3553,811.50183,743.8095,734.1392,-0.20062255859375,0.19775390625,0.98046875,1.89910888671875,-3.2598876953125,-1.6748046875,1,1.0,1.0,1.0,1.0,65.00
2021-04-02 17:50:37.272,1.0540703,0.55790623,0.6890825,1.1590981,1.0298984,0.292876225,0.26748696,0.70241138,1.16790465,0.45729673,0.28590261,0.52728573,0.74671227,0.430105925,0.1876465199999,0.63726297,0.5323353,0.1212390500000,-0.062147734999,0.27402032,891.483465,795.989,822.985365,,,,,,,,,,,,,,,/muse/elements/blink
2021-04-02 17:50:37.631,1.0789423,0.55351466,0.63700795,1.1487643,1.0128798,0.21582901,0.20669204,0.6762703,1.1679257,0.45729673,0.34299916,0.5586314,0.73706084,0.3990522,0.17667484,0.6247822,0.5250763,0.13762476,-0.04193668,0.27307644,1196.7032,800.6227,834.4689,1004.10254,818.7546,-0.2281494140625,0.1500244140625,0.96405029296875,8.067474365234375,-6.123504638671875,-1.398162841796875,1,1.0,1.0,1.0,1.0,65.00
2021-04-02 17:50:38.144,1.0641667,0.4437605,0.5071234,1.0014355,0.8691016,0.050067823,0.3917715,0.49513736,0.9718913,0.22731863,0.5228699,0.51207215,0.6335596,0.29967842,0.2412281,0.5185313,0.45247847,0.15630691,0.039767418,0.31648067,855.0183,788.1319,818.3516,843.73627,792.96704,-0.2406005859375,0.17181396484375,0.957275390625,3.03558349609375,0.2392578125,2.70660400390625,1,1.0,1.0,1.0,1.0,65.00
2021-04-02 17:50:38.572,1.11000295,0.4532343100000,0.4580211,1.0246058,0.83048872,0.0703769264999,0.352750735,0.45713863,0.95374102,0.268992195,0.523070135,0.500968525,0.631309575,0.3169875749999,0.251551315,0.5167501750000,0.4337889550000,0.15398493,0.055399169,0.314380825,761.94137,795.38465,813.7179,,,,,,,,,,,,,,,/muse/elements/blink
2021-04-02 17:50:38.665,1.1558392,0.46270812,0.4089188,1.0477761,0.79187584,0.09068603,0.31372997,0.4191399,0.93559074,0.31066576,0.52327037,0.4898649,0.62905955,0.33429673,0.26187453,0.51496905,0.41509944,0.15166295,0.07103092,0.31228098,668.86444,802.6374,809.0842,759.12085,666.4469,-0.240478515625,0.1956787109375,1.0072021484375,-2.5421142578125,-0.934600830078125,-2.250518798828125,1,1.0,1.0,1.0,1.0,65.00
2021-04-02 17:50:39.191,1.1558392,0.36993712,0.33126357,1.0477761,0.79187584,0.10148852,0.39527726,0.4191399,0.93559074,0.29875255,0.4992999,0.4898649,0.62905955,0.30322617,0.30494052,0.51496905,0.41509944,0.114870645,0.13638067,0.31228098,512.9304,858.6447,824.3956,778.86444,719.6337,-0.20147705078125,0.11248779296875,0.9837646484375,4.972076416015625,-7.2076416015625,-2.654266357421875,1,1.0,1.0,1.0,1.0,65.00
2021-04-02 17:50:39.195,1.1558392,0.369165345,0.3636903449999,1.0477761,0.79187584,0.0826813969999,0.29008407,0.4191399,0.93559074,0.29245156,0.34474533,0.4898649,0.62905955,0.284118845,0.308657495,0.51496905,0.41509944,0.071327014,0.152345485,0.31228098,477.87546499999,827.01467,819.96335,,,,,,,,,,,,,,,/muse/elements/blink
2021-04-02 17:50:39.700,1.1558392,0.36839357,0.39611712,1.0477761,0.79187584,0.063874274,0.18489088,0.4191399,0.93559074,0.28615057,0.19019076,0.4898649,0.62905955,0.26501152,0.31237447,0.51496905,0.41509944,0.027783383,0.1683103,0.31228098,442.82053,795.38464,815.5311,662.8205,674.90845,-0.22119140625,0.11834716796875,0.9693603515625,7.7459716796875,-2.87109375,-0.79254150390625,1,1.0,1.0,1.0,1.0,65.00
2021-04-02 17:50:39.904,1.1558392,0.252843335,0.46832036,1.0477761,0.79187584,-0.127329723,0.26667524,0.4191399,0.93559074,0.20650953,0.153388045,0.4898649,0.62905955,0.196958295,0.32243055,0.51496905,0.41509944,0.063089164,0.1908048299999,0.31228098,512.124565,802.63739,821.57505,,,,,,,,,,,,,,,/muse/elements/blink
2021-04-02 17:50:40.226,1.1558392,0.1372931,0.5405236,1.0477761,0.79187584,-0.31853372,0.3484596,0.4191399,0.93559074,0.12686849,0.11658533,0.4898649,0.62905955,0.12890507,0.33248663,0.51496905,0.41509944,0.098394945,0.21329936,0.31228098,581.4286,809.89014,827.619,740.18317,742.1978,-0.2432861328125,0.127685546875,0.9552001953125,10.310516357421875,-12.254486083984375,3.117828369140625,1,2.0,1.0,1.0,2.0,65.00
2021-04-02 17:50:40.735,1.1558392,0.35044762,1.0479497,1.0477761,0.79187584,0.14572905,0.42380536,0.4191399,0.93559074,0.17963912,0.42100927,0.4898649,0.62905955,0.54136986,0.54450744,0.51496905,0.41509944,0.27338147,0.18202269,0.31228098,1133.8462,796.1905,813.91943,950.10986,969.45056,-0.2425537109375,0.08538818359375,0.966552734375,3.887939453125,-5.63751220703125,-1.7047119140625,1,2.0,1.0,1.0,2.0,65.00
2021-04-02 17:50:41.198,1.2883603,0.353390825,0.9489833,1.14248775,1.04612247,0.1520812899999,0.3479590150000,0.7740318,1.01204787,0.20068061,0.426894685,0.65209505,0.6037880449999,0.5446508800000,0.5084045349999,0.6623083949999,0.490480005,0.266967185,0.1080833485,0.26702994,773.6264,799.6154,811.50181500000,,,,,,,,,,,,,,,/muse/elements/blink
2021-04-02 17:50:41.243,1.4208814,0.35633403,0.8500169,1.2371994,1.3003691,0.15843353,0.27211267,1.1289237,1.088505,0.2217221,0.4327801,0.8143252,0.57851654,0.5479319,0.47230163,0.80964774,0.56586057,0.2605529,0.034144007,0.2217789,413.4066,803.0403,809.0842,668.86444,713.1868,-0.23956298828125,0.095458984375,0.9666748046875,5.263671875,-4.5458984375,1.547698974609375,1,1.0,1.0,1.0,1.0,65.00
2021-04-02 17:50:41.764,1.2903975,0.23061083,0.78605807,1.1555198,1.138027,0.13820869,0.19779645,1.0045253,1.088505,0.24850196,0.4327801,0.84495723,0.62372345,0.50321895,0.38823673,0.7700792,0.54601,0.24405703,0.07183856,0.26451892,625.7509,804.65204,830.4396,754.2857,617.28937,-0.19061279296875,0.12054443359375,0.979736328125,4.957122802734375,-6.9384765625,3.461761474609375,1,1.0,1.0,1.0,1.0,65.00
2021-04-02 17:50:42.270,1.2202688,0.1198927,0.49139732,1.122526,0.912137,0.20246941,0.07271509,0.844416,1.0160978,0.37061527,0.4330475,0.82290053,0.5624533,0.43300366,0.23205914,0.6928303,0.52118576,0.2059574,0.0350826,0.24979037,407.36264,794.17584,811.0989,664.0293,706.337,-0.1800537109375,0.123046875,0.982177734375,2.2430419921875,-3.656158447265625,-0.64300537109375,1,1.0,1.0,1.0,1.0,65.00
2021-04-02 17:50:42.531,1.22160205,0.0069764325000,0.449362725,1.03715335,0.8335310650000,0.20571442,0.09554051,0.76514833,1.0018193,0.367759085,0.4260696149999,0.788657015,0.6191784300000,0.3994382800000,0.201802555,0.6891164000000,0.536321255,0.200575935,0.03905817,0.27371931,756.70332000000,802.838835,815.128215,,,,,,,,,,,,,,,/muse/elements/blink
2021-04-02 17:50:42.773,1.2229353,-0.105939835,0.40732813,0.9517807,0.75492513,0.20895943,0.11836593,0.68588066,0.9875408,0.3649029,0.41909173,0.7544135,0.67590356,0.3658729,0.17154597,0.6854025,0.55145675,0.19519447,0.04303374,0.29764825,1106.044,811.50183,819.15753,910.2198,799.41394,-0.19573974609375,0.1234130859375,0.976806640625,4.089813232421875,-7.8955078125,2.908477783203125,1,1.0,1.0,1.0,1.0,65.00
2021-04-02 17:50:43.306,1.2459127,0.29674622,0.40646082,1.0186536,0.85929394,0.29167178,0.27762935,0.73949486,0.9476685,0.4064104,0.43191326,0.71124285,0.6782075,0.375697,0.19507192,0.74219525,0.57521707,0.17547856,-0.05476394,0.21214955,524.21246,815.12823,807.0696,665.64105,599.15753,-0.1873779296875,0.1182861328125,0.98016357421875,5.061798095703125,-7.065582275390625,1.77947998046875,1,1.0,1.0,1.0,1.0,65.00
2021-04-02 17:50:43.816,1.2925773,0.39058095,0.48793346,1.0908582,0.9260676,0.24043289,0.21447843,0.8027579,0.9476685,0.3355715,0.42328233,0.71124285,0.7501102,0.42284644,0.27915108,0.7791268,0.60157806,0.26950482,-0.1465735,0.2202639,456.92307,799.81683,808.68134,692.23444,676.1172,-0.1805419921875,0.13446044921875,0.981201171875,7.8955078125,-1.218719482421875,2.5421142578125,1,1.0,1.0,1.0,1.0,65.00
2021-04-02 17:50:43.886,1.236521,0.39750746,0.4826061,1.0908582,0.9818899000000,0.188541545,0.1620706825,0.8027579,0.77018295,0.2869979900000,0.31885013,0.71124285,0.71759935,0.392610255,0.281462565,0.7791268,0.605215015,0.29911244,-0.132742357,0.2202639,705.32967,790.14651499999,811.50182,,,,,,,,,,,,,,,/muse/elements/blink
2021-04-02 17:50:44.345,1.1804647,0.40443397,0.47727874,1.0908582,1.0377122,0.1366502,0.109662935,0.8027579,0.5926974,0.23842448,0.21441793,0.71124285,0.6850885,0.36237407,0.28377405,0.7791268,0.60885197,0.32872006,-0.118911214,0.2202639,953.73627,780.4762,814.3223,855.82416,775.64105,-0.14801025390625,0.12677001953125,0.9727783203125,5.510406494140625,-4.299163818359375,0.059814453125,1,1.0,1.0,1.0,1.0,65.00
2021-04-02 17:50:44.868,1.1804647,0.3205007,0.20328169,1.0908582,1.0377122,-0.009410808,-0.12797551,0.8027579,0.5926974,0.43421748,0.1873387,0.71124285,0.6850885,0.38314685,0.2716623,0.7791268,0.60885197,0.37100467,-0.08708983,0.2202639,657.1795,792.1612,805.8608,746.63007,797.8022,-0.1611328125,0.1240234375,0.98980712890625,4.29168701171875,0.500946044921875,1.039276123046875,1,1.0,1.0,1.0,1.0,65.00
2021-04-02 17:50:45.176,0.9721681499999,0.3827787350000,0.2148363549999,1.0356728,0.9569138500000,0.0675822510000,-0.039124814999,0.81512825,0.8656636,0.427593515,0.2522003,0.9331216250000,0.7467574699999,0.391974875,0.26643907,0.74160945,0.54168646,0.3175314649999,-0.050581131499,0.3183272000000,912.4359,799.21246500000,812.50916499999,,,,,,,,,,,,,,,/muse/elements/blink
2021-04-02 17:50:45.383,0.7638716,0.44505677,0.22639102,0.9804874,0.8761155,0.14457531,0.04972588,0.8274986,1.1386298,0.42096955,0.3170619,1.1550004,0.80842644,0.4008029,0.26121584,0.7040921,0.47452095,0.26405826,-0.014072433,0.4163905,1167.6923,806.26373,819.15753,925.9341,782.8938,-0.193115234375,0.1151123046875,0.98541259765625,4.71038818359375,-4.314117431640625,3.162689208984375,1,1.0,1.0,1.0,1.0,65.00
2021-04-02 17:50:45.889,0.7638716,0.6028371,0.45370084,0.9804874,0.8761155,0.27502465,0.1844957,0.8274986,1.1386298,0.41941214,0.4293662,1.1550004,0.80842644,0.49533945,0.265254,0.7040921,0.47452095,0.22614066,-0.057265162,0.4163905,1076.63,793.36993,823.9927,899.34064,749.45056,-0.20196533203125,0.12353515625,0.96881103515625,4.269256591796875,-1.495361328125,2.265472412109375,1,1.0,1.0,1.0,1.0,65.00
2021-04-02 17:50:46.415,0.8743534,0.5975172,0.62107605,1.0704781,0.97547644,0.23599221,0.18572019,0.94174296,1.1386298,0.5291148,0.4788179,1.1550004,0.8961796,0.4503393,0.2988564,0.70257396,0.5132551,0.16527228,-0.067884065,0.4533521,537.9121,812.3077,811.50183,711.978,695.05493,-0.2030029296875,0.127197265625,0.96966552734375,4.20196533203125,-5.196380615234375,4.3365478515625,1,1.0,1.0,1.0,1.0,65.00
2021-04-02 17:50:46.487,0.89382958,0.53278635,0.60471076,1.0778256000000,0.98176044,0.2301627050000,0.1826358049999,0.95886228,1.13087155,0.5739401,0.5244608500000,1.1550004,0.9146498,0.43574205,0.31293175,0.70290123,0.5217814000000,0.131352245,-0.0998313975,0.45539694,503.46155,811.09891999999,813.113565,,,,,,,,,,,,,,,/muse/elements/blink
2021-04-02 17:50:46.946,0.91330576,0.4680555,0.58834547,1.0851731,0.98804444,0.2243332,0.17955142,0.9759816,1.1231133,0.6187654,0.5701038,1.1550004,0.93312,0.4211448,0.3270071,0.7032285,0.5303077,0.09743221,-0.13177873,0.45744178,469.011,809.89014,814.7253,689.011,685.38464,-0.20367431640625,0.100341796875,0.9744873046875,4.35150146484375,-4.366455078125,-1.443023681640625,1,1.0,1.0,1.0,1.0,65.00
2021-04-02 17:50:47.448,1.2427661,0.20910487,0.4566188,1.0851731,1.6483617,0.1345503,0.09338191,0.9759816,1.7944816,0.6265946,0.5701038,1.1550004,0.8187492,0.3580074,0.34680668,0.7032285,0.5213911,0.19235516,-0.04865044,0.45744178,908.20514,801.02563,832.0513,793.36993,794.57874,-0.216064453125,0.10406494140625,0.9696044921875,5.084228515625,-4.209442138671875,-1.00189208984375,1,1.0,1.0,1.0,1.0,65.00
2021-04-02 17:50:47.705,1.2427661,0.079824174,0.4042021999999,1.0851731,1.6483617,0.1264610275,0.103160765,0.9759816,1.7944816,0.629484115,0.5253833,1.1550004,0.8187492,0.3548341849999,0.3628262,0.7032285,0.5213911,0.21177096,-0.030717483,0.45744178,1054.6703200000,793.369965,831.64834999999,,,,,,,,,,,,,,,/muse/elements/blink
2021-04-02 17:50:47.956,1.2427661,-0.049456522,0.3517856,1.0851731,1.6483617,0.118371755,0.11293962,0.9759816,1.7944816,0.63237363,0.4806628,1.1550004,0.8187492,0.35166097,0.37884572,0.7032285,0.5213911,0.23118676,-0.012784526,0.45744178,1201.1355,785.7143,831.2454,945.6777,889.2674,-0.2333984375,0.10321044921875,0.91986083984375,1.502838134765625,1.09161376953125,-1.92901611328125,1,1.0,1.0,1.0,1.0,65.00
2021-04-02 17:50:48.466,1.2131867,0.32150358,0.38472655,1.0851731,1.5917654,0.075660564,0.076474145,0.9759816,1.7360322,0.46849346,0.16690478,1.1550004,0.8097625,0.41704854,0.37730995,0.7032285,0.5151587,0.3703567,0.007199458,0.45744178,521.39197,796.5934,794.57874,701.0989,736.9597,-0.2493896484375,0.13092041015625,0.962158203125,3.461761474609375,-4.91973876953125,2.093505859375,1,1.0,1.0,1.0,1.0,65.00
2021-04-02 17:50:48.988,1.2131867,0.4562842,0.5012602,1.0851731,1.5917654,0.18916722,0.16274372,0.9759816,1.7360322,0.50962067,-0.08705429,1.1550004,0.8097625,0.42155927,0.37694263,0.7032285,0.5151587,0.3030318,-0.0011823194,0.45744178,1054.8718,816.337,819.9634,900.9524,759.92676,-0.26220703125,0.10882568359375,0.953857421875,2.579498291015625,-4.80010986328125,0.5682373046875,1,1.0,1.0,1.0,1.0,65.00
2021-04-02 17:50:49.101,1.2131867,0.54821153,0.63157215,1.0851731,1.5917654,0.2138028149999,0.0651184220000,0.9759816,1.7360322,0.489385175,0.05022246,1.1550004,0.8097625,0.404431655,0.264839995,0.7032285,0.5151587,0.282695575,0.0918825653000,0.45744178,921.90476999999,812.9121,813.5165,,,,,,,,,,,,,,,/muse/elements/blink
2021-04-02 17:50:49.496,1.2131867,0.64013886,0.7618841,1.0851731,1.5917654,0.23843841,-0.032506876,0.9759816,1.7360322,0.46914968,0.18749921,1.1550004,0.8097625,0.38730404,0.15273736,0.7032285,0.5151587,0.26235935,0.18494745,0.45744178,788.93774,809.4872,807.0696,810.293,827.619,-0.23199462890625,0.10943603515625,0.97222900390625,5.181427001953125,-4.306640625,-1.18133544921875,1,1.0,1.0,1.0,1.0,65.00
2021-04-02 17:50:50.002,1.2131867,0.54314226,1.0270154,1.0851731,1.5917654,0.17088161,0.32951924,0.9759816,1.7360322,0.39228672,0.32642746,1.1550004,0.8097625,0.27097234,0.16704263,0.7032285,0.5151587,0.13651094,0.08701441,0.45744178,680.9524,809.4872,805.05493,740.58606,632.6007,-0.24017333984375,0.11444091796875,0.968994140625,4.358978271484375,-11.12548828125,-0.157012939453125,1,1.0,1.0,1.0,1.0,70.00
2021-04-02 17:50:50.469,1.2131867,0.489605395,0.94337765,1.0851731,1.5917654,0.0821259043,0.30238445,0.9759816,1.7360322,0.3183344,0.33143623,1.1550004,0.8097625,0.243445015,0.1669209549999,0.7032285,0.5151587,0.11431469,0.06335253,0.45744178,536.300375,804.45057,803.644685,,,,,,,,,,,,,,,/muse/elements/blink
2021-04-02 17:50:50.531,1.2131867,0.43606853,0.8597399,1.0851731,1.5917654,-0.0066298014,0.27524966,0.9759816,1.7360322,0.24438208,0.336445,1.1550004,0.8097625,0.21591769,0.16679928,0.7032285,0.5151587,0.09211844,0.03969065,0.45744178,391.64835,799.41394,802.23444,652.3443,782.8938,-0.201416015625,0.1087646484375,0.976806640625,5.585174560546875,-5.181427001953125,-0.6280517578125,1,2.0,1.0,1.0,2.0,70.00
2021-04-02 17:50:51.059,0.78766805,0.23002934,0.7229749,1.0055654,0.86355746,-0.13606566,0.26596165,0.9107632,0.9588895,0.18724309,0.2247918,1.0074961,0.7327116,0.3673888,0.17915215,0.665464,0.6075512,0.08016594,-0.00964522,0.17675364,818.7546,794.17584,807.8755,816.337,757.1062,-0.2100830078125,0.12603759765625,0.98150634765625,3.985137939453125,-5.330963134765625,0.844879150390625,1,1.0,1.0,1.0,1.0,70.00
2021-04-02 17:50:51.586,0.9255012,0.3520826,0.17864443,0.9247728,0.878885,-0.041213237,0.16705017,0.7686872,0.9854612,0.26438093,0.09500014,1.0156796,0.6313053,0.42970538,0.24195036,0.5885658,0.51063824,0.040531844,0.0765337,0.32681987,550.0,784.5055,807.8755,709.15753,732.9304,-0.2386474609375,0.07470703125,0.94903564453125,0.5682373046875,-5.988922119140625,-3.611297607421875,1,1.0,1.0,1.0,1.0,70.00
2021-04-02 17:50:51.789,0.931264565,0.48629925,0.330079295,0.9108069249999,0.85337815,0.0079272800000,0.20953327,0.7076804,0.9309766,0.254114665,0.0635964085,0.98250118,0.60640665,0.4584404050000,0.255180655,0.578577835,0.4852824500000,0.08042492,0.1166784499999,0.338383245,825.60435,799.816865,819.15755,,,,,,,,,,,,,,,/muse/elements/blink
2021-04-02 17:50:52.099,0.93702793,0.6205159,0.48151416,0.89684105,0.8278713,0.057067797,0.25201637,0.6466736,0.876492,0.2438484,0.032192677,0.94932276,0.581508,0.48717543,0.26841095,0.56858987,0.45992666,0.120317996,0.1568232,0.34994662,1101.2087,815.12823,830.4396,917.47253,869.5238,-0.25042724609375,0.111572265625,0.96954345703125,4.194488525390625,-5.084228515625,2.579498291015625,1,1.0,1.0,1.0,1.0,70.00
2021-04-02 17:50:52.615,1.029968,0.7462926,0.64851326,0.8254344,0.89368993,0.2267609,0.34331006,0.5561486,0.79053044,0.2988906,0.032192677,0.7051916,0.4987677,0.4494332,0.30151555,0.495058,0.38569462,0.43869877,0.20553091,0.43813688,446.84982,813.1135,798.20514,673.2967,634.21246,-0.20611572265625,0.0821533203125,0.9483642578125,3.75335693359375,-10.699310302734375,-4.538421630859375,1,1.0,1.0,1.0,1.0,70.00
2021-04-02 17:50:53.117,1.0530659999999,0.74741832,0.75697571,0.82627452,0.910360565,0.2303106999999,0.435970815,0.5772577999999,0.783965795,0.2864961350000,0.0074993670000,0.6980999,0.48953928,0.44088035,0.30783406,0.4765719,0.37754396,0.4632195850000,0.253982065,0.45788349,534.48716,798.2051,787.32602,,,,,,,,,,,,,,,/muse/elements/blink
2021-04-02 17:50:53.119,1.076164,0.74854404,0.86543816,0.82711464,0.9270312,0.2338605,0.52863157,0.598367,0.77740115,0.27410167,-0.017193943,0.6910082,0.48031086,0.4323275,0.31415257,0.4580858,0.3693933,0.4877404,0.30243322,0.4776301,622.1245,783.2967,776.4469,720.0366,745.0183,-0.1790771484375,0.11334228515625,0.97418212890625,6.68426513671875,-10.205841064453125,-1.39068603515625,1,1.0,1.0,1.0,1.0,70.00
2021-04-02 17:50:53.640,1.076164,0.762023,0.86543816,0.82711464,0.9270312,0.3488634,0.52863157,0.598367,0.77740115,0.2293209,-0.017193943,0.6910082,0.48031086,0.44275486,0.31415257,0.4580858,0.3693933,0.5579007,0.30243322,0.4776301,395.67764,761.9414,795.78754,651.53845,679.34064,-0.11383056640625,0.147705078125,0.97430419921875,5.316009521484375,-9.16656494140625,-2.026214599609375,1,1.0,1.0,1.0,1.0,70.00
2021-04-02 17:50:54.168,1.076164,0.6689351,1.2599496,0.82711464,0.9270312,0.29786673,0.32415533,0.598367,0.77740115,-0.08554637,0.39917973,0.6910082,0.48031086,0.41715994,0.34716102,0.4580858,0.3693933,0.2644674,-0.0031254997,0.4776301,900.14655,804.65204,796.99634,863.0769,846.55676,-0.15338134765625,0.117919921875,0.98321533203125,1.457977294921875,0.40374755859375,2.489776611328125,1,1.0,1.0,1.0,1.0,70.00
2021-04-02 17:50:54.331,1.076164,0.73209295,1.30433125,0.82711464,0.9270312,0.342660965,0.524832915,0.598367,0.77740115,-0.137824245,0.415126165,0.6910082,0.48031086,0.434549285,0.34028287,0.4580858,0.3693933,0.2785074600000,0.0008230653000,0.4776301,1039.560475,799.21247,803.44324000000,,,,,,,,,,,,,,,/muse/elements/blink
2021-04-02 17:50:54.694,1.076164,0.7952508,1.3487129,0.82711464,0.9270312,0.3874552,0.7255105,0.598367,0.77740115,-0.19010212,0.4310726,0.6910082,0.48031086,0.45193863,0.33340472,0.4580858,0.3693933,0.29254752,0.0047716303,0.4776301,1178.9744,793.7729,809.89014,947.28937,922.71063,-0.1715087890625,0.1357421875,0.9915771484375,5.734710693359375,0.889739990234375,-0.01495361328125,1,2.0,1.0,1.0,2.0,70.00
2021-04-02 17:50:55.199,1.076164,0.7952508,1.3856341,0.82711464,0.9270312,0.3874552,0.8015143,0.598367,0.77740115,-0.19010212,0.41518897,0.6910082,0.48031086,0.45193863,0.34989682,0.4580858,0.3693933,0.29254752,-0.0066221883,0.4776301,1108.4615,817.9487,826.8132,925.5311,778.86444,-0.22186279296875,0.11785888671875,0.97381591796875,3.775787353515625,-1.816864013671875,0.59814453125,1,2.0,1.0,1.0,2.0,70.00
2021-04-02 17:50:55.707,0.7094746,0.42674136,1.2019603,0.43052045,0.90564686,0.021308124,0.7435539,0.35921,0.729839,-0.041912097,0.50822526,0.42102996,0.6909366,0.29775336,0.35678136,0.45825955,0.5496675,0.18051384,0.025714157,0.24859042,432.34433,788.5348,807.0696,666.4469,630.58606,-0.21563720703125,0.1092529296875,0.9608154296875,4.42626953125,-4.26177978515625,-0.426177978515625,1,2.0,1.0,1.0,2.0,70.00
2021-04-02 17:50:55.740,0.6729463,0.40852508,0.806681365,0.394647065,0.8658525800000,-0.025746755500,0.3061892499999,0.3305054699999,0.7802394,0.0438296715,0.4917839,0.48249758,0.65391005,0.2643432500000,0.35392171,0.429114025,0.5474833649999,0.275143705,0.1083279985,0.26795872,534.688645,802.23444999999,806.062265,,,,,,,,,,,,,,,/muse/elements/blink
2021-04-02 17:50:56.216,0.636418,0.3903088,0.41140243,0.35877368,0.8260583,-0.072801635,-0.1311754,0.30180094,0.8306398,0.12957144,0.47534254,0.5439652,0.6168835,0.23093314,0.35106206,0.3999685,0.54529923,0.36977357,0.19094184,0.28732702,637.03296,815.9341,805.05493,754.68866,799.41394,-0.18731689453125,0.1300048828125,0.97625732421875,4.493560791015625,-8.516082763671875,1.60003662109375,1,1.0,1.0,1.0,1.0,70.00
2021-04-02 17:50:56.724,0.7082771,0.33524117,0.48172602,0.47562236,0.80359524,0.07048104,0.010936822,0.30818698,0.8329294,0.25867867,0.4843484,0.5439652,0.62792057,0.22069065,0.34552023,0.38686043,0.5522661,0.32292488,0.19116448,0.29029143,809.89014,441.2088,449.67032,592.71063,827.619,-0.13970947265625,0.13287353515625,0.98236083984375,6.47491455078125,-10.549774169921875,6.41510009765625,1,1.0,1.0,1.0,1.0,70.00
2021-04-02 17:50:57.050,0.707877,0.3049278549999,0.47198626,0.48945213,0.76140302,0.0830258399999,0.0172461100000,0.289345655,0.7308403,0.255000515,0.36769236,0.5029600750000,0.604049505,0.19590547,0.33290458,0.359317365,0.5531280249999,0.35427588,0.218533175,0.303156525,883.02202,529.652,544.35896,,,,,,,,,,,,,,,/muse/elements/blink
2021-04-02 17:50:57.243,0.7074769,0.27461454,0.4622465,0.5032819,0.7192108,0.09557064,0.023555398,0.27050433,0.6287512,0.25132236,0.25103632,0.46195495,0.58017844,0.17112029,0.32028893,0.3317743,0.55398995,0.38562688,0.24590187,0.31602162,956.1539,618.0952,639.0476,741.79486,749.45056,-0.10430908203125,0.18475341796875,1.02099609375,9.398345947265625,-10.669403076171875,-7.9254150390625,1,1.0,1.0,1.0,1.0,70.00
2021-04-02 17:50:57.760,0.77695686,0.15611951,0.60765135,0.6368998,0.6449513,0.30158037,0.22257183,0.27979016,0.59971553,-0.004197749,0.06560474,0.41527045,0.60812944,0.19397499,0.33278638,0.26564097,0.5662011,0.17737299,0.19166501,0.3412134,707.9487,803.44324,877.98535,842.52747,963.8095,-0.20501708984375,0.13934326171875,0.98089599609375,0.25421142578125,3.2000732421875,6.41510009765625,1,1.0,1.0,1.0,1.0,70.00
2021-04-02 17:50:58.279,0.77695686,0.15611951,0.60765135,0.6368998,0.6449513,0.30158037,0.22257183,0.27979016,0.59971553,-0.004197749,0.06560474,0.41527045,0.60812944,0.19397499,0.33278638,0.26564097,0.5662011,0.17737299,0.19166501,0.3412134,447.65567,808.2784,813.5165,678.5348,664.0293,-0.12200927734375,0.1192626953125,0.99066162109375,5.136566162109375,-12.57598876953125,-4.17205810546875,1,1.0,1.0,1.0,1.0,70.00
2021-04-02 17:50:58.348,0.77695686,0.15611951,0.60765135,0.6368998,0.6449513,0.30158037,0.22257183,0.27979016,0.59971553,-0.004197749,0.06560474,0.41527045,0.60812944,0.19397499,0.33278638,0.26564097,0.5662011,0.17737299,0.19166501,0.3412134,702.509135,807.0696,818.1502,,,,,,,,,,,,,,,/muse/elements/blink
2021-04-02 17:50:58.803,0.77695686,0.15611951,0.60765135,0.6368998,0.6449513,0.30158037,0.22257183,0.27979016,0.59971553,-0.004197749,0.06560474,0.41527045,0.60812944,0.19397499,0.33278638,0.26564097,0.5662011,0.17737299,0.19166501,0.3412134,957.3626,805.8608,822.7839,877.98535,884.0293,-0.19964599609375,0.13916015625,1.0037841796875,6.512298583984375,-4.702911376953125,4.957122802734375,1,1.0,1.0,1.0,1.0,70.00
2021-04-02 17:50:59.322,0.77695686,0.15611951,0.60765135,0.6368998,0.6449513,0.30158037,0.22257183,0.27979016,0.59971553,-0.004197749,0.06560474,0.41527045,0.60812944,0.19397499,0.33278638,0.26564097,0.5662011,0.17737299,0.19166501,0.3412134,559.2674,811.0989,816.337,735.34796,638.24176,-0.17559814453125,0.1256103515625,0.98602294921875,5.585174560546875,-4.314117431640625,2.51220703125,1,2.0,1.0,1.0,2.0,70.00
2021-04-02 17:50:59.748,1.05620508,0.15611951,0.5605194250000,0.9747279499999,0.665962825,0.30158037,-0.083190234999,0.319555205,0.601974665,-0.004197749,0.0639357889999,0.3976981750000,0.55871159,0.19397499,0.32093104,0.385404635,0.5684395,0.17737299,0.20902335,0.22183822,686.79485,813.315,821.17215,,,,,,,,,,,,,,,/muse/elements/blink
2021-04-02 17:50:59.841,1.3354533,0.15611951,0.5133875,1.3125561,0.68697435,0.30158037,-0.3889523,0.35932025,0.6042338,-0.004197749,0.062266838,0.3801259,0.50929374,0.19397499,0.3090757,0.5051683,0.5706779,0.17737299,0.22638169,0.10246304,814.3223,815.5311,826.0073,812.3077,687.8022,-0.17486572265625,0.1539306640625,0.98858642578125,5.061798095703125,-5.323486328125,3.51409912109375,1,1.0,1.0,1.0,1.0,70.00
2021-04-02 17:51:00.345,1.2191763,0.5128533,0.63839084,1.2349539,0.734703,-0.13039736,-0.12620382,0.26050475,0.69534004,-0.0525916,0.24581268,0.45710254,0.57938063,0.1734024,0.33745435,0.47617632,0.6162345,0.14142334,0.15165688,0.10384151,405.348,806.26373,804.2491,675.31134,676.52014,-0.1912841796875,0.13616943359375,0.9775390625,5.465545654296875,-2.878570556640625,0.067291259765625,1,1.0,1.0,1.0,1.0,70.00
2021-04-02 17:51:00.848,1.019181,0.5499652,0.5677985,1.1029317,0.7691257,0.33367118,0.11038805,0.5746688,0.70005774,-0.017039368,0.28514796,0.4968342,0.6863583,0.28515646,0.4729798,0.47974616,0.6396846,0.14948635,0.08052751,0.23979662,718.4249,820.7692,822.7839,798.20514,770.0,-0.181884765625,0.1168212890625,0.9876708984375,4.246826171875,-4.08233642578125,-1.57012939453125,1,1.0,1.0,1.0,1.0,70.00
2021-04-02 17:51:01.046,0.90413525,0.6157336,0.6583398300000,0.9870267500000,0.7971266800000,0.42750594,0.2079928750000,0.62496345,0.69556162,0.104579391,0.35105401,0.37414176,0.7309091,0.35056874,0.4955785499999,0.470838965,0.6678423200000,0.182270715,0.047695111,0.275872845,961.59345,820.9707,827.21615,,,,,,,,,,,,,,,/muse/elements/blink
2021-04-02 17:51:01.373,0.7890895,0.681502,0.74888116,0.8711218,0.82512766,0.5213407,0.3055977,0.6752581,0.6910655,0.22619815,0.41696006,0.25144932,0.7754599,0.41598102,0.5181773,0.46193177,0.69600004,0.21505508,0.014862712,0.31194907,1204.762,821.1722,831.6484,982.74725,950.10986,-0.23193359375,0.10174560546875,0.96502685546875,-0.426177978515625,2.51220703125,4.269256591796875,1,1.0,1.0,1.0,1.0,70.00
2021-04-02 17:51:01.885,0.7761577,0.76876855,0.7588945,0.7723532,0.83125263,0.59717864,0.33979312,0.82321644,0.6004612,0.23863126,0.4145984,0.10232648,0.8286005,0.40687245,0.54602516,0.48504648,0.69666326,0.2662674,-0.0044834847,0.3869094,1050.0366,806.26373,826.0073,900.9524,838.0952,-0.22161865234375,0.1090087890625,0.95428466796875,6.871185302734375,-1.435546875,7.514190673828125,1,1.0,1.0,1.0,1.0,70.00
2021-04-02 17:51:02.387,0.7761577,0.70663977,0.7386261,0.7723532,0.83125263,0.464519,0.2991627,0.82321644,0.6004612,0.20989345,0.40515795,0.10232648,0.8286005,0.42347723,0.36022756,0.48504648,0.69666326,0.29437113,0.023419995,0.3869094,515.34796,803.44324,813.1135,689.41394,589.89014,-0.17645263671875,0.1192626953125,0.98974609375,4.134674072265625,-2.61688232421875,1.15142822265625,1,1.0,1.0,1.0,1.0,70.00
2021-04-02 17:51:02.439,0.7214904,0.622475035,0.6433770249999,0.73031117,0.637980085,0.322053445,0.221200495,0.6585665700000,0.4688814650000,0.197806245,0.2829418449999,0.36749029,0.73212682,0.396004825,0.33895303,0.42619732,0.55864378,0.263858765,0.0421414475,0.3343376,520.58606,805.65937,815.12820000000,,,,,,,,,,,,,,,/muse/elements/blink
2021-04-02 17:51:02.922,0.6668231,0.5383103,0.54812795,0.68826914,0.44470754,0.17958789,0.14323829,0.4939167,0.33730173,0.18571904,0.16072574,0.6326541,0.63565314,0.36853242,0.3176785,0.36734816,0.4206243,0.2333464,0.0608629,0.2817658,525.82416,807.8755,817.1429,722.0513,745.42126,-0.21221923828125,0.14404296875,0.96673583984375,10.2581787109375,6.407623291015625,9.039459228515625,1,1.0,1.0,1.0,1.0,70.00
2021-04-02 17:51:03.447,0.6919123,0.3045923,0.5062007,0.6762331,0.46567032,-0.018756663,0.17515863,0.47806954,0.39571708,0.3810918,0.20664918,0.6326541,0.63501453,0.4099968,0.23249803,0.35728118,0.43061963,0.2158057,0.097792335,0.28592968,1026.2638,807.8755,813.1135,885.64105,714.3956,-0.15472412109375,0.157958984375,0.98480224609375,6.4898681640625,-7.64129638671875,1.532745361328125,1,1.0,1.0,1.0,1.0,70.00
2021-04-02 17:51:03.758,0.7162434,0.35666887,0.5232342,0.7032916,0.47354868,0.0356619135,0.14639599,0.429326785,0.39417404,0.441731375,0.15807051,0.631885275,0.630013315,0.4031582999999,0.214071015,0.3461930399999,0.426938655,0.2057106799999,0.1161474525,0.30758234,1119.3407,809.08425,818.956,,,,,,,,,,,,,,,/muse/elements/blink
2021-04-02 17:51:03.951,0.7405745,0.40874544,0.5402677,0.7303501,0.48142704,0.09008049,0.11763335,0.38058403,0.392631,0.50237095,0.10949184,0.63111645,0.6250121,0.3963198,0.195644,0.3351049,0.42325768,0.19561566,0.13450257,0.329235,1212.4176,810.293,824.7985,946.08057,726.08057,-0.1845703125,0.14166259765625,0.9771728515625,3.386993408203125,-3.54400634765625,0.07476806640625,1,1.0,1.0,1.0,1.0,70.00
2021-04-02 17:51:04.479,0.8276862,0.445002,0.687896,0.7621067,0.5307022,0.28467396,0.2707269,0.37002355,0.37688813,0.47539464,0.07919918,0.6203253,0.6014475,0.3663782,0.070615344,0.29145184,0.4125316,0.20855542,0.12564847,0.33314374,733.73627,795.78754,804.2491,772.8205,691.4286,-0.18829345703125,0.10821533203125,0.98980712890625,3.93280029296875,-4.97955322265625,-3.416900634765625,1,1.0,1.0,1.0,1.0,70.00
2021-04-02 17:51:04.984,0.8276862,0.48307344,0.687896,0.7621067,0.5307022,0.35977986,0.2707269,0.37002355,0.37688813,0.47371912,0.07919918,0.6203253,0.6014475,0.37798795,0.070615344,0.29145184,0.4125316,0.20712359,0.12564847,0.33314374,418.64468,804.2491,808.2784,680.54944,759.12085,-0.1905517578125,0.118408203125,0.97393798828125,4.583282470703125,-0.82244873046875,7.035675048828125,1,1.0,1.0,1.0,1.0,70.00
2021-04-02 17:51:05.055,0.71359975,0.433788135,0.354685298,0.69378655,0.4522924849999,0.0448382599999,0.0674471599999,0.297678745,0.475255565,0.2452754815,0.134301255,0.49490853,0.514640765,0.39722985,0.231541897,0.39877427,0.45013565,0.248072295,0.139435785,0.274420335,608.42491,811.30035,815.93405000000,,,,,,,,,,,,,,,/muse/elements/blink
2021-04-02 17:51:05.494,0.5995133,0.38450283,0.021474596,0.6254664,0.37388277,-0.27010334,-0.13583258,0.22533394,0.573623,0.016831843,0.18940333,0.36949176,0.42783403,0.41647175,0.39246845,0.5060967,0.4877397,0.289021,0.1532231,0.21569693,798.20514,818.3516,823.5897,821.978,752.27106,-0.18341064453125,0.12713623046875,0.98114013671875,7.04315185546875,-9.91424560546875,6.901092529296875,1,1.0,1.0,1.0,1.0,70.00
2021-04-02 17:51:06.004,0.65994656,0.26028517,-0.05825307,0.7398273,0.3981119,-0.29143676,-0.17319223,0.35559753,0.7125491,0.09602831,0.24339019,0.52143013,0.4439006,0.41236585,0.48214066,0.53330106,0.48059165,0.23674199,0.140545,0.2980648,1211.2087,813.1135,826.8132,940.84247,819.5604,-0.1605224609375,0.10504150390625,0.99859619140625,4.643096923828125,-3.805694580078125,-0.31402587890625,1,1.0,1.0,1.0,1.0,70.00
2021-04-02 17:51:06.425,0.69758168,0.3298302600000,0.05607634,0.7335959,0.434599635,-0.253537965000,-0.184578805,0.3912036,0.73662565,0.09602831,0.2267731949999,0.524210115,0.5247243500000,0.41297954,0.48400938,0.524701,0.481779005,0.2472493350000,0.145085665,0.302648175,821.977975,815.93405000000,821.77655,,,,,,,,,,,,,,,/muse/elements/blink
2021-04-02 17:51:06.525,0.7352168,0.39937535,0.17040575,0.7273645,0.47108737,-0.21563917,-0.19596538,0.42680967,0.7607022,0.09602831,0.2101562,0.5269901,0.6055481,0.41359323,0.4858781,0.51610094,0.48296636,0.25775668,0.14962633,0.30723155,432.74725,818.7546,816.7399,664.83514,653.95605,-0.186767578125,0.13946533203125,0.9735107421875,10.15350341796875,7.529144287109375,4.91973876953125,1,1.0,1.0,1.0,1.0,70.00
2021-04-02 17:51:07.036,0.9697403,0.44187328,0.42428923,0.8233127,0.4667036,-0.13202575,-0.07307105,0.46864426,0.7602971,-0.0013714774,0.19244795,0.4810069,0.69773495,0.43047753,0.45076698,0.5166742,0.48905066,0.28283945,0.115892634,0.24703178,463.7729,799.41394,813.91943,697.47253,695.4579,-0.13946533203125,0.1534423828125,0.96014404296875,7.22259521484375,-11.432037353515625,-2.46734619140625,1,1.0,1.0,1.0,1.0,70.00
2021-04-02 17:51:07.543,1.0527959,0.47435343,0.5224204,0.80273706,0.4757597,-0.03153162,-0.026858926,0.45754406,0.49497557,0.044541717,0.15343988,0.35850635,0.761369,0.45999986,0.32845077,0.4881007,0.49509728,0.29640564,0.06386193,0.15101367,1222.0879,809.89014,809.4872,955.7509,1016.99634,-0.1846923828125,0.15478515625,0.97833251953125,3.99261474609375,-2.28790283203125,3.24493408203125,1,1.0,1.0,1.0,1.0,70.00
2021-04-02 17:51:07.726,1.08674015,0.4395092550000,0.49077971,0.8461250300000,0.4027424,0.028549505,-0.0298576095,0.3900860699999,0.40041675,0.0396247265,0.13543335,0.2488042099999,0.69749952,0.49037058,0.290372045,0.47093586,0.4946214399999,0.25863596,0.0741069749999,0.05925374,971.86815,796.59341999999,831.84983,,,,,,,,,,,,,,,/muse/elements/blink
2021-04-02 17:51:08.043,1.1206844,0.40466508,0.45913902,0.889513,0.3297251,0.08863063,-0.032856293,0.32262808,0.30585793,0.034707736,0.11742682,0.13910207,0.63363004,0.5207413,0.25229332,0.45377102,0.4941456,0.22086628,0.08435202,-0.03250619,721.6484,783.2967,854.21246,652.74725,632.6007,-0.1761474609375,0.17669677734375,1.00140380859375,4.246826171875,-5.1141357421875,7.91046142578125,1,1.0,1.0,1.0,1.0,70.00
2021-04-02 17:51:08.268,1.1068821500000,0.55955124,0.51124178,0.8811281,0.2986281149999,0.169371345,0.0296586185,0.2864718149999,0.303177165,0.072152593,0.098435545,0.12321079,0.59950909,0.533316025,0.24249301,0.42390789,0.503963125,0.18948674,0.11683807,-0.043334838,590.0916,796.79485,835.07328,,,,,,,,,,,,,,,/muse/elements/blink
2021-04-02 17:51:08.557,1.0930799,0.7144374,0.56334454,0.8727432,0.26753113,0.25011206,0.09217353,0.25031555,0.3004964,0.10959745,0.07944427,0.10731951,0.56538814,0.54589075,0.2326927,0.39404476,0.51378065,0.1581072,0.14932412,-0.054163486,458.5348,810.293,815.9341,702.3077,672.0879,-0.174072265625,0.14215087890625,0.99249267578125,5.390777587890625,0.530853271484375,0.58319091796875,1,1.0,1.0,1.0,1.0,70.00
2021-04-02 17:51:09.059,1.0930799,0.81838827,0.6036938199999,0.8727432,0.26753113,0.307742895,0.13497106,0.25031555,0.3004964,0.1190028650000,0.0390988612999,0.10731951,0.56538814,0.51964885,0.2183510699999,0.39404476,0.51378065,0.1659540649999,0.20148031,-0.054163486,413.003665,677.124525,681.75825,,,,,,,,,,,,,,,/muse/elements/blink
2021-04-02 17:51:09.074,1.0930799,0.92233914,0.6440431,0.8727432,0.26753113,0.36537373,0.17776859,0.25031555,0.3004964,0.12840828,-0.0012465474,0.10731951,0.56538814,0.49340695,0.20400944,0.39404476,0.51378065,0.17380093,0.2536365,-0.054163486,367.47253,543.95605,547.5824,501.24542,749.85345,-0.159423828125,0.147705078125,0.98101806640625,4.66552734375,-4.0972900390625,-2.572021484375,1,1.0,1.0,1.0,1.0,70.00
2021-04-02 17:51:09.584,1.0930799,1.0429331,0.73867965,0.8727432,0.26753113,0.41155097,0.27349588,0.25031555,0.3004964,0.06881889,-0.15492335,0.10731951,0.56538814,0.41139364,0.15872985,0.39404476,0.51378065,0.20853414,0.35302243,-0.054163486,408.57144,764.35895,768.7912,639.0476,655.9707,-0.1397705078125,0.15972900390625,0.97308349609375,6.826324462890625,-5.211334228515625,0.201873779296875,1,1.0,1.0,1.0,1.0,70.00
2021-04-02 17:51:10.108,1.0930799,1.0742912,0.73867965,0.8727432,0.26753113,0.4412114,0.27349588,0.25031555,0.3004964,-0.03752055,-0.15492335,0.10731951,0.56538814,0.20934238,0.15872985,0.39404476,0.51378065,0.26094592,0.35302243,-0.054163486,1153.5897,846.55676,851.39197,950.9158,757.1062,-0.12469482421875,0.2138671875,0.97906494140625,10.03387451171875,-4.97955322265625,8.860015869140625,1,2.0,1.0,1.0,2.0,70.00
2021-04-02 17:51:10.178,1.0930799,1.0742912,0.73867965,0.8727432,0.26753113,0.4412114,0.27349588,0.25031555,0.3004964,-0.03752055,-0.15492335,0.10731951,0.56538814,0.20934238,0.15872985,0.39404476,0.51378065,0.26094592,0.35302243,-0.054163486,903.168475,855.62271000000,862.06961,,,,,,,,,,,,,,,/muse/elements/blink
2021-04-02 17:51:10.612,1.0930799,1.0742912,0.73867965,0.8727432,0.26753113,0.4412114,0.27349588,0.25031555,0.3004964,-0.03752055,-0.15492335,0.10731951,0.56538814,0.20934238,0.15872985,0.39404476,0.51378065,0.26094592,0.35302243,-0.054163486,652.74725,864.68866,872.74725,786.1172,652.74725,-0.04254150390625,0.20440673828125,0.98492431640625,5.495452880859375,-7.955322265625,0.79254150390625,1,2.0,1.0,1.0,2.0,70.00
2021-04-02 17:51:11.131,1.0930799,1.0742912,0.73867965,0.8727432,0.26753113,0.4412114,0.27349588,0.25031555,0.3004964,-0.03752055,-0.15492335,0.10731951,0.56538814,0.20934238,0.15872985,0.39404476,0.51378065,0.26094592,0.35302243,-0.054163486,454.10257,824.3956,823.5897,708.3516,664.0293,-0.00726318359375,0.17816162109375,0.9822998046875,2.6019287109375,-5.420684814453125,0.2093505859375,1,2.0,1.0,1.0,2.0,70.00
2021-04-02 17:51:11.656,1.0930799,1.0742912,0.73867965,0.8727432,0.26753113,0.4412114,0.27349588,0.25031555,0.3004964,-0.03752055,-0.15492335,0.10731951,0.56538814,0.20934238,0.15872985,0.39404476,0.51378065,0.26094592,0.35302243,-0.054163486,1040.7693,894.5055,909.41394,979.5238,831.2454,-0.06219482421875,0.24005126953125,0.9736328125,5.84686279296875,-3.686065673828125,3.72344970703125,1,2.0,1.0,1.0,2.0,70.00
2021-04-02 17:51:11.688,1.0930799,1.0742912,0.73867965,0.8727432,0.26753113,0.4412114,0.27349588,0.25031555,0.3004964,-0.03752055,-0.15492335,0.10731951,0.56538814,0.20934238,0.15872985,0.39404476,0.51378065,0.26094592,0.35302243,-0.054163486,1207.3809999999,889.2674,892.2894,,,,,,,,,,,,,,,/muse/elements/blink
2021-04-02 17:51:12.181,1.0930799,1.0742912,0.73867965,0.8727432,0.26753113,0.4412114,0.27349588,0.25031555,0.3004964,-0.03752055,-0.15492335,0.10731951,0.56538814,0.20934238,0.15872985,0.39404476,0.51378065,0.26094592,0.35302243,-0.054163486,1373.9927,884.0293,875.16486,1081.4652,786.52014,-0.0604248046875,0.237548828125,0.9735107421875,2.086029052734375,-2.5421142578125,6.916046142578125,1,2.0,1.0,1.0,2.0,70.00
2021-04-02 17:51:12.707,1.0930799,1.0742912,0.73867965,0.8727432,0.26753113,0.4412114,0.27349588,0.25031555,0.3004964,-0.03752055,-0.15492335,0.10731951,0.56538814,0.20934238,0.15872985,0.39404476,0.51378065,0.26094592,0.35302243,-0.054163486,723.2601,654.7619,649.92676,675.31134,764.35895,-0.0264892578125,0.1602783203125,0.9720458984375,4.2169189453125,-4.7552490234375,10.2581787109375,1,2.0,1.0,1.0,2.0,70.00
2021-04-02 17:51:12.874,1.0930799,1.0742912,0.73867965,0.8727432,0.26753113,0.4412114,0.27349588,0.25031555,0.3004964,-0.03752055,-0.15492335,0.10731951,0.56538814,0.20934238,0.15872985,0.39404476,0.51378065,0.26094592,0.35302243,-0.054163486,909.01105,714.79852,716.2088,,,,,,,,,,,,,,,/muse/elements/blink
2021-04-02 17:51:13.231,1.0930799,1.0742912,0.73867965,0.8727432,0.26753113,0.4412114,0.27349588,0.25031555,0.3004964,-0.03752055,-0.15492335,0.10731951,0.56538814,0.20934238,0.15872985,0.39404476,0.51378065,0.26094592,0.35302243,-0.054163486,1094.762,774.83514,782.49084,876.3736,772.4176,-0.00189208984375,0.2122802734375,0.9935302734375,6.7889404296875,-4.2169189453125,7.230072021484375,1,2.0,1.0,1.0,2.0,70.00
2021-04-02 17:51:13.744,1.0930799,1.0742912,0.73867965,0.8727432,0.26753113,0.4412114,0.27349588,0.25031555,0.3004964,-0.03752055,-0.15492335,0.10731951,0.56538814,0.20934238,0.15872985,0.39404476,0.51378065,0.26094592,0.35302243,-0.054163486,700.696,846.55676,847.3626,811.0989,739.7802,-0.0140380859375,0.194091796875,0.98663330078125,4.508514404296875,-4.725341796875,0.351409912109375,1,2.0,1.0,1.0,2.0,70.00
2021-04-02 17:51:14.208,1.0930799,1.0742912,0.73867965,0.8727432,0.26753113,0.4412114,0.27349588,0.25031555,0.3004964,-0.03752055,-0.15492335,0.10731951,0.56538814,0.20934238,0.15872985,0.39404476,0.51378065,0.26094592,0.35302243,-0.054163486,544.761925,811.70328,809.688625,,,,,,,,,,,,,,,/muse/elements/blink
2021-04-02 17:51:14.271,1.0930799,1.0742912,0.73867965,0.8727432,0.26753113,0.4412114,0.27349588,0.25031555,0.3004964,-0.03752055,-0.15492335,0.10731951,0.56538814,0.20934238,0.15872985,0.39404476,0.51378065,0.26094592,0.35302243,-0.054163486,388.82785,776.8498,772.01465,660.40295,703.1135,-0.01318359375,0.1865234375,0.98712158203125,4.1571044921875,-5.7421875,2.310333251953125,1,2.0,1.0,1.0,2.0,70.00
2021-04-02 17:51:14.435,1.0930799,1.0742912,0.73867965,0.8727432,0.26753113,0.4412114,0.27349588,0.25031555,0.3004964,-0.03752055,-0.15492335,0.10731951,0.56538814,0.20934238,0.15872985,0.39404476,0.51378065,0.26094592,0.35302243,-0.054163486,653.15019000000,805.05495,802.032975,,,,,,,,,,,,,,,/muse/elements/blink
2021-04-02 17:51:14.794,1.0930799,1.0742912,0.73867965,0.8727432,0.26753113,0.4412114,0.27349588,0.25031555,0.3004964,-0.03752055,-0.15492335,0.10731951,0.56538814,0.20934238,0.15872985,0.39404476,0.51378065,0.26094592,0.35302243,-0.054163486,917.47253,833.2601,832.0513,856.2271,768.3883,-0.01678466796875,0.2039794921875,0.98565673828125,5.719757080078125,-8.291778564453125,0.0299072265625,1,2.0,1.0,1.0,2.0,70.00
2021-04-02 17:51:15.324,1.0930799,1.0742912,0.73867965,0.8727432,0.26753113,0.4412114,0.27349588,0.25031555,0.3004964,-0.03752055,-0.15492335,0.10731951,0.56538814,0.20934238,0.15872985,0.39404476,0.51378065,0.26094592,0.35302243,-0.054163486,1332.8938,867.1062,871.53845,1068.5714,963.8095,-0.01959228515625,0.20068359375,0.9798583984375,1.256103515625,-0.95703125,-5.69732666015625,1,2.0,1.0,1.0,2.0,70.00
2021-04-02 17:51:15.647,1.0930799,1.0742912,0.73867965,0.8727432,0.26753113,0.4412114,0.27349588,0.25031555,0.3004964,-0.03752055,-0.15492335,0.10731951,0.56538814,0.20934238,0.15872985,0.39404476,0.51378065,0.26094592,0.35302243,-0.054163486,1122.96705,859.0476,864.285705,,,,,,,,,,,,,,,/muse/elements/blink
2021-04-02 17:51:15.850,1.0930799,1.0742912,0.73867965,0.8727432,0.26753113,0.4412114,0.27349588,0.25031555,0.3004964,-0.03752055,-0.15492335,0.10731951,0.56538814,0.20934238,0.15872985,0.39404476,0.51378065,0.26094592,0.35302243,-0.054163486,913.0403,850.989,857.03296,857.4359,761.13556,-0.055419921875,0.1324462890625,0.98681640625,9.981536865234375,0.665435791015625,-6.362762451171875,1,2.0,1.0,1.0,2.0,70.00
2021-04-02 17:51:16.353,1.0930799,1.0742912,0.73867965,0.8727432,0.26753113,0.4412114,0.27349588,0.25031555,0.3004964,-0.03752055,-0.15492335,0.10731951,0.56538814,0.20934238,0.15872985,0.39404476,0.51378065,0.26094592,0.35302243,-0.054163486,1275.6776,859.85345,817.9487,1025.8608,844.5421,-0.17291259765625,0.18890380859375,0.94061279296875,-0.844879150390625,-5.450592041015625,-15.977935791015625,1,2.0,1.0,1.0,2.0,70.00
2021-04-02 17:51:16.865,1.0930799,1.0742912,0.71447104,0.8727432,0.26753113,0.4412114,0.43591613,0.25031555,0.3004964,-0.03752055,0.17647974,0.10731951,0.56538814,0.20934238,0.37744224,0.39404476,0.51378065,0.26094592,-0.043385863,-0.054163486,512.1245,699.89014,685.38464,602.7839,761.53845,-0.12762451171875,0.20654296875,1.000732421875,8.112335205078125,0.46356201171875,6.9683837890625,1,2.0,1.0,1.0,2.0,70.00
2021-04-02 17:51:16.947,1.0930799,1.0742912,0.71447104,0.8727432,0.26753113,0.4412114,0.43591613,0.25031555,0.3004964,-0.03752055,0.17647974,0.10731951,0.56538814,0.20934238,0.37744224,0.39404476,0.51378065,0.26094592,-0.043385863,-0.054163486,493.589715,754.89014,765.76927,,,,,,,,,,,,,,,/muse/elements/blink
2021-04-02 17:51:17.379,1.0930799,1.0742912,0.71447104,0.8727432,0.26753113,0.4412114,0.43591613,0.25031555,0.3004964,-0.03752055,0.17647974,0.10731951,0.56538814,0.20934238,0.37744224,0.39404476,0.51378065,0.26094592,-0.043385863,-0.054163486,475.05493,809.89014,846.1539,727.6923,676.52014,-0.107177734375,0.20330810546875,0.96112060546875,4.47113037109375,-4.583282470703125,-0.097198486328125,1,2.0,1.0,1.0,2.0,70.00
2021-04-02 17:51:17.882,1.0930799,1.0742912,0.56417567,0.8727432,0.26753113,0.4412114,0.5378531,0.25031555,0.3004964,-0.03752055,0.08655411,0.10731951,0.56538814,0.20934238,0.3960735,0.39404476,0.51378065,0.26094592,-0.11052413,-0.054163486,1221.6849,877.1795,869.12085,1002.0879,732.9304,-0.10235595703125,0.23297119140625,0.97796630859375,3.39447021484375,-2.056121826171875,5.0244140625,1,2.0,1.0,1.0,2.0,70.00
2021-04-02 17:51:18.272,1.0930799,1.0742912,0.56417567,0.8727432,0.26753113,0.4412114,0.5378531,0.25031555,0.3004964,-0.03752055,0.08655411,0.10731951,0.56538814,0.20934238,0.3960735,0.39404476,0.51378065,0.26094592,-0.11052413,-0.054163486,933.18678,853.4066,859.249075,,,,,,,,,,,,,,,/muse/elements/blink
2021-04-02 17:51:18.391,1.0930799,1.0742912,0.56417567,0.8727432,0.26753113,0.4412114,0.5378531,0.25031555,0.3004964,-0.03752055,0.08655411,0.10731951,0.56538814,0.20934238,0.3960735,0.39404476,0.51378065,0.26094592,-0.11052413,-0.054163486,644.68866,829.6337,849.3773,772.4176,683.7729,-0.12713623046875,0.1917724609375,0.97113037109375,3.78326416015625,-1.457977294921875,-0.740203857421875,1,2.0,1.0,1.0,2.0,70.00
2021-04-02 17:51:18.901,1.0930799,1.0742912,0.56417567,0.8727432,0.26753113,0.4412114,0.5378531,0.25031555,0.3004964,-0.03752055,0.08655411,0.10731951,0.56538814,0.20934238,0.3960735,0.39404476,0.51378065,0.26094592,-0.11052413,-0.054163486,570.9524,833.2601,850.18317,813.1135,630.18317,-0.1177978515625,0.182373046875,0.9718017578125,5.9515380859375,-11.37969970703125,4.1571044921875,1,2.0,1.0,1.0,2.0,70.00
2021-04-02 17:51:19.415,1.0930799,1.0742912,0.56417567,0.8727432,0.26753113,0.4412114,0.5378531,0.25031555,0.3004964,-0.03752055,0.08655411,0.10731951,0.56538814,0.20934238,0.3960735,0.39404476,0.51378065,0.26094592,-0.11052413,-0.054163486,612.8571,531.4652,541.53845,573.36993,822.7839,-0.059326171875,0.2315673828125,0.97900390625,7.8955078125,-8.2244873046875,8.531036376953125,1,2.0,1.0,1.0,2.0,70.00
2021-04-02 17:51:19.480,1.0930799,1.0742912,0.56417567,0.8727432,0.26753113,0.4412114,0.5378531,0.25031555,0.3004964,-0.03752055,0.08655411,0.10731951,0.56538814,0.20934238,0.3960735,0.39404476,0.51378065,0.26094592,-0.11052413,-0.054163486,906.9963,670.8791,670.07323999999,,,,,,,,,,,,,,,/muse/elements/blink
2021-04-02 17:51:19.921,1.0930799,1.0742912,0.56417567,0.8727432,0.26753113,0.4412114,0.5378531,0.25031555,0.3004964,-0.03752055,0.08655411,0.10731951,0.56538814,0.20934238,0.3960735,0.39404476,0.51378065,0.26094592,-0.11052413,-0.054163486,1201.1355,810.293,798.60803,921.9048,867.9121,0.01483154296875,0.2598876953125,0.957763671875,6.676788330078125,-3.102874755859375,0.46356201171875,1,2.0,1.0,1.0,2.0,70.00
2021-04-02 17:51:20.433,1.0930799,1.0742912,0.56417567,0.8727432,0.26753113,0.4412114,0.5378531,0.25031555,0.3004964,-0.03752055,0.08655411,0.10731951,0.56538814,0.20934238,0.3960735,0.39404476,0.51378065,0.26094592,-0.11052413,-0.054163486,933.5897,853.8095,845.7509,852.6007,730.9158,0.00958251953125,0.294677734375,0.980712890625,6.721649169921875,-3.99261474609375,0.04486083984375,1,2.0,1.0,1.0,2.0,70.00
2021-04-02 17:51:20.717,1.0930799,1.0742912,0.56417567,0.8727432,0.26753113,0.4412114,0.5378531,0.25031555,0.3004964,-0.03752055,0.08655411,0.10731951,0.56538814,0.20934238,0.3960735,0.39404476,0.51378065,0.26094592,-0.11052413,-0.054163486,887.45418,813.9194,811.0989,,,,,,,,,,,,,,,/muse/elements/blink
2021-04-02 17:51:20.941,1.0930799,1.0742912,0.56417567,0.8727432,0.26753113,0.4412114,0.5378531,0.25031555,0.3004964,-0.03752055,0.08655411,0.10731951,0.56538814,0.20934238,0.3960735,0.39404476,0.51378065,0.26094592,-0.11052413,-0.054163486,841.31866,774.0293,776.4469,800.6227,850.18317,0.00799560546875,0.26318359375,0.93243408203125,4.478607177734375,-3.050537109375,-3.4991455078125,1,2.0,1.0,1.0,2.0,70.00
2021-04-02 17:51:21.454,1.0930799,1.0742912,0.56417567,0.8727432,0.26753113,0.4412114,0.5378531,0.25031555,0.3004964,-0.03752055,0.08655411,0.10731951,0.56538814,0.20934238,0.3960735,0.39404476,0.51378065,0.26094592,-0.11052413,-0.054163486,1207.1794,836.4835,815.9341,929.15753,881.2088,-0.009765625,0.27001953125,0.962646484375,4.358978271484375,-4.403839111328125,1.099090576171875,1,2.0,1.0,1.0,2.0,70.00
2021-04-02 17:51:21.961,1.0930799,1.0742912,0.56417567,0.8727432,0.26753113,0.4412114,0.5378531,0.25031555,0.3004964,-0.03752055,0.08655411,0.10731951,0.56538814,0.20934238,0.3960735,0.39404476,0.51378065,0.26094592,-0.11052413,-0.054163486,977.50916,860.65936,863.0769,890.07324,651.9414,0.0084228515625,0.2496337890625,0.96588134765625,-2.205657958984375,-3.656158447265625,-3.147735595703125,1,2.0,1.0,1.0,2.0,70.00
2021-04-02 17:51:22.015,1.0930799,1.0742912,0.56417567,0.8727432,0.26753113,0.4412114,0.5378531,0.25031555,0.3004964,-0.03752055,0.08655411,0.10731951,0.56538814,0.20934238,0.3960735,0.39404476,0.51378065,0.26094592,-0.11052413,-0.054163486,714.19414,819.96337999999,826.81317,,,,,,,,,,,,,,,/muse/elements/blink
2021-04-02 17:51:22.472,1.0930799,1.0742912,0.56417567,0.8727432,0.26753113,0.4412114,0.5378531,0.25031555,0.3004964,-0.03752055,0.08655411,0.10731951,0.56538814,0.20934238,0.3960735,0.39404476,0.51378065,0.26094592,-0.11052413,-0.054163486,450.87912,779.2674,790.54944,700.696,701.0989,-0.053466796875,0.25616455078125,0.97503662109375,2.130889892578125,3.102874755859375,3.117828369140625,1,2.0,1.0,1.0,2.0,70.00
2021-04-02 17:51:22.981,1.0930799,1.0742912,0.56417567,0.8727432,0.26753113,0.4412114,0.5378531,0.25031555,0.3004964,-0.03752055,0.08655411,0.10731951,0.56538814,0.20934238,0.3960735,0.39404476,0.51378065,0.26094592,-0.11052413,-0.054163486,601.5751,815.5311,814.3223,744.21246,869.5238,-0.0758056640625,0.23846435546875,0.967041015625,5.944061279296875,-0.91217041015625,-2.863616943359375,1,2.0,1.0,1.0,2.0,70.00
2021-04-02 17:51:23.347,1.0930799,1.0742912,0.56417567,0.8727432,0.26753113,0.4412114,0.5378531,0.25031555,0.3004964,-0.03752055,0.08655411,0.10731951,0.56538814,0.20934238,0.3960735,0.39404476,0.51378065,0.26094592,-0.11052413,-0.054163486,840.31135000000,808.88276999999,812.50915000000,,,,,,,,,,,,,,,/muse/elements/blink
2021-04-02 17:51:23.494,1.0930799,1.0742912,0.56417567,0.8727432,0.26753113,0.4412114,0.5378531,0.25031555,0.3004964,-0.03752055,0.08655411,0.10731951,0.56538814,0.20934238,0.3960735,0.39404476,0.51378065,0.26094592,-0.11052413,-0.054163486,1079.0476,802.23444,810.696,898.93774,780.07324,-0.0518798828125,0.21783447265625,0.981201171875,4.17205810546875,-3.6785888671875,-1.45050048828125,1,2.0,1.0,1.0,2.0,70.00
2021-04-02 17:51:24.002,1.0930799,1.0742912,0.56417567,0.8727432,0.26753113,0.4412114,0.5378531,0.25031555,0.3004964,-0.03752055,0.08655411,0.10731951,0.56538814,0.20934238,0.3960735,0.39404476,0.51378065,0.26094592,-0.11052413,-0.054163486,1105.641,774.43225,776.8498,879.59705,774.83514,0.0537109375,0.2396240234375,0.967529296875,4.029998779296875,-13.1591796875,-0.127105712890625,1,2.0,1.0,1.0,2.0,70.00
2021-04-02 17:51:24.515,1.0930799,1.0742912,0.56417567,0.8727432,0.26753113,0.4412114,0.5378531,0.25031555,0.3004964,-0.03752055,0.08655411,0.10731951,0.56538814,0.20934238,0.3960735,0.39404476,0.51378065,0.26094592,-0.11052413,-0.054163486,578.20514,726.4835,711.978,675.31134,665.64105,0.04937744140625,0.2506103515625,0.96722412109375,3.93280029296875,-8.32916259765625,3.058013916015625,1,2.0,1.0,1.0,2.0,70.00
2021-04-02 17:51:24.794,1.0930799,1.0742912,0.56417567,0.8727432,0.26753113,0.4412114,0.5378531,0.25031555,0.3004964,-0.03752055,0.08655411,0.10731951,0.56538814,0.20934238,0.3960735,0.39404476,0.51378065,0.26094592,-0.11052413,-0.054163486,854.01102,788.937735,778.0586,,,,,,,,,,,,,,,/muse/elements/blink
2021-04-02 17:51:25.023,1.0930799,1.0742912,0.56417567,0.8727432,0.26753113,0.4412114,0.5378531,0.25031555,0.3004964,-0.03752055,0.08655411,0.10731951,0.56538814,0.20934238,0.3960735,0.39404476,0.51378065,0.26094592,-0.11052413,-0.054163486,1129.8169,851.39197,844.1392,924.7253,816.7399,0.0064697265625,0.22125244140625,0.97137451171875,5.4730224609375,-0.919647216796875,-5.03936767578125,1,2.0,1.0,1.0,2.0,70.00
2021-04-02 17:51:25.533,1.0930799,1.0742912,0.56417567,0.8727432,0.26753113,0.4412114,0.5378531,0.25031555,0.3004964,-0.03752055,0.08655411,0.10731951,0.56538814,0.20934238,0.3960735,0.39404476,0.51378065,0.26094592,-0.11052413,-0.054163486,1184.6154,842.52747,846.9597,940.0366,775.64105,0.0447998046875,0.2667236328125,0.96685791015625,4.11224365234375,-4.02252197265625,2.03369140625,1,2.0,1.0,1.0,2.0,70.00
2021-04-02 17:51:26.042,1.0930799,1.0742912,0.56417567,0.8727432,0.26753113,0.4412114,0.5378531,0.25031555,0.3004964,-0.03752055,0.08655411,0.10731951,0.56538814,0.20934238,0.3960735,0.39404476,0.51378065,0.26094592,-0.11052413,-0.054163486,707.1429,823.5897,832.8571,807.0696,649.92676,-0.04534912109375,0.26348876953125,0.97906494140625,5.2337646484375,-10.06378173828125,10.03387451171875,1,2.0,1.0,1.0,2.0,70.00
2021-04-02 17:51:26.105,1.0930799,1.0742912,0.56417567,0.8727432,0.26753113,0.4412114,0.5378531,0.25031555,0.3004964,-0.03752055,0.08655411,0.10731951,0.56538814,0.20934238,0.3960735,0.39404476,0.51378065,0.26094592,-0.11052413,-0.054163486,537.9121,787.72890000000,790.54943,,,,,,,,,,,,,,,/muse/elements/blink
2021-04-02 17:51:26.554,1.0930799,1.0742912,0.56417567,0.8727432,0.26753113,0.4412114,0.5378531,0.25031555,0.3004964,-0.03752055,0.08655411,0.10731951,0.56538814,0.20934238,0.3960735,0.39404476,0.51378065,0.26094592,-0.11052413,-0.054163486,368.6813,751.8681,748.24176,654.7619,681.75824,0.02099609375,0.28607177734375,0.959228515625,1.772003173828125,-6.661834716796875,-3.401947021484375,1,2.0,1.0,1.0,2.0,70.00
2021-04-02 17:51:27.061,1.0930799,1.0742912,0.56417567,0.8727432,0.26753113,0.4412114,0.5378531,0.25031555,0.3004964,-0.03752055,0.08655411,0.10731951,0.56538814,0.20934238,0.3960735,0.39404476,0.51378065,0.26094592,-0.11052413,-0.054163486,724.87177,695.4579,701.50183,718.022,870.7326,0.0443115234375,0.27679443359375,0.9813232421875,3.409423828125,-2.923431396484375,-0.04486083984375,1,2.0,1.0,1.0,2.0,70.00
2021-04-02 17:51:27.294,1.0930799,1.0742912,0.56417567,0.8727432,0.26753113,0.4412114,0.5378531,0.25031555,0.3004964,-0.03752055,0.08655411,0.10731951,0.56538814,0.20934238,0.3960735,0.39404476,0.51378065,0.26094592,-0.11052413,-0.054163486,980.934035,758.5165,765.567765,,,,,,,,,,,,,,,/muse/elements/blink
2021-04-02 17:51:27.572,1.0930799,1.0742912,0.56417567,0.8727432,0.26753113,0.4412114,0.5378531,0.25031555,0.3004964,-0.03752055,0.08655411,0.10731951,0.56538814,0.20934238,0.3960735,0.39404476,0.51378065,0.26094592,-0.11052413,-0.054163486,1236.9963,821.5751,829.6337,935.2015,820.3663,0.04986572265625,0.27642822265625,0.9676513671875,3.46923828125,-5.330963134765625,0.67291259765625,1,2.0,1.0,1.0,2.0,70.00
2021-04-02 17:51:28.083,1.0930799,1.0742912,0.56417567,0.8727432,0.26753113,0.4412114,0.5378531,0.25031555,0.3004964,-0.03752055,0.08655411,0.10731951,0.56538814,0.20934238,0.3960735,0.39404476,0.51378065,0.26094592,-0.11052413,-0.054163486,924.7253,811.0989,809.89014,823.5897,770.80585,0.02447509765625,0.28155517578125,0.96343994140625,4.822540283203125,-2.669219970703125,-0.85235595703125,1,2.0,1.0,1.0,2.0,70.00
2021-04-02 17:51:28.593,1.0930799,1.0742912,0.56417567,0.8727432,0.26753113,0.4412114,0.5378531,0.25031555,0.3004964,-0.03752055,0.08655411,0.10731951,0.56538814,0.20934238,0.3960735,0.39404476,0.51378065,0.26094592,-0.11052413,-0.054163486,503.663,815.12823,854.21246,748.24176,675.31134,0.10321044921875,0.2613525390625,0.9796142578125,1.637420654296875,-4.972076416015625,8.321685791015625,1,2.0,1.0,1.0,2.0,70.00
2021-04-02 17:51:28.726,1.0930799,1.0742912,0.56417567,0.8727432,0.26753113,0.4412114,0.5378531,0.25031555,0.3004964,-0.03752055,0.08655411,0.10731951,0.56538814,0.20934238,0.3960735,0.39404476,0.51378065,0.26094592,-0.11052413,-0.054163486,526.8315,813.31503,815.73260499999,,,,,,,,,,,,,,,/muse/elements/blink
2021-04-02 17:51:29.101,1.0930799,1.0742912,0.56417567,0.8727432,0.26753113,0.4412114,0.5378531,0.25031555,0.3004964,-0.03752055,0.08655411,0.10731951,0.56538814,0.20934238,0.3960735,0.39404476,0.51378065,0.26094592,-0.11052413,-0.054163486,550.0,811.50183,777.25275,722.8571,697.8755,0.017333984375,0.25811767578125,1.02801513671875,2.938385009765625,10.6170654296875,-1.973876953125,1,2.0,1.0,1.0,2.0,70.00
2021-04-02 17:51:29.614,1.0930799,1.4923838,0.56417567,0.8727432,0.26753113,1.5054065,0.5378531,0.25031555,0.3004964,0.9703319,0.08655411,0.10731951,0.56538814,0.2050238,0.3960735,0.39404476,0.51378065,-0.1528014,-0.11052413,-0.054163486,1035.9341,755.89746,763.95605,848.97437,818.7546,-3.662109375E-4,0.205322265625,0.9730224609375,1.4654541015625,-14.303131103515625,-14.976043701171875,1,2.0,1.0,1.0,2.0,70.00
2021-04-02 17:51:29.857,1.0930799,1.4923838,0.56417567,0.8727432,0.26753113,1.5054065,0.5378531,0.25031555,0.3004964,0.9703319,0.08655411,0.10731951,0.56538814,0.2050238,0.3960735,0.39404476,0.51378065,-0.1528014,-0.11052413,-0.054163486,759.72529,781.28208,788.33334,,,,,,,,,,,,,,,/muse/elements/blink
2021-04-02 17:51:30.122,1.0930799,1.4923838,0.56417567,0.8727432,0.26753113,1.5054065,0.5378531,0.25031555,0.3004964,0.9703319,0.08655411,0.10731951,0.56538814,0.2050238,0.3960735,0.39404476,0.51378065,-0.1528014,-0.11052413,-0.054163486,483.51648,806.6667,812.71063,711.1722,633.00366,-0.0201416015625,0.2440185546875,0.962646484375,7.454376220703125,-0.6878662109375,-2.97576904296875,1,2.0,1.0,1.0,2.0,70.00
2021-04-02 17:51:30.636,1.0930799,1.5162503,0.56417567,0.8727432,0.26753113,1.5768183,0.5378531,0.25031555,0.3004964,0.9575322,0.08655411,0.10731951,0.56538814,0.22118369,0.3960735,0.39404476,0.51378065,-0.1326753,-0.11052413,-0.054163486,668.46155,809.89014,807.47253,756.7033,696.6667,-0.02880859375,0.25146484375,0.97491455078125,5.36834716796875,-1.981353759765625,-8.082427978515625,1,2.0,1.0,1.0,2.0,70.00
2021-04-02 17:51:31.142,1.0930799,1.5162503,0.56417567,0.8727432,0.26753113,1.5768183,0.5378531,0.25031555,0.3004964,0.9575322,0.08655411,0.10731951,0.56538814,0.22118369,0.3960735,0.39404476,0.51378065,-0.1326753,-0.11052413,-0.054163486,1067.7656,783.69965,788.5348,869.12085,827.619,0.00244140625,0.273193359375,0.941650390625,6.557159423828125,-12.822723388671875,5.121612548828125,1,2.0,1.0,1.0,2.0,60.00
2021-04-02 17:51:31.260,1.0930799,1.5162503,0.56417567,0.8727432,0.26753113,1.5768183,0.5378531,0.25031555,0.3004964,0.9575322,0.08655411,0.10731951,0.56538814,0.22118369,0.3960735,0.39404476,0.51378065,-0.1326753,-0.11052413,-0.054163486,1103.4249,802.234425,808.0769,,,,,,,,,,,,,,,/muse/elements/blink
