TimeStamp,Delta_TP9,Delta_AF7,Delta_AF8,Delta_TP10,Theta_TP9,Theta_AF7,Theta_AF8,Theta_TP10,Alpha_TP9,Alpha_AF7,Alpha_AF8,Alpha_TP10,Beta_TP9,Beta_AF7,Beta_AF8,Beta_TP10,Gamma_TP9,Gamma_AF7,Gamma_AF8,Gamma_TP10,RAW_TP9,RAW_AF7,RAW_AF8,RAW_TP10,AUX_RIGHT,Accelerometer_X,Accelerometer_Y,Accelerometer_Z,Gyro_X,Gyro_Y,Gyro_Z,HeadBandOn,HSI_TP9,HSI_AF7,HSI_AF8,HSI_TP10,Battery,Elements
2021-04-28 11:39:39.783,0.31651142,-0.01593712,-0.38670552,0.394278,0.47205493,-0.37432998,-0.5190441,0.19744049,0.5512767,0.021598505,0.035357583,0.53841096,0.15172695,-0.20919432,-0.16145967,0.38396508,-0.49191964,-0.5893527,-0.71369636,0.10888345,720.84247,792.5641,797.3993,715.6044,851.79486,0.4412841796875,-0.026611328125,0.89935302734375,4.239349365234375,-4.613189697265625,1.74957275390625,1,2.0,1.0,1.0,2.0,90.00
2021-04-28 11:39:40.067,,,,,,,,,,,,,,,,,,,,,,,,,,,,,,,,,,,,,,/muse/elements/blink
2021-04-28 11:39:40.296,0.31651142,0.1821638,0.07826225,0.394278,0.47205493,-0.1946104,-0.3154047,0.19744049,0.5512767,0.26834944,0.16379033,0.53841096,0.15172695,-0.030843593,-0.14965916,0.38396508,-0.49191964,-0.50892967,-0.6234126,0.10888345,840.5128,806.26373,805.8608,846.55676,846.55676,0.43359375,-0.02593994140625,0.9044189453125,4.306640625,-4.14215087890625,0.7177734375,1,2.0,1.0,1.0,2.0,90.00
2021-04-28 11:39:40.805,0.31651142,0.3632857,0.11177427,0.394278,0.47205493,0.028676642,-0.16012219,0.19744049,0.5512767,0.30052692,0.26316503,0.53841096,0.15172695,-0.01603428,-0.11805847,0.38396508,-0.49191964,-0.42999226,-0.56749594,0.10888345,776.4469,800.2198,813.5165,782.49084,732.1245,0.4559326171875,-0.00714111328125,0.92425537109375,4.523468017578125,-1.31591796875,0.2392578125,1,2.0,1.0,1.0,2.0,90.00
2021-04-28 11:39:40.955,,,,,,,,,,,,,,,,,,,,,,,,,,,,,,,,,,,,,,/muse/elements/blink
2021-04-28 11:39:41.267,,,,,,,,,,,,,,,,,,,,,,,,,,,,,,,,,,,,,,/muse/elements/blink
2021-04-28 11:39:41.321,0.31651142,0.386995,0.20021652,0.394278,0.47205493,0.07345184,0.067458175,0.19744049,0.5512767,0.36567497,0.33619708,0.53841096,0.15172695,-0.052755285,-0.13312325,0.38396508,-0.49191964,-0.43720946,-0.5098612,0.10888345,804.2491,802.6374,810.696,814.7253,702.71063,0.3380126953125,-0.0074462890625,0.93798828125,3.3795166015625,7.82073974609375,-4.3365478515625,1,2.0,1.0,1.0,2.0,90.00
2021-04-28 11:39:41.660,,,,,,,,,,,,,,,,,,,,,,,,,,,,,,,,,,,,,,/muse/elements/blink
2021-04-28 11:39:41.836,0.31651142,0.5315018,0.37299988,0.394278,0.47205493,0.22936273,0.28545785,0.19744049,0.5512767,0.45046365,0.35032728,0.53841096,0.15172695,-0.13538197,-0.07887261,0.38396508,-0.49191964,-0.5688561,-0.52779305,0.10888345,821.5751,806.26373,811.0989,832.4542,670.87915,0.19561767578125,0.0062255859375,0.959716796875,6.527252197265625,6.77398681640625,1.86920166015625,1,2.0,1.0,1.0,2.0,90.00
2021-04-28 11:39:42.342,0.31651142,0.7620661,0.96123964,0.394278,0.47205493,0.46230027,0.6287691,0.19744049,0.5512767,0.45784748,0.31925753,0.53841096,0.15172695,-0.12313338,-0.064691946,0.38396508,-0.49191964,-0.6426734,-0.534942,0.10888345,907.8022,841.7216,785.31134,877.1795,817.5458,0.06298828125,-0.05926513671875,1.0174560546875,2.250518798828125,5.21881103515625,-18.2733154296875,1,2.0,1.0,1.0,2.0,90.00
2021-04-28 11:39:42.858,0.31651142,1.0244921,1.0024713,0.394278,0.47205493,0.7025255,0.69353926,0.19744049,0.5512767,0.5897914,0.48723927,0.53841096,0.15172695,-0.067564614,0.05213664,0.38396508,-0.49191964,-0.6116347,-0.4768155,0.10888345,794.57874,812.3077,803.0403,785.7143,693.44324,0.1220703125,0.01361083984375,0.99761962890625,21.989288330078125,-10.250701904296875,-53.287200927734375,1,2.0,1.0,1.0,2.0,90.00
2021-04-28 11:39:43.360,0.31651142,1.1760612,1.1267748,0.394278,0.47205493,1.0565965,0.96506405,0.19744049,0.5512767,0.6808536,0.55733615,0.53841096,0.15172695,-0.045061752,0.15714581,0.38396508,-0.49191964,-0.47473818,-0.45867208,0.10888345,785.31134,804.65204,805.05493,788.1319,785.31134,0.086669921875,0.2177734375,0.9854736328125,14.28070068359375,-6.930999755859375,-2.10845947265625,1,2.0,1.0,1.0,2.0,90.00
2021-04-28 11:39:43.806,,,,,,,,,,,,,,,,,,,,,,,,,,,,,,,,,,,,,,/muse/elements/blink
2021-04-28 11:39:43.873,0.31651142,1.1184348,1.0152385,0.394278,0.47205493,1.0422465,0.8836302,0.19744049,0.5512767,0.574239,0.5142106,0.53841096,0.15172695,-0.04157369,0.14618848,0.38396508,-0.49191964,-0.44678646,-0.4801267,0.10888345,819.9634,815.12823,809.0842,831.2454,773.6264,0.07696533203125,0.248779296875,0.97430419921875,4.433746337890625,-7.005767822265625,2.28790283203125,1,2.0,1.0,1.0,2.0,90.00
2021-04-28 11:39:44.381,0.31651142,0.9228949,0.99990255,0.394278,0.47205493,0.8082367,0.9136596,0.19744049,0.5512767,0.67214143,0.50305194,0.53841096,0.15172695,0.026598407,0.05990955,0.38396508,-0.49191964,-0.5520085,-0.5831508,0.10888345,826.0073,808.2784,805.05493,803.0403,903.7729,0.0941162109375,0.23968505859375,0.97613525390625,4.358978271484375,-8.553466796875,1.03179931640625,1,2.0,1.0,1.0,2.0,90.00
2021-04-28 11:39:44.891,0.31651142,0.5910071,0.77783954,0.394278,0.47205493,-0.20096001,0.5021244,0.19744049,0.5512767,0.53344077,0.3695435,0.53841096,0.15172695,0.006581647,-0.14122923,0.38396508,-0.49191964,-0.5468114,-0.71033454,0.10888345,811.50183,808.68134,801.4286,800.2198,658.3883,0.12969970703125,0.2406005859375,0.96429443359375,3.536529541015625,-5.084228515625,-0.2093505859375,1,2.0,1.0,1.0,2.0,90.00
2021-04-28 11:39:45.398,0.31651142,0.52156144,0.40432426,0.2780463,0.47205493,-0.19847074,0.37566844,0.3458776,0.5512767,0.53344077,0.31263128,0.8124228,0.15172695,0.027539525,-0.20332901,0.19510882,-0.49191964,-0.5837798,-0.68743736,-0.22694758,839.707,772.8205,836.08057,883.22345,718.022,0.13555908203125,0.2313232421875,0.97235107421875,3.043060302734375,-9.129180908203125,6.9085693359375,1,2.0,1.0,1.0,2.0,85.00
2021-04-28 11:39:45.913,0.31651142,0.59122884,0.51213044,0.2780463,0.47205493,0.09883154,0.1889914,0.3458776,0.5512767,0.27663827,0.1506851,0.8124228,0.15172695,-0.027603399,-0.19279355,0.19510882,-0.49191964,-0.54465497,-0.53421426,-0.22694758,831.6484,807.47253,811.50183,828.4249,796.1905,0.15765380859375,0.215576171875,0.953857421875,4.71038818359375,-6.721649169921875,4.32159423828125,1,1.0,1.0,1.0,1.0,85.00
2021-04-28 11:39:46.356,,,,,,,,,,,,,,,,,,,,,,,,,,,,,,,,,,,,,,/muse/elements/blink
2021-04-28 11:39:46.420,0.31651142,0.8394628,0.7527156,0.2780463,0.47205493,0.31226534,0.36067113,0.3458776,0.5512767,0.34541598,0.2521717,0.8124228,0.15172695,-0.043217942,-0.05358721,0.19510882,-0.49191964,-0.5734332,-0.4613354,-0.22694758,860.2564,809.89014,809.89014,858.24176,788.93774,0.1932373046875,0.2154541015625,0.95050048828125,4.26177978515625,-6.691741943359375,0.34393310546875,1,1.0,1.0,1.0,1.0,85.00
2021-04-28 11:39:46.928,0.31651142,1.133197,1.2515776,0.2780463,0.47205493,0.6920073,0.6623,0.3458776,0.5512767,0.5522363,0.47039974,0.8124228,0.15172695,-0.085061975,0.06665843,0.19510882,-0.49191964,-0.53925997,-0.4461121,-0.22694758,523.00366,776.04395,843.3333,554.0293,760.32965,0.23199462890625,0.235107421875,0.95318603515625,3.48419189453125,-2.332763671875,1.921539306640625,1,1.0,1.0,1.0,1.0,85.00
2021-04-28 11:39:47.045,,,,,,,,,,,,,,,,,,,,,,,,,,,,,,,,,,,,,,/muse/elements/blink
2021-04-28 11:39:47.435,0.31651142,1.2103636,1.3804647,0.2780463,0.47205493,0.81651574,0.7285346,0.3458776,0.5512767,0.6519138,0.46748117,0.8124228,0.15172695,-0.0033112064,0.1278951,0.19510882,-0.49191964,-0.5670433,-0.51834476,-0.22694758,799.81683,807.0696,803.8461,803.44324,754.68866,0.14605712890625,0.18115234375,0.96490478515625,0.142059326171875,7.8057861328125,4.523468017578125,1,1.0,1.0,1.0,1.0,85.00
2021-04-28 11:39:47.953,0.31651142,1.298318,1.60314,0.2780463,0.47205493,0.9244503,0.903901,0.3458776,0.5512767,0.65034586,0.46598786,0.8124228,0.15172695,0.01588388,0.20205893,0.19510882,-0.49191964,-0.5516347,-0.47699735,-0.22694758,825.2015,819.9634,813.1135,821.978,760.7326,0.0970458984375,0.137451171875,0.98455810546875,4.41131591796875,-12.075042724609375,-0.07476806640625,1,1.0,1.0,1.0,1.0,85.00
2021-04-28 11:39:48.459,0.31651142,1.00991,-0.18230787,0.2780463,0.47205493,0.61770993,-0.51646864,0.3458776,0.5512767,0.5483179,-0.12184104,0.8124228,0.15172695,0.035923254,0.00474404,0.19510882,-0.49191964,-0.42054376,-0.19750488,-0.22694758,852.1978,807.8755,799.81683,853.8095,747.03296,0.16650390625,0.15167236328125,0.9832763671875,2.87109375,-1.03179931640625,-0.844879150390625,1,2.0,1.0,1.0,2.0,85.00
2021-04-28 11:39:48.994,0.31651142,0.6019963,-0.12132846,0.2780463,0.47205493,-0.18418637,-0.27569047,0.3458776,0.5512767,-0.0031147006,-0.049648453,0.8124228,0.15172695,-0.049139533,-0.048066683,0.19510882,-0.49191964,-0.21674177,-0.2353017,-0.22694758,768.7912,815.12823,810.293,758.315,732.52747,0.06842041015625,0.1396484375,0.98321533203125,4.613189697265625,-1.876678466796875,2.370147705078125,1,2.0,1.0,1.0,2.0,85.00
2021-04-28 11:39:49.180,,,,,,,,,,,,,,,,,,,,,,,,,,,,,,,,,,,,,,/muse/elements/blink
2021-04-28 11:39:49.509,0.31651142,0.8819172,0.8503793,0.2780463,0.47205493,0.23788463,0.46971288,0.3458776,0.5512767,0.26882866,0.5742187,0.8124228,0.15172695,-0.09574083,-0.09377642,0.19510882,-0.49191964,-0.23009658,-0.26436743,-0.22694758,768.3883,801.4286,807.0696,767.1795,685.38464,0.19659423828125,0.1456298828125,0.9908447265625,8.157196044921875,-11.222686767578125,5.62255859375,1,2.0,1.0,1.0,2.0,85.00
2021-04-28 11:39:49.804,,,,,,,,,,,,,,,,,,,,,,,,,,,,,,,,,,,,,,/muse/elements/blink
2021-04-28 11:39:50.017,0.31651142,1.1161312,1.0200764,0.2780463,0.47205493,0.5326409,0.6255638,0.3458776,0.5512767,0.41959932,0.5698707,0.8124228,0.15172695,-0.09814218,-0.10678842,0.19510882,-0.49191964,-0.2536924,-0.3134243,-0.22694758,829.6337,820.3663,818.3516,825.6044,762.74725,0.1651611328125,0.1754150390625,0.9796142578125,6.243133544921875,7.82073974609375,17.428436279296875,1,2.0,1.0,1.0,2.0,85.00
2021-04-28 11:39:50.528,0.31651142,1.2401677,1.3018421,0.2780463,0.47205493,0.67881656,0.8889917,0.3458776,0.5512767,0.43198913,0.5630168,0.8124228,0.15172695,-0.04275093,-0.136356,0.19510882,-0.49191964,-0.4407259,-0.32651708,-0.22694758,857.4359,807.8755,804.2491,861.06226,744.21246,0.073486328125,0.1923828125,0.972900390625,11.282501220703125,-7.125396728515625,8.560943603515625,1,2.0,1.0,1.0,2.0,85.00
2021-04-28 11:39:51.036,0.31651142,1.1458765,0.1658782,0.2780463,0.47205493,0.6204793,0.25114778,0.3458776,0.5512767,0.55489904,0.23453432,0.8124228,0.15172695,0.10900457,-0.060036242,0.19510882,-0.49191964,-0.5832288,-0.3161218,-0.22694758,835.6777,792.5641,815.9341,834.0659,731.7216,0.1187744140625,0.24932861328125,0.97296142578125,2.2430419921875,0.097198486328125,11.36474609375,1,2.0,1.0,1.0,2.0,85.00
2021-04-28 11:39:51.555,0.31651142,0.99961215,0.5916171,0.2780463,0.47205493,0.43579134,0.29016846,0.3458776,0.5512767,0.5368005,0.3363763,0.8124228,0.15172695,0.087847196,0.025904587,0.19510882,-0.49191964,-0.5120436,-0.3341704,-0.22694758,769.19415,811.9048,797.8022,756.30035,735.7509,0.22357177734375,0.13372802734375,0.97467041015625,-1.727142333984375,-11.506805419921875,24.052886962890625,1,2.0,1.0,1.0,2.0,85.00
2021-04-28 11:39:52.082,0.31651142,0.89547765,0.7819447,0.2780463,0.47205493,0.30826557,0.2867041,0.3458776,0.5512767,0.5318702,0.3726727,0.8124228,0.15172695,0.07208066,0.0801718,0.19510882,-0.49191964,-0.42712978,-0.37293798,-0.22694758,943.2601,849.7802,763.5531,931.978,760.7326,0.21356201171875,0.11529541015625,0.96246337890625,11.446990966796875,-7.5067138671875,-14.75921630859375,1,2.0,1.0,1.0,2.0,85.00
2021-04-28 11:39:52.145,,,,,,,,,,,,,,,,,,,,,,,,,,,,,,,,,,,,,,/muse/elements/blink
2021-04-28 11:39:52.607,0.31651142,0.9270559,0.9374396,0.2780463,0.47205493,0.26142725,0.30980703,0.3458776,0.5512767,0.43811467,0.37448817,0.8124228,0.15172695,-0.030700052,0.13739301,0.19510882,-0.49191964,-0.36975065,-0.3936965,-0.22694758,816.7399,805.4579,799.011,817.9487,813.1135,0.24755859375,0.21826171875,0.94342041015625,8.20953369140625,-10.96099853515625,-0.73272705078125,1,2.0,1.0,1.0,2.0,85.00
2021-04-28 11:39:53.136,0.31651142,0.9346019,1.034803,0.2780463,0.47205493,0.23262158,0.30072218,0.3458776,0.5512767,0.03442236,0.30758128,0.8124228,0.15172695,0.009215262,0.18398707,0.19510882,-0.49191964,-0.3691691,-0.41147915,-0.22694758,818.7546,813.5165,813.91943,815.12823,728.9011,0.22796630859375,0.27008056640625,0.942138671875,4.957122802734375,-0.874786376953125,3.54400634765625,1,2.0,1.0,1.0,2.0,85.00
2021-04-28 11:39:53.645,0.31651142,0.058217615,1.1757717,0.2780463,0.47205493,-0.3775311,0.008291113,0.3458776,0.5512767,-0.038583938,-0.26139772,0.8124228,0.15172695,0.016850734,-0.08144942,0.19510882,-0.49191964,-0.50509965,-0.61189437,-0.22694758,824.3956,810.293,788.5348,821.5751,799.81683,0.29248046875,0.32666015625,0.9310302734375,13.570404052734375,-13.38348388671875,6.063690185546875,1,2.0,1.0,1.0,2.0,85.00
2021-04-28 11:39:54.171,0.30858323,-0.046869367,1.136025,0.349355,0.35987586,-0.23706847,0.01783383,0.6148413,0.7582946,0.038033098,-0.09507665,0.41719818,0.73609847,-0.039003134,-0.04175678,0.33940858,0.2648203,-0.5395395,-0.60148066,-0.31041956,805.8608,806.6667,806.6667,813.1135,830.4396,0.27215576171875,0.33306884765625,0.8992919921875,2.22808837890625,-0.2691650390625,-0.246734619140625,1,1.0,1.0,1.0,1.0,85.00
2021-04-28 11:39:54.695,0.42294085,0.024719894,1.192256,0.47358024,0.31222928,-0.11880927,0.066830166,0.52450293,0.7582946,0.087840594,-0.066661306,0.58238727,0.71135473,-0.07612977,-0.09176477,0.39555678,0.35583693,-0.52381414,-0.5544869,-0.39469293,824.3956,807.47253,820.3663,817.9487,808.68134,0.2357177734375,0.29974365234375,0.93109130859375,-2.452392578125,7.40203857421875,0.740203857421875,1,1.0,1.0,1.0,1.0,85.00
2021-04-28 11:39:55.220,0.42175594,-0.12746891,0.9999272,0.51769745,0.31137195,-0.21356647,-0.009431462,0.5003097,0.79440486,-0.071386,-0.013824841,0.61486393,0.66292804,-0.11231782,-0.10361461,0.4391707,0.34988853,-0.5924915,-0.5767294,-0.278691,736.9597,803.0403,815.12823,759.5238,906.99634,0.0989990234375,0.2119140625,0.968994140625,5.076751708984375,-5.69732666015625,-3.626251220703125,1,1.0,1.0,1.0,1.0,85.00
2021-04-28 11:39:55.289,,,,,,,,,,,,,,,,,,,,,,,,,,,,,,,,,,,,,,/muse/elements/blink
2021-04-28 11:39:55.722,0.4290118,0.568813,0.8240185,0.55330086,0.23950644,-0.13174619,0.18862738,0.3466916,0.70566756,0.18023703,0.59707004,0.48568177,0.60823315,-0.012399999,-0.06968792,0.45593092,0.37416968,-0.55750245,-0.43873617,-0.2444251,807.0696,815.12823,805.05493,801.02563,853.8095,0.15386962890625,0.232421875,0.95489501953125,6.482391357421875,-3.84307861328125,2.100982666015625,1,1.0,1.0,1.0,1.0,85.00
2021-04-28 11:39:56.246,0.25310165,1.0140978,0.77983373,0.46012667,0.3080944,-0.08713424,0.27763122,0.37425262,0.6146671,0.22411148,0.5973073,0.39703625,0.6143838,0.04284496,0.0119002955,0.46327144,0.2748998,-0.54593796,-0.36827844,-0.07310213,854.61536,813.5165,799.011,857.8388,778.46155,0.1231689453125,0.23114013671875,0.96197509765625,4.388885498046875,-4.897308349609375,0.157012939453125,1,1.0,1.0,1.0,1.0,85.00
2021-04-28 11:39:56.784,0.25310165,1.0764264,0.910785,0.46012667,0.3080944,0.042135682,0.27302176,0.37425262,0.6146671,0.22442064,0.5973073,0.39703625,0.6143838,0.064670734,0.104667425,0.46327144,0.2748998,-0.5331506,-0.33179143,-0.07310213,821.5751,806.6667,799.41394,816.7399,783.69965,0.15277099609375,0.25299072265625,0.96209716796875,5.9814453125,-8.889923095703125,2.4822998046875,1,1.0,1.0,1.0,1.0,85.00
2021-04-28 11:39:57.309,0.25310165,1.0151322,0.87601835,0.46012667,0.3080944,0.07398765,0.20097609,0.37425262,0.6146671,0.3209204,0.57074267,0.39703625,0.6143838,0.018572489,0.110169075,0.46327144,0.2748998,-0.52199346,-0.441412,-0.07310213,789.34064,805.05493,807.8755,791.3553,686.5934,0.17779541015625,0.24151611328125,0.94232177734375,7.85064697265625,-8.553466796875,3.9178466796875,1,1.0,1.0,1.0,1.0,85.00
2021-04-28 11:39:57.835,0.25310165,0.6205575,0.622417,0.46012667,0.3080944,0.10184864,0.04411103,0.37425262,0.6146671,0.21941805,0.27491346,0.39703625,0.6143838,-0.017948758,0.070791915,0.46327144,0.2748998,-0.51942706,-0.547566,-0.07310213,798.60803,803.0403,796.99634,800.6227,849.7802,0.21270751953125,0.26708984375,0.95526123046875,4.26177978515625,-3.013153076171875,0.874786376953125,1,2.0,1.0,1.0,2.0,85.00
2021-04-28 11:39:58.359,0.25310165,0.44789407,0.37797895,1.1329256,0.3080944,0.031727523,0.080366835,0.49111363,0.6146671,0.23662257,0.27491346,0.33806834,0.6143838,-0.022789238,-0.012047814,0.18550593,0.2748998,-0.49796215,-0.5689325,-0.5297321,816.337,803.0403,801.02563,814.7253,747.8388,0.25506591796875,0.31146240234375,0.937255859375,9.488067626953125,-10.2880859375,7.0281982421875,1,2.0,1.0,1.0,2.0,85.00
2021-04-28 11:39:58.877,0.25310165,0.06281723,0.4018832,1.2817755,0.3080944,-0.095196046,-0.11102047,0.53773355,0.6146671,0.15252548,0.027659226,0.39467746,0.6143838,-0.120732054,-0.055927165,0.17652181,0.2748998,-0.65448964,-0.5655661,-0.5051729,761.53845,801.8315,827.2161,751.06226,699.89014,0.129150390625,0.21881103515625,0.9403076171875,0.49346923828125,-0.6878662109375,-3.3795166015625,1,1.0,1.0,1.0,1.0,85.00
2021-04-28 11:39:58.933,,,,,,,,,,,,,,,,,,,,,,,,,,,,,,,,,,,,,,/muse/elements/blink
2021-04-28 11:39:59.378,0.25310165,0.77713287,0.47868547,1.2817755,0.3080944,0.22508207,-0.03021176,0.53773355,0.6146671,0.23153815,-0.01237245,0.39467746,0.6143838,-0.10653289,-0.049353357,0.17652181,0.2748998,-0.5268643,-0.5820134,-0.5051729,811.9048,821.1722,788.93774,809.4872,724.87177,0.18634033203125,0.25323486328125,0.9522705078125,2.878570556640625,-1.62994384765625,-1.562652587890625,1,1.0,1.0,1.0,1.0,85.00
2021-04-28 11:39:59.550,,,,,,,,,,,,,,,,,,,,,,,,,,,,,,,,,,,,,,/muse/elements/blink
2021-04-28 11:39:59.907,0.25310165,0.94589996,0.64888614,1.4200261,0.3080944,0.3596374,-0.026006484,0.606094,0.6146671,0.16000801,-0.10812023,0.32087958,0.6143838,-0.13691454,0.027530706,0.18247533,0.2748998,-0.49047205,-0.55882543,-0.5277045,608.4249,789.7436,839.707,623.73627,639.45056,0.1619873046875,0.27813720703125,0.948974609375,1.4654541015625,-2.385101318359375,-1.83929443359375,1,1.0,1.0,1.0,1.0,85.00
2021-04-28 11:40:00.069,,,,,,,,,,,,,,,,,,,,,,,,,,,,,,,,,,,,,,/muse/elements/blink
2021-04-28 11:40:00.432,0.25310165,1.2155983,0.64888614,1.4200261,0.3080944,0.5633136,-0.026006484,0.606094,0.6146671,0.14394046,-0.10812023,0.32087958,0.6143838,-0.07225587,0.027530706,0.18247533,0.2748998,-0.2909469,-0.55882543,-0.5277045,807.47253,810.696,811.50183,800.6227,763.95605,0.21221923828125,0.24945068359375,0.9554443359375,7.798309326171875,-9.727325439453125,11.005859375,1,1.0,1.0,1.0,1.0,85.00
2021-04-28 11:40:00.961,0.25310165,1.2860653,0.64888614,1.4200261,0.3080944,0.6093103,-0.026006484,0.606094,0.6146671,0.13667713,-0.10812023,0.32087958,0.6143838,-0.06335725,0.027530706,0.18247533,0.2748998,-0.24031307,-0.55882543,-0.5277045,804.2491,1359.0842,772.8205,800.2198,818.3516,0.03570556640625,0.0784912109375,0.98406982421875,-9.727325439453125,6.878662109375,5.9814453125,1,1.0,1.0,1.0,1.0,85.00
2021-04-28 11:40:01.489,0.25310165,1.2860653,0.64888614,1.4200261,0.3080944,0.6093103,-0.026006484,0.606094,0.6146671,0.13667713,-0.10812023,0.32087958,0.6143838,-0.06335725,0.027530706,0.18247533,0.2748998,-0.24031307,-0.55882543,-0.5277045,834.0659,850.18317,801.8315,823.5897,705.5311,0.11456298828125,0.1123046875,0.99530029296875,9.49554443359375,-0.800018310546875,-5.480499267578125,1,2.0,1.0,1.0,2.0,85.00
2021-04-28 11:40:02.009,0.25310165,1.2860653,0.839134,1.4200261,0.3080944,0.6093103,0.011589744,0.606094,0.6146671,0.13667713,0.4400357,0.32087958,0.6143838,-0.06335725,-0.12327202,0.18247533,0.2748998,-0.24031307,-0.21576558,-0.5277045,1012.5641,882.01465,743.00366,983.1502,829.6337,0.0355224609375,0.12567138671875,0.98052978515625,13.0096435546875,-8.202056884765625,-18.13873291015625,1,2.0,1.0,1.0,2.0,85.00
2021-04-28 11:40:02.080,,,,,,,,,,,,,,,,,,,,,,,,,,,,,,,,,,,,,,/muse/elements/blink
2021-04-28 11:40:02.537,0.25310165,1.2860653,0.6200358,1.4200261,0.3080944,0.6093103,0.13232887,0.606094,0.6146671,0.13667713,0.43853566,0.32087958,0.6143838,-0.06335725,-0.04724989,0.18247533,0.2748998,-0.24031307,-0.10732515,-0.5277045,774.0293,807.0696,795.38464,785.7143,685.38464,0.16693115234375,0.2451171875,0.963134765625,10.998382568359375,-19.462127685546875,-1.622467041015625,1,2.0,1.0,1.0,2.0,85.00
2021-04-28 11:40:02.865,,,,,,,,,,,,,,,,,,,,,,,,,,,,,,,,,,,,,,/muse/elements/blink
2021-04-28 11:40:03.066,0.25310165,1.2860653,0.6200358,1.4200261,0.3080944,0.6093103,0.13232887,0.606094,0.6146671,0.13667713,0.43853566,0.32087958,0.6143838,-0.06335725,-0.04724989,0.18247533,0.2748998,-0.24031307,-0.10732515,-0.5277045,805.05493,813.5165,807.47253,794.9817,696.6667,0.0897216796875,0.23150634765625,0.96514892578125,0.8074951171875,7.439422607421875,4.71038818359375,1,2.0,1.0,1.0,2.0,85.00
2021-04-28 11:40:03.576,0.25310165,1.2860653,0.6200358,1.4200261,0.3080944,0.6093103,0.13232887,0.606094,0.6146671,0.13667713,0.43853566,0.32087958,0.6143838,-0.06335725,-0.04724989,0.18247533,0.2748998,-0.24031307,-0.10732515,-0.5277045,747.8388,866.7033,816.337,745.82416,681.3553,0.1031494140625,0.25433349609375,0.96435546875,7.10296630859375,-11.656341552734375,0.785064697265625,1,2.0,1.0,1.0,2.0,85.00
2021-04-28 11:40:04.092,0.25310165,1.2860653,0.8415416,1.4200261,0.3080944,0.6093103,-0.006976293,0.606094,0.6146671,0.13667713,0.34734628,0.32087958,0.6143838,-0.06335725,-0.07852338,0.18247533,0.2748998,-0.24031307,-0.6926661,-0.5277045,894.10254,839.707,789.34064,890.07324,753.0769,0.075927734375,0.23876953125,0.960205078125,1.861724853515625,0.64300537109375,3.06549072265625,1,2.0,1.0,1.0,2.0,85.00
2021-04-28 11:40:04.548,,,,,,,,,,,,,,,,,,,,,,,,,,,,,,,,,,,,,,/muse/elements/blink
2021-04-28 11:40:04.610,0.25310165,1.2134529,1.1820494,1.4200261,0.3080944,0.82955825,0.27892753,0.606094,0.6146671,0.6285911,0.389059,0.32087958,0.6143838,-0.1455415,-8.7761926E-4,0.18247533,0.2748998,-0.4514887,-0.7072142,-0.5277045,798.20514,833.2601,804.65204,790.14655,826.8132,0.13385009765625,0.26080322265625,0.96990966796875,5.5926513671875,-9.091796875,1.4056396484375,1,2.0,1.0,1.0,2.0,85.00
2021-04-28 11:40:04.825,,,,,,,,,,,,,,,,,,,,,,,,,,,,,,,,,,,,,,/muse/elements/blink
2021-04-28 11:40:05.122,0.25310165,1.2506948,1.1253483,1.4200261,0.3080944,0.813475,0.3801877,0.606094,0.6146671,0.63193214,0.4191697,0.32087958,0.6143838,-0.14467774,0.11210476,0.18247533,0.2748998,-0.36068684,-0.671109,-0.5277045,820.3663,817.5458,809.0842,819.5604,758.315,0.13616943359375,0.256591796875,0.9525146484375,6.23565673828125,-5.181427001953125,-0.40374755859375,1,2.0,1.0,1.0,2.0,85.00
2021-04-28 11:40:05.634,0.25310165,1.2294662,1.0799421,1.4200261,0.3080944,0.7784553,0.33000222,0.606094,0.6146671,0.630346,0.3926688,0.32087958,0.6143838,-0.13940279,0.1804667,0.18247533,0.2748998,-0.35111082,-0.6371427,-0.5277045,816.7399,801.8315,820.3663,826.8132,641.8681,0.15496826171875,0.261962890625,0.95123291015625,4.35150146484375,-2.58697509765625,0.650482177734375,1,2.0,1.0,1.0,2.0,85.00
2021-04-28 11:40:06.154,0.25310165,1.1889207,0.6179423,1.4200261,0.3080944,0.5298577,0.1052433,0.606094,0.6146671,0.31209937,0.25931296,0.32087958,0.6143838,-0.092812546,0.13521677,0.18247533,0.2748998,-0.30291373,-0.49001896,-0.5277045,819.5604,813.5165,808.68134,810.293,867.50916,0.16790771484375,0.272216796875,0.9556884765625,4.089813232421875,-5.600128173828125,1.9439697265625,1,2.0,1.0,1.0,2.0,85.00
2021-04-28 11:40:06.663,0.25310165,0.60549307,0.37478667,1.4200261,0.3080944,0.024420373,-0.21724443,0.606094,0.6146671,-0.11295504,0.1519973,0.32087958,0.6143838,-0.07272417,-0.019964118,0.18247533,0.2748998,-0.4987416,-0.5005133,-0.5277045,805.05493,823.9927,787.326,792.1612,819.9634,0.1519775390625,0.26190185546875,0.9561767578125,3.828125,-3.656158447265625,0.500946044921875,1,2.0,1.0,1.0,2.0,85.00
2021-04-28 11:40:07.179,0.5860416,0.49839094,0.24762033,0.6200461,0.49579573,-0.07168486,-0.10265674,0.79353535,0.6283404,0.09660637,0.15617152,0.567196,0.3484406,-0.060644645,-0.12105965,0.23596734,0.08765447,-0.55494297,-0.48042247,-0.26696882,799.41394,805.4579,811.0989,798.60803,660.0,0.148681640625,0.2564697265625,0.9591064453125,4.32159423828125,-4.882354736328125,-0.91217041015625,1,1.0,1.0,1.0,1.0,85.00
2021-04-28 11:40:07.680,0.51623845,0.153792,0.020886056,0.65561855,0.45683765,-0.20616093,-0.1480598,0.774557,0.89811206,0.18097028,0.2872693,0.63863033,0.35746202,-0.05443356,-0.027014079,0.33035055,0.15762207,-0.591358,-0.50787085,-0.31423604,793.7729,800.6227,796.99634,784.10254,665.64105,0.14276123046875,0.259033203125,0.955810546875,5.659942626953125,-5.203857421875,1.24114990234375,1,1.0,1.0,1.0,1.0,85.00
2021-04-28 11:40:08.077,,,,,,,,,,,,,,,,,,,,,,,,,,,,,,,,,,,,,,/muse/elements/blink
2021-04-28 11:40:08.203,0.44019315,0.18686897,-0.1777861,0.61666846,0.479748,-0.027605819,-0.19596137,0.75421065,0.99697065,0.28077024,0.44948265,0.66051024,0.36111858,-0.10235925,0.097681634,0.34861583,0.13585985,-0.5572671,-0.54267323,-0.37839353,822.381,803.44324,801.8315,810.293,716.8132,0.1739501953125,0.26239013671875,0.954833984375,3.66363525390625,-8.7030029296875,-3.90289306640625,1,1.0,1.0,1.0,1.0,85.00
2021-04-28 11:40:08.712,0.35534096,0.3877249,-0.16334388,0.64639336,0.47619003,0.18720458,0.1636621,0.7572839,0.9884752,0.38061306,0.49138933,0.6454064,0.36825934,-0.116430596,0.1425746,0.4014057,0.17736936,-0.52694887,-0.5225097,-0.42213598,781.28204,800.2198,797.3993,784.5055,629.7802,0.1732177734375,0.2744140625,0.94378662109375,5.443115234375,-5.263671875,1.054229736328125,1,1.0,1.0,1.0,1.0,85.00
2021-04-28 11:40:09.220,-0.2607277,0.4005631,-0.1280749,0.10105941,0.37263352,0.3187465,0.17977022,0.27778947,0.9663901,0.38198024,0.48307857,0.22859618,0.35298175,-0.08490377,0.12659876,0.37004295,0.1689423,-0.56675184,-0.5289699,-0.42710167,844.5421,792.5641,802.6374,848.1685,725.2747,0.16046142578125,0.27069091796875,0.95208740234375,4.209442138671875,-4.05242919921875,0.635528564453125,1,1.0,1.0,1.0,1.0,85.00
2021-04-28 11:40:09.239,,,,,,,,,,,,,,,,,,,,,,,,,,,,,,,,,,,,,,/muse/elements/blink
2021-04-28 11:40:09.734,-0.2607277,0.61773616,0.39466462,0.10105941,0.37263352,0.41719905,0.21927135,0.27778947,0.9663901,0.537706,0.2991622,0.22859618,0.35298175,-0.04784363,0.0443759,0.37004295,0.1689423,-0.57188964,-0.5619348,-0.42710167,792.5641,802.23444,809.4872,796.99634,661.6117,0.1732177734375,0.27886962890625,0.94415283203125,4.725341796875,-4.448699951171875,2.459869384765625,1,1.0,1.0,1.0,1.0,85.00
2021-04-28 11:40:10.178,,,,,,,,,,,,,,,,,,,,,,,,,,,,,,,,,,,,,,/muse/elements/blink
2021-04-28 11:40:10.241,-0.2607277,0.64057046,0.614808,0.10105941,0.37263352,0.45716867,-0.13380554,0.27778947,0.9663901,0.52810186,0.1065158,0.22859618,0.35298175,0.026808135,0.06978126,0.37004295,0.1689423,-0.55255294,-0.63895553,-0.42710167,806.6667,805.4579,807.8755,799.011,717.619,0.15533447265625,0.27960205078125,0.9459228515625,7.29736328125,-5.09918212890625,2.7813720703125,1,1.0,1.0,1.0,1.0,85.00
2021-04-28 11:40:10.751,-0.2607277,0.8535124,0.8784027,0.10105941,0.37263352,0.5287936,0.19759603,0.27778947,0.9663901,0.62099206,0.33548543,0.22859618,0.35298175,0.041126613,0.042751163,0.37004295,0.1689423,-0.53669363,-0.6367702,-0.42710167,677.72894,801.8315,800.6227,679.7436,716.8132,0.1695556640625,0.28704833984375,0.94793701171875,0.61309814453125,0.515899658203125,-0.800018310546875,1,2.0,1.0,1.0,2.0,85.00
2021-04-28 11:40:10.781,,,,,,,,,,,,,,,,,,,,,,,,,,,,,,,,,,,,,,/muse/elements/blink
2021-04-28 11:40:11.281,-0.2607277,0.75790125,0.97276115,0.10105941,0.37263352,0.73636764,0.38852727,0.27778947,0.9663901,0.7231143,0.4730699,0.22859618,0.35298175,0.046194803,0.015036911,0.37004295,0.1689423,-0.40299925,-0.53627,-0.42710167,731.7216,819.5604,803.44324,721.2454,635.0183,0.1378173828125,0.28076171875,0.95086669921875,5.256195068359375,-4.717864990234375,0.934600830078125,1,2.0,1.0,1.0,2.0,85.00
2021-04-28 11:40:11.401,,,,,,,,,,,,,,,,,,,,,,,,,,,,,,,,,,,,,,/muse/elements/blink
2021-04-28 11:40:11.806,-0.2607277,0.8363913,1.0589037,0.10105941,0.37263352,0.8548578,0.45771396,0.27778947,0.9663901,0.73139066,0.58160883,0.22859618,0.35298175,0.0041225664,-0.08608671,0.37004295,0.1689423,-0.36807644,-0.4463234,-0.42710167,794.9817,804.65204,805.05493,804.65204,776.8498,0.1591796875,0.28265380859375,0.9429931640625,5.809478759765625,-5.66741943359375,1.6748046875,1,2.0,1.0,1.0,2.0,85.00
2021-04-28 11:40:12.270,,,,,,,,,,,,,,,,,,,,,,,,,,,,,,,,,,,,,,/muse/elements/blink
2021-04-28 11:40:12.333,-0.2607277,0.66875124,0.8575357,0.10105941,0.37263352,0.81972146,0.23991264,0.27778947,0.9663901,0.58993435,0.5765128,0.22859618,0.35298175,-0.018350767,-0.109857425,0.37004295,0.1689423,-0.36877832,-0.41955432,-0.42710167,843.3333,813.1135,804.2491,852.6007,663.22345,0.162841796875,0.2913818359375,0.95294189453125,4.2169189453125,-1.77947998046875,2.691650390625,1,2.0,1.0,1.0,2.0,85.00
2021-04-28 11:40:12.861,-0.2607277,0.8344354,0.6989331,0.10105941,0.37263352,0.6888215,0.14313546,0.27778947,0.9663901,0.5092325,0.5673311,0.22859618,0.35298175,0.0525958,-0.08852354,0.37004295,0.1689423,-0.3682492,-0.4322159,-0.42710167,839.707,791.3553,811.0989,830.84247,789.7436,0.17822265625,0.29949951171875,0.9464111328125,6.639404296875,-6.078643798828125,2.444915771484375,1,2.0,1.0,1.0,2.0,85.00
2021-04-28 11:40:13.366,-0.2607277,0.66314644,0.38697293,0.10105941,0.37263352,0.5548296,0.13529745,0.27778947,0.9663901,0.35711277,0.40533698,0.22859618,0.35298175,0.019549632,0.07572235,0.37004295,0.1689423,-0.35678697,-0.44975126,-0.42710167,878.7912,788.93774,826.0073,911.4286,907.8022,0.17657470703125,0.275634765625,0.9400634765625,1.039276123046875,-6.280517578125,12.807769775390625,1,2.0,1.0,1.0,2.0,85.00
2021-04-28 11:40:13.873,1.5821066,0.72941434,0.528374,0.10105941,1.3632871,0.639648,0.28656745,0.27778947,1.2184875,0.4526159,0.39289677,0.22859618,0.96964103,0.057400413,0.13520586,0.37004295,0.312856,-0.28214645,-0.41494465,-0.42710167,790.14655,809.89014,798.60803,786.9231,558.46155,0.197021484375,0.2734375,0.947265625,4.605712890625,-4.837493896484375,2.930908203125,1,2.0,1.0,1.0,2.0,85.00
2021-04-28 11:40:14.378,1.6952474,0.5683328,0.5944606,0.10105941,1.443689,0.58172846,0.27652884,0.27778947,1.231602,0.49488103,0.037922353,0.22859618,0.97059494,-0.022747975,0.08869175,0.37004295,0.34457782,-0.4307487,-0.42027488,-0.42710167,768.7912,809.89014,809.4872,784.90845,768.3883,0.21234130859375,0.2591552734375,0.94317626953125,4.478607177734375,-4.47113037109375,0.11962890625,1,1.0,1.0,1.0,1.0,85.00
2021-04-28 11:40:14.764,,,,,,,,,,,,,,,,,,,,,,,,,,,,,,,,,,,,,,/muse/elements/blink
2021-04-28 11:40:14.881,1.6952474,0.5737924,0.6390522,0.10105941,1.443689,0.4607879,0.25087237,0.27778947,1.231602,0.44909605,-0.012559986,0.22859618,0.97059494,-0.013311981,-0.047569413,0.37004295,0.34457782,-0.45970753,-0.45421723,-0.42710167,815.12823,809.89014,796.99634,801.8315,665.64105,0.22149658203125,0.2564697265625,0.9447021484375,3.75335693359375,-3.701019287109375,-0.7476806640625,1,1.0,1.0,1.0,1.0,85.00
2021-04-28 11:40:15.300,,,,,,,,,,,,,,,,,,,,,,,,,,,,,,,,,,,,,,/muse/elements/blink
2021-04-28 11:40:15.394,1.8012979,0.70767736,0.80599993,0.10105941,1.5402849,0.38747972,0.16893971,0.27778947,1.1427983,0.4397677,-0.099980146,0.22859618,0.9857623,-0.08997927,-0.10200595,0.37004295,0.395366,-0.55153084,-0.5310605,-0.42710167,773.6264,808.68134,816.7399,779.67035,635.0183,0.18890380859375,0.24212646484375,0.9539794921875,4.089813232421875,-2.10845947265625,1.15142822265625,1,1.0,1.0,1.0,1.0,85.00
2021-04-28 11:40:15.886,,,,,,,,,,,,,,,,,,,,,,,,,,,,,,,,,,,,,,/muse/elements/blink
2021-04-28 11:40:15.919,1.8012979,0.7231835,0.7467516,0.10105941,1.5402849,0.37104726,-0.063584,0.27778947,1.1427983,0.37326124,0.05429966,0.22859618,0.9857623,0.0018765499,0.013496463,0.37004295,0.395366,-0.4385877,-0.406243,-0.42710167,934.7985,811.9048,799.41394,924.7253,763.5531,0.16162109375,0.2542724609375,0.95684814453125,4.80010986328125,-2.34771728515625,-2.444915771484375,1,1.0,1.0,1.0,1.0,85.00
2021-04-28 11:40:16.445,1.8012979,1.0483106,0.9756733,0.10105941,1.5402849,0.5115569,0.15099034,0.27778947,1.1427983,0.47954032,0.07992431,0.22859618,0.9857623,0.055273656,0.028280105,0.37004295,0.395366,-0.4234301,-0.3547227,-0.42710167,627.76556,805.4579,827.619,627.76556,637.03296,0.1214599609375,0.22784423828125,0.96435546875,3.1103515625,-0.28411865234375,0.61309814453125,1,1.0,1.0,1.0,1.0,85.00
2021-04-28 11:40:16.612,,,,,,,,,,,,,,,,,,,,,,,,,,,,,,,,,,,,,,/muse/elements/blink
2021-04-28 11:40:16.973,1.8012979,1.1446807,0.90955263,0.10105941,1.5402849,0.52405113,0.2117802,0.27778947,1.1427983,0.48705873,-0.014392003,0.22859618,0.9857623,0.10956035,0.045531586,0.37004295,0.395366,-0.4146219,-0.26886645,-0.42710167,757.1062,799.41394,806.6667,772.01465,628.1685,0.1490478515625,0.22784423828125,0.96929931640625,2.489776611328125,-4.029998779296875,0.725250244140625,1,2.0,1.0,1.0,2.0,85.00
2021-04-28 11:40:17.482,1.8012979,1.4202187,1.2782664,0.10105941,1.5402849,0.55027246,0.33780295,0.27778947,1.1427983,0.4455167,0.44447446,0.22859618,0.9857623,-0.0020633973,0.16264312,0.37004295,0.395366,-0.43780452,-0.23620735,-0.42710167,790.54944,799.011,818.7546,790.14655,786.52014,0.14862060546875,0.2127685546875,0.9669189453125,3.69354248046875,-5.03936767578125,1.12152099609375,1,2.0,1.0,1.0,2.0,85.00
2021-04-28 11:40:17.617,,,,,,,,,,,,,,,,,,,,,,,,,,,,,,,,,,,,,,/muse/elements/blink
2021-04-28 11:40:18.001,1.8012979,1.0805484,1.040303,0.10105941,1.5402849,0.27967834,0.24013333,0.27778947,1.1427983,0.13665964,0.47135976,0.22859618,0.9857623,0.08131491,0.048899475,0.37004295,0.395366,-0.5402024,-0.38763058,-0.42710167,776.8498,810.293,816.7399,768.3883,791.3553,0.13983154296875,0.212158203125,0.97296142578125,4.000091552734375,-2.938385009765625,1.60003662109375,1,2.0,1.0,1.0,2.0,85.00
2021-04-28 11:40:18.520,1.8012979,0.89373803,1.006923,0.10105941,1.5402849,0.40692794,0.5543198,0.27778947,1.1427983,0.32078126,0.5836092,0.22859618,0.9857623,0.07752063,0.0021854285,0.37004295,0.395366,-0.53093904,-0.36792275,-0.42710167,850.989,809.0842,807.8755,849.7802,864.68866,0.15679931640625,0.2054443359375,0.9720458984375,4.000091552734375,-3.27484130859375,1.682281494140625,1,2.0,1.0,1.0,2.0,85.00
2021-04-28 11:40:18.850,,,,,,,,,,,,,,,,,,,,,,,,,,,,,,,,,,,,,,/muse/elements/blink
2021-04-28 11:40:19.042,1.8012979,0.64532316,0.768112,0.10105941,1.5402849,0.4310959,0.5736564,0.27778947,1.1427983,0.34976083,0.53786916,0.22859618,0.9857623,0.06467994,-0.15658246,0.37004295,0.395366,-0.4745142,-0.4826975,-0.42710167,768.3883,811.9048,804.65204,777.25275,770.0,0.15582275390625,0.2078857421875,0.97265625,4.463653564453125,-4.91973876953125,1.338348388671875,1,2.0,1.0,1.0,2.0,85.00
2021-04-28 11:40:19.569,1.8012979,0.62329113,0.74956566,0.10105941,1.5402849,0.38271305,0.5314236,0.27778947,1.1427983,0.33664954,0.52298,0.22859618,0.9857623,-0.020949204,-0.17701057,0.37004295,0.395366,-0.4507699,-0.4771717,-0.42710167,821.5751,808.68134,802.23444,832.4542,683.7729,0.13067626953125,0.18994140625,0.974609375,2.572021484375,-2.01873779296875,-0.31402587890625,1,2.0,1.0,1.0,2.0,85.00
2021-04-28 11:40:20.034,,,,,,,,,,,,,,,,,,,,,,,,,,,,,,,,,,,,,,/muse/elements/blink
2021-04-28 11:40:20.075,1.8012979,0.6001303,0.60052013,0.10105941,1.5402849,0.25732544,0.095514864,0.27778947,1.1427983,0.42361027,0.34434232,0.22859618,0.9857623,0.0050031054,-0.06879947,0.37004295,0.395366,-0.42188936,-0.5063875,-0.42710167,882.4176,817.5458,796.1905,875.9707,800.6227,0.1209716796875,0.22406005859375,0.97760009765625,4.538421630859375,-5.973968505859375,1.33087158203125,1,2.0,1.0,1.0,2.0,85.00
2021-04-28 11:40:20.589,1.8012979,0.7383854,0.9024792,0.10105941,1.5402849,0.15905474,0.20279203,0.27778947,1.1427983,0.3641643,0.6163371,0.22859618,0.9857623,0.045992818,0.03871043,0.37004295,0.395366,-0.34319392,-0.41684553,-0.42710167,815.5311,773.22345,794.9817,809.4872,738.5714,0.17816162109375,0.197509765625,0.9736328125,3.1402587890625,-9.084320068359375,0.620574951171875,1,2.0,1.0,1.0,2.0,85.00
2021-04-28 11:40:21.115,1.8012979,1.1599578,1.1113684,0.10105941,1.5402849,1.1045469,0.31655756,0.27778947,1.1427983,1.1430703,0.6350882,0.22859618,0.9857623,0.18648969,0.13175218,0.37004295,0.395366,-0.1443144,-0.37335676,-0.42710167,722.4542,803.44324,801.02563,722.4542,660.80585,0.15826416015625,0.183349609375,0.96392822265625,6.661834716796875,-6.0113525390625,1.5252685546875,1,2.0,1.0,1.0,2.0,85.00
2021-04-28 11:40:21.399,,,,,,,,,,,,,,,,,,,,,,,,,,,,,,,,,,,,,,/muse/elements/blink
2021-04-28 11:40:21.617,1.8012979,1.4204334,1.2845614,0.10105941,1.5402849,1.4076148,0.4364164,0.27778947,1.1427983,1.1430703,0.63320196,0.22859618,0.9857623,0.26296508,0.13088055,0.37004295,0.395366,0.0058856085,-0.35534889,-0.42710167,764.7619,809.4872,790.9524,763.95605,664.83514,0.1800537109375,0.18316650390625,0.967529296875,-4.089813232421875,21.421051025390625,0.321502685546875,1,2.0,1.0,1.0,2.0,85.00
2021-04-28 11:40:22.128,1.8012979,1.4462109,1.4318724,0.10105941,1.5402849,1.4192182,0.49977016,0.27778947,1.1427983,1.1430703,0.63320196,0.22859618,0.9857623,0.22672598,0.13438818,0.37004295,0.395366,-0.0347214,-0.3395189,-0.42710167,832.0513,786.1172,819.15753,829.6337,732.52747,0.11187744140625,0.14910888671875,1.0020751953125,3.96270751953125,-14.347991943359375,-4.224395751953125,1,2.0,1.0,1.0,2.0,85.00
2021-04-28 11:40:22.262,,,,,,,,,,,,,,,,,,,,,,,,,,,,,,,,,,,,,,/muse/elements/blink
2021-04-28 11:40:22.457,,,,,,,,,,,,,,,,,,,,,,,,,,,,,,,,,,,,,,/muse/elements/blink
2021-04-28 11:40:22.643,1.8012979,1.3655016,1.4318724,0.10105941,1.5402849,0.92649996,0.49977016,0.27778947,1.1427983,0.8734585,0.63320196,0.22859618,0.9857623,0.08088517,0.13438818,0.37004295,0.395366,-0.18516138,-0.3395189,-0.42710167,861.06226,803.0403,808.68134,869.12085,871.13556,-0.01104736328125,0.12127685546875,0.95098876953125,3.745880126953125,14.557342529296875,-7.259979248046875,1,2.0,1.0,1.0,2.0,85.00
2021-04-28 11:40:22.888,,,,,,,,,,,,,,,,,,,,,,,,,,,,,,,,,,,,,,/muse/elements/blink
2021-04-28 11:40:23.149,1.8012979,1.3041037,1.2080507,0.10105941,1.5402849,0.6273732,0.77605206,0.27778947,1.1427983,0.42748603,0.17108868,0.22859618,0.9857623,0.04328548,0.04142942,0.37004295,0.395366,-0.22220066,-0.14676143,-0.42710167,805.4579,785.31134,795.38464,812.3077,716.4103,0.210205078125,0.185302734375,0.9874267578125,0.37384033203125,20.434112548828125,7.005767822265625,1,2.0,1.0,1.0,2.0,85.00
2021-04-28 11:40:23.659,1.8012979,1.4486207,1.1270676,0.10105941,1.5402849,0.678186,0.7975273,0.27778947,1.1427983,0.65748984,0.49800798,0.22859618,0.9857623,0.03751661,0.09435292,0.37004295,0.395366,-0.17202477,-0.24933535,-0.42710167,703.91943,790.9524,809.89014,711.978,679.7436,0.20684814453125,0.155029296875,1.00482177734375,-0.112152099609375,0.471038818359375,-2.953338623046875,1,2.0,1.0,1.0,2.0,85.00
2021-04-28 11:40:23.679,,,,,,,,,,,,,,,,,,,,,,,,,,,,,,,,,,,,,,/muse/elements/blink
2021-04-28 11:40:24.173,1.8012979,1.4585993,1.2131678,0.10105941,1.5402849,0.6774659,0.83041686,0.27778947,1.1427983,0.65748984,0.55405676,0.22859618,0.9857623,0.037357576,0.22044675,0.37004295,0.395366,-0.18098377,-0.275947,-0.42710167,773.6264,802.23444,801.4286,759.12085,624.94507,0.14007568359375,0.18243408203125,1.0091552734375,8.366546630859375,-20.1873779296875,5.5328369140625,1,2.0,1.0,1.0,2.0,85.00
2021-04-28 11:40:24.307,,,,,,,,,,,,,,,,,,,,,,,,,,,,,,,,,,,,,,/muse/elements/blink
2021-04-28 11:40:24.701,1.8012979,1.378108,1.2590832,0.10105941,1.5402849,1.1204306,0.8134959,0.27778947,1.1427983,1.3019814,0.56622875,0.22859618,0.9857623,0.40240476,0.18867762,0.37004295,0.395366,-0.22533113,-0.24856289,-0.42710167,796.1905,805.8608,813.91943,801.4286,773.6264,0.01312255859375,0.1646728515625,0.960693359375,5.316009521484375,-30.467987060546875,1.652374267578125,1,2.0,1.0,1.0,2.0,85.00
2021-04-28 11:40:25.206,1.8012979,1.2595934,1.3556902,0.10105941,1.5402849,1.1214705,0.8020046,0.27778947,1.1427983,1.3019814,0.3171706,0.22859618,0.9857623,0.43670413,0.19330825,0.37004295,0.395366,-0.28361845,-0.18618377,-0.42710167,813.91943,815.12823,820.3663,826.4103,826.0073,0.0164794921875,0.0487060546875,0.9324951171875,4.942169189453125,-32.61383056640625,4.80010986328125,1,2.0,1.0,1.0,2.0,85.00
2021-04-28 11:40:25.500,,,,,,,,,,,,,,,,,,,,,,,,,,,,,,,,,,,,,,/muse/elements/blink
2021-04-28 11:40:25.713,1.8012979,1.2595934,1.4286394,0.10105941,1.5402849,1.1214705,0.8340816,0.27778947,1.1427983,1.3019814,0.006942686,0.22859618,0.9857623,0.43670413,0.046694275,0.37004295,0.395366,-0.28361845,-0.06536662,-0.42710167,844.94507,854.21246,817.9487,840.5128,676.1172,-0.0401611328125,0.00909423828125,0.9869384765625,2.265472412109375,12.897491455078125,-0.179443359375,1,2.0,1.0,1.0,2.0,85.00
2021-04-28 11:40:26.223,1.8012979,1.1484573,1.4286394,0.10105941,1.5402849,1.0150474,0.8340816,0.27778947,1.1427983,1.2012743,0.006942686,0.22859618,0.9857623,0.36325786,0.046694275,0.37004295,0.395366,-0.342713,-0.06536662,-0.42710167,820.7692,806.26373,809.4872,816.337,618.49817,0.2374267578125,0.18402099609375,0.94866943359375,8.276824951171875,26.161346435546875,6.497344970703125,1,2.0,1.0,1.0,2.0,85.00
2021-04-28 11:40:26.732,1.8012979,1.1484573,1.4286394,0.10105941,1.5402849,1.0150474,0.8340816,0.27778947,1.1427983,1.2012743,0.006942686,0.22859618,0.9857623,0.36325786,0.046694275,0.37004295,0.395366,-0.342713,-0.06536662,-0.42710167,616.8865,799.41394,834.0659,603.5897,856.63007,0.2349853515625,0.1785888671875,1.01629638671875,-0.11962890625,-8.217010498046875,4.523468017578125,1,2.0,1.0,1.0,2.0,85.00
2021-04-28 11:40:26.986,,,,,,,,,,,,,,,,,,,,,,,,,,,,,,,,,,,,,,/muse/elements/blink
2021-04-28 11:40:27.247,1.8012979,1.1484573,1.4286394,0.10105941,1.5402849,1.0150474,0.8340816,0.27778947,1.1427983,1.2012743,0.006942686,0.22859618,0.9857623,0.36325786,0.046694275,0.37004295,0.395366,-0.342713,-0.06536662,-0.42710167,801.4286,807.8755,809.4872,803.0403,687.8022,0.07391357421875,0.08966064453125,0.96905517578125,7.835693359375,-13.809661865234375,-9.727325439453125,1,2.0,1.0,1.0,2.0,85.00
2021-04-28 11:40:27.753,1.8012979,1.1484573,1.4286394,0.10105941,1.5402849,1.0150474,0.8340816,0.27778947,1.1427983,1.2012743,0.006942686,0.22859618,0.9857623,0.36325786,0.046694275,0.37004295,0.395366,-0.342713,-0.06536662,-0.42710167,816.7399,812.71063,807.8755,818.7546,675.7143,0.1898193359375,0.1173095703125,0.97344970703125,2.1234130859375,12.224578857421875,1.801910400390625,1,2.0,1.0,1.0,2.0,85.00
2021-04-28 11:40:27.934,,,,,,,,,,,,,,,,,,,,,,,,,,,,,,,,,,,,,,/muse/elements/blink
2021-04-28 11:40:28.260,1.8012979,1.5762442,1.4286394,0.10105941,1.5402849,0.9006277,0.8340816,0.27778947,1.1427983,0.52260834,0.006942686,0.22859618,0.9857623,0.14123215,0.046694275,0.37004295,0.395366,-0.40826255,-0.06536662,-0.42710167,794.57874,809.0842,792.96704,790.9524,776.8498,0.28887939453125,0.12542724609375,0.981201171875,-1.592559814453125,6.422576904296875,-0.0299072265625,1,2.0,1.0,1.0,2.0,85.00
2021-04-28 11:40:28.776,1.8012979,1.4765899,1.3163142,0.10105941,1.5402849,0.75251436,0.49694276,0.27778947,1.1427983,0.5589625,0.28419176,0.22859618,0.9857623,0.11428465,-0.025579927,0.37004295,0.395366,-0.3548834,-0.31150162,-0.42710167,801.8315,795.78754,810.696,798.60803,772.8205,0.2828369140625,0.17474365234375,0.994384765625,10.430145263671875,-23.021087646484375,12.404022216796875,1,2.0,1.0,1.0,2.0,85.00
2021-04-28 11:40:29.278,1.8012979,1.354568,1.3163142,0.10105941,1.5402849,0.50723284,0.49694276,0.27778947,1.1427983,0.5720687,0.28419176,0.22859618,0.9857623,0.16583364,-0.025579927,0.37004295,0.395366,-0.29342937,-0.31150162,-0.42710167,798.20514,808.68134,811.9048,784.5055,692.23444,0.1968994140625,0.12506103515625,0.97235107421875,7.476806640625,-26.019287109375,3.327178955078125,1,2.0,1.0,1.0,2.0,85.00
2021-04-28 11:40:29.786,1.8012979,1.1470109,1.3752564,0.10105941,1.5402849,-0.07046549,0.47252527,0.27778947,1.1427983,0.32505086,-0.29311886,0.22859618,0.9857623,0.13863479,-0.07325392,0.37004295,0.395366,-0.33877075,-0.31589416,-0.42710167,793.36993,808.2784,816.7399,803.8461,682.5641,0.1982421875,0.1180419921875,0.94921875,5.016937255859375,-10.460052490234375,3.865509033203125,1,2.0,1.0,1.0,2.0,85.00
2021-04-28 11:40:30.303,1.8012979,1.1087832,1.3752564,0.10105941,1.5402849,-0.09723952,0.47252527,0.27778947,1.1427983,0.2762468,-0.29311886,0.22859618,0.9857623,0.10939476,-0.07325392,0.37004295,0.395366,-0.4055756,-0.31589416,-0.42710167,929.15753,799.81683,795.38464,920.696,795.38464,0.27655029296875,0.13604736328125,0.9388427734375,-1.3458251953125,13.690032958984375,-7.962799072265625,1,2.0,1.0,1.0,2.0,85.00
2021-04-28 11:40:30.306,,,,,,,,,,,,,,,,,,,,,,,,,,,,,,,,,,,,,,/muse/elements/blink
2021-04-28 11:40:30.807,1.8012979,1.0520535,1.0662973,0.10105941,1.5402849,-0.118206955,0.48178488,0.27778947,1.1427983,0.24147019,0.15709418,0.22859618,0.9857623,0.005257832,0.06805993,0.37004295,0.395366,-0.54400235,-0.1489867,-0.42710167,891.28204,805.05493,799.011,880.0,855.42126,0.2591552734375,0.1141357421875,0.95751953125,1.562652587890625,11.626434326171875,4.5458984375,1,2.0,1.0,1.0,2.0,85.00
2021-04-28 11:40:30.913,,,,,,,,,,,,,,,,,,,,,,,,,,,,,,,,,,,,,,/muse/elements/blink
2021-04-28 11:40:31.325,1.8012979,0.92680496,1.0662973,0.10105941,1.5402849,-0.1344895,0.48178488,0.27778947,1.1427983,0.16682898,0.15709418,0.22859618,0.9857623,-0.05704796,0.06805993,0.37004295,0.395366,-0.6382145,-0.1489867,-0.42710167,802.23444,805.05493,805.4579,804.2491,689.41394,0.15472412109375,0.08221435546875,0.99005126953125,1.368255615234375,2.213134765625,-2.788848876953125,1,2.0,1.0,1.0,2.0,85.00
2021-04-28 11:40:31.625,,,,,,,,,,,,,,,,,,,,,,,,,,,,,,,,,,,,,,/muse/elements/blink
2021-04-28 11:40:31.851,1.8012979,0.92680496,1.1449001,0.10105941,1.5402849,-0.1344895,0.55322486,0.27778947,1.1427983,0.16682898,0.1532011,0.22859618,0.9857623,-0.05704796,0.10468497,0.37004295,0.395366,-0.6382145,-0.08798196,-0.42710167,779.2674,815.9341,798.60803,778.0586,797.8022,0.11590576171875,0.0947265625,0.9932861328125,6.71417236328125,-0.13458251953125,11.342315673828125,1,2.0,1.0,1.0,2.0,85.00
2021-04-28 11:40:32.375,1.8012979,0.92680496,0.8675377,0.10105941,1.5402849,-0.1344895,0.690371,0.27778947,1.1427983,0.16682898,0.46476862,0.22859618,0.9857623,-0.05704796,-0.13227259,0.37004295,0.395366,-0.6382145,-0.18029824,-0.42710167,929.5604,869.12085,766.77655,890.07324,700.293,0.0623779296875,0.0589599609375,0.9954833984375,3.790740966796875,-12.39654541015625,-24.860382080078125,1,2.0,1.0,1.0,2.0,85.00
2021-04-28 11:40:32.904,1.8012979,0.64698464,0.9185284,0.10105941,1.5402849,0.2547996,0.5586456,0.27778947,1.1427983,0.2106656,0.46899238,0.22859618,0.9857623,-0.13020226,-0.10891504,0.37004295,0.395366,-0.32964718,-0.22637199,-0.42710167,819.9634,800.6227,809.0842,836.8865,858.6447,0.0684814453125,0.0699462890625,0.993896484375,5.06927490234375,0.88226318359375,23.694000244140625,1,2.0,1.0,1.0,2.0,85.00
2021-04-28 11:40:32.971,,,,,,,,,,,,,,,,,,,,,,,,,,,,,,,,,,,,,,/muse/elements/blink
2021-04-28 11:40:33.430,1.8012979,0.64698464,0.9185284,0.10105941,1.5402849,0.2547996,0.5586456,0.27778947,1.1427983,0.2106656,0.46899238,0.22859618,0.9857623,-0.13020226,-0.10891504,0.37004295,0.395366,-0.32964718,-0.22637199,-0.42710167,782.0879,806.6667,799.011,784.90845,678.5348,0.053955078125,0.0548095703125,1.00140380859375,3.536529541015625,-2.400054931640625,2.930908203125,1,2.0,1.0,1.0,2.0,85.00
2021-04-28 11:40:33.932,1.8012979,0.64698464,0.8747719,0.10105941,1.5402849,0.2547996,0.07755219,0.27778947,1.1427983,0.2106656,-0.31248912,0.22859618,0.9857623,-0.13020226,-0.09996343,0.37004295,0.395366,-0.32964718,-0.2915933,-0.42710167,805.4579,800.6227,800.2198,807.8755,806.6667,0.052978515625,0.0406494140625,1.0020751953125,2.011260986328125,-4.32159423828125,-0.022430419921875,1,2.0,1.0,1.0,2.0,85.00
2021-04-28 11:40:34.434,0.6983347,0.47538584,0.48991293,0.90412325,0.8220168,0.25833163,0.42492768,0.9775116,0.4052739,0.35238892,0.026505945,0.733301,0.27262372,0.37893954,0.10327462,0.4977786,-0.2936366,-0.45982856,-0.53781617,-0.31189957,787.72894,807.47253,805.4579,785.31134,613.663,0.01275634765625,0.05950927734375,1.005126953125,3.386993408203125,-1.495361328125,6.7291259765625,1,2.0,1.0,1.0,2.0,85.00
2021-04-28 11:40:34.957,0.44566566,0.20801762,0.2611985,0.63161474,0.6001832,0.031118963,0.15043445,0.7520218,0.54281193,0.35315233,0.109078065,0.76238894,0.3114187,0.21751736,0.15570028,0.42872676,-0.2921238,-0.45271093,-0.5048655,-0.39004263,799.011,803.8461,784.90845,798.60803,811.0989,0.06195068359375,0.060791015625,1.00164794921875,6.422576904296875,-2.6019287109375,7.2674560546875,1,1.0,1.0,1.0,1.0,85.00
2021-04-28 11:40:35.484,0.32648918,0.07556051,0.3127852,0.47613743,0.48195976,-0.02669153,0.047133747,0.6183515,0.5527513,0.38482144,0.14334795,0.76238894,0.25032356,0.14982313,0.11345431,0.35664532,-0.25915802,-0.4368916,-0.4730488,-0.37090445,821.1722,806.26373,801.02563,813.1135,817.5458,0.0419921875,0.01434326171875,1.0067138671875,2.056121826171875,-5.869293212890625,-4.26177978515625,1,1.0,1.0,1.0,1.0,85.00
2021-04-28 11:40:35.988,0.14117306,-0.4185985,0.26409212,0.07854555,0.106396236,-0.31944063,-0.22256535,0.18473701,0.4044748,0.07987872,-0.02967217,0.5050159,0.16233243,0.017415794,0.12542416,0.25289658,-0.29587117,-0.34893823,-0.34312642,-0.2780733,812.3077,794.17584,813.5165,822.381,724.0659,0.02508544921875,0.04058837890625,1.00811767578125,3.828125,-3.42437744140625,1.263580322265625,1,1.0,1.0,1.0,1.0,85.00
2021-04-28 11:40:36.328,,,,,,,,,,,,,,,,,,,,,,,,,,,,,,,,,,,,,,/muse/elements/blink
2021-04-28 11:40:36.493,0.18848735,0.2557412,0.272976,0.101246916,-0.06933419,0.04644221,-0.17048953,-0.05676639,0.08642537,0.4943246,0.008775667,0.27732676,0.007910575,-0.026879067,0.14495252,0.1959554,-0.33824345,-0.28456455,-0.19213758,-0.15630683,792.96704,805.8608,802.6374,807.47253,689.41394,0.03472900390625,0.01519775390625,0.983154296875,2.9010009765625,-2.534637451171875,-9.271240234375,1,1.0,1.0,1.0,1.0,85.00
2021-04-28 11:40:36.804,,,,,,,,,,,,,,,,,,,,,,,,,,,,,,,,,,,,,,/muse/elements/blink
2021-04-28 11:40:36.999,0.281415,0.7802196,0.07936487,0.24788404,-0.40014485,0.3259531,0.019462116,-0.19674462,-0.2066642,0.50890803,0.23497805,-0.03510795,-0.1016666,-0.10790843,0.1417105,0.19296598,-0.46162555,-0.3003387,-0.20143235,-0.083990775,793.36993,805.8608,796.5934,785.7143,672.49084,-0.02532958984375,0.03070068359375,1.010009765625,4.74029541015625,-1.308441162109375,4.77020263671875,1,1.0,1.0,1.0,1.0,85.00
2021-04-28 11:40:37.526,0.2340492,0.96762204,0.20513457,0.2863987,-0.5675124,0.49459118,0.30185187,-0.13142206,-0.28093484,0.5416062,0.34632868,-0.04549035,-0.1323172,-0.20265311,0.12305843,0.1970576,-0.49147844,-0.39719725,-0.23592114,-0.08195011,828.8278,799.011,810.696,834.0659,694.65204,0.0029296875,0.03436279296875,1.00799560546875,4.14215087890625,-5.375823974609375,2.220611572265625,1,1.0,1.0,1.0,1.0,85.00
2021-04-28 11:40:38.047,0.2340492,0.96488744,0.29349792,0.2863987,-0.5675124,0.3947845,0.28426954,-0.13142206,-0.28093484,0.5364119,0.34544688,-0.04549035,-0.1323172,-0.17403416,0.05771293,0.1970576,-0.49147844,-0.5373304,-0.34839842,-0.08195011,814.7253,805.05493,799.41394,814.3223,890.07324,-0.0172119140625,0.0516357421875,1.0045166015625,5.166473388671875,-5.12908935546875,3.865509033203125,1,1.0,1.0,1.0,1.0,85.00
2021-04-28 11:40:38.577,0.22392073,0.73785394,0.26002836,0.2535306,0.15617187,0.19401355,0.22082634,0.16771895,0.210588,0.44266793,0.30900005,0.26416597,0.31294715,-0.19927172,0.077345826,0.29661223,-0.33469996,-0.5948648,-0.30719244,-0.15236902,789.7436,803.8461,807.47253,801.02563,703.91943,0.04302978515625,0.0390625,0.99542236328125,6.362762451171875,-5.4730224609375,5.12908935546875,1,1.0,1.0,1.0,1.0,85.00
2021-04-28 11:40:39.098,0.15613402,0.31601107,0.04048196,0.011733565,0.12058764,-0.21017243,-0.22428551,0.13883144,0.23139632,0.23451029,0.12402767,0.35119915,0.2939358,-0.15425986,0.055052243,0.28128028,-0.31744173,-0.5444814,-0.3368687,-0.15968496,847.3626,793.36993,796.1905,844.94507,668.86444,0.02947998046875,0.076171875,1.0029296875,4.2767333984375,-3.043060302734375,4.77020263671875,1,1.0,1.0,1.0,1.0,85.00
2021-04-28 11:40:39.188,,,,,,,,,,,,,,,,,,,,,,,,,,,,,,,,,,,,,,/muse/elements/blink
2021-04-28 11:40:39.613,0.0569859,0.34917656,0.71291924,0.011733565,0.036915064,0.0027439827,0.3200673,0.13883144,0.22078666,0.32600668,0.16696571,0.35119915,0.2339014,-0.057884336,0.03723969,0.28128028,-0.3225402,-0.5157708,-0.36728007,-0.15968496,807.8755,797.3993,805.05493,808.68134,784.10254,0.05633544921875,0.0543212890625,1.009521484375,5.45806884765625,-5.390777587890625,3.028106689453125,1,1.0,1.0,1.0,1.0,85.00
2021-04-28 11:40:40.139,0.0039416216,0.4388242,0.90044844,-0.58173716,0.05029996,0.0694442,0.44139528,0.107884645,0.033666283,0.25983474,0.13589722,0.2800815,0.2585216,0.011539104,-2.660065E-4,0.26538718,-0.28879783,-0.50177747,-0.42336625,-0.16712627,818.7546,809.4872,809.0842,814.3223,868.71796,0.03936767578125,0.03985595703125,0.996826171875,5.15899658203125,-2.564544677734375,1.652374267578125,1,1.0,1.0,1.0,1.0,85.00
2021-04-28 11:40:40.648,0.0039416216,0.621311,1.0079247,-0.58173716,0.05029996,0.12115275,0.6254822,0.107884645,0.033666283,0.3186743,0.32461584,0.2800815,0.2585216,0.035499968,0.10155059,0.26538718,-0.28879783,-0.53208447,-0.52130425,-0.16712627,813.5165,805.05493,805.4579,819.5604,766.3736,0.04248046875,0.0484619140625,1.00323486328125,4.56085205078125,-3.745880126953125,-0.201873779296875,1,1.0,1.0,1.0,1.0,85.00
2021-04-28 11:40:41.162,1.0463624,0.49368605,0.4931275,0.88200694,0.8749307,-0.0609411,0.2286094,0.93966484,0.81424606,0.23963672,0.31821522,1.0378822,0.47226572,-0.08228447,0.030890215,0.55647486,-0.31265074,-0.45875207,-0.52021796,-0.17421015,699.4872,815.9341,801.8315,689.81683,695.8608,-0.05096435546875,0.052734375,0.9937744140625,6.4300537109375,-7.596435546875,-17.2265625,1,1.0,1.0,1.0,1.0,85.00
2021-04-28 11:40:41.352,,,,,,,,,,,,,,,,,,,,,,,,,,,,,,,,,,,,,,/muse/elements/blink
2021-04-28 11:40:41.672,1.0463624,0.79683906,0.61777174,0.88200694,0.8749307,-0.009683427,0.22857714,0.93966484,0.81424606,0.22803393,0.3246204,1.0378822,0.47226572,-0.07860849,0.008025649,0.55647486,-0.31265074,-0.39508638,-0.41185918,-0.17421015,780.87915,806.6667,792.1612,780.07324,653.95605,0.09423828125,0.168701171875,0.9813232421875,4.32159423828125,-9.151611328125,3.985137939453125,1,1.0,1.0,1.0,1.0,85.00
2021-04-28 11:40:42.180,1.0602665,1.0606197,0.9378791,0.9832304,0.9301857,0.12858632,0.3228137,1.0014611,0.81315273,0.14528044,0.105937116,1.0175558,0.47028983,-0.13716915,-0.062269356,0.5672214,-0.28978932,-0.36923423,-0.38756293,-0.1521861,844.94507,796.5934,828.022,854.61536,761.9414,0.12548828125,0.174072265625,0.980224609375,4.583282470703125,-5.839385986328125,3.87298583984375,1,1.0,1.0,1.0,1.0,85.00
2021-04-28 11:40:42.681,1.038712,1.1192343,0.9888865,1.0361744,0.9649228,0.29451874,0.3641183,1.0585046,0.7876109,0.21083635,0.12025364,0.9931874,0.44255745,-0.008810801,-0.068830855,0.56735784,-0.2843494,-0.43111256,-0.37624,-0.1461592,826.8132,813.91943,800.2198,819.15753,757.1062,0.14898681640625,0.16082763671875,0.977783203125,2.9608154296875,-4.613189697265625,1.09161376953125,1,1.0,1.0,1.0,1.0,85.00
2021-04-28 11:40:43.198,0.9699062,0.904925,0.936779,1.0936245,0.6463125,0.15279137,0.33822873,0.87140054,0.78596145,0.17595783,0.2741942,0.6225971,0.26437977,0.002433891,-0.096259005,0.1236702,0.0831528,-0.4978626,-0.45695895,-0.043452997,556.8498,774.0293,840.5128,563.69965,722.4542,0.163818359375,0.12066650390625,0.98779296875,-3.57391357421875,-1.727142333984375,11.506805419921875,1,1.0,1.0,1.0,1.0,85.00
2021-04-28 11:40:43.332,,,,,,,,,,,,,,,,,,,,,,,,,,,,,,,,,,,,,,/muse/elements/blink
2021-04-28 11:40:43.722,0.9699062,0.5967115,0.8578175,1.0936245,0.6463125,-0.014976853,0.31997326,0.87140054,0.78596145,0.22142555,0.3002163,0.6225971,0.26437977,-0.010848801,-0.13503031,0.1236702,0.0831528,-0.45105273,-0.47271305,-0.043452997,770.40295,798.20514,806.6667,778.0586,720.4396,0.14068603515625,0.0653076171875,0.998046875,4.94964599609375,-3.27484130859375,23.993072509765625,1,1.0,1.0,1.0,1.0,85.00
2021-04-28 11:40:44.230,0.9391265,0.6711725,0.9267597,1.0521704,0.5949123,-0.06790177,0.37007213,0.8026773,0.7371659,0.07022858,0.23924525,0.5893713,0.25266504,-0.04600065,-0.06628256,0.1356754,0.07790739,-0.33976582,-0.4979429,-0.069147676,844.1392,811.9048,805.05493,841.7216,813.91943,0.1361083984375,0.0233154296875,0.97528076171875,4.62066650390625,-8.172149658203125,6.041259765625,1,1.0,1.0,1.0,1.0,85.00
2021-04-28 11:40:44.743,0.9391265,0.7168323,0.8799733,1.0521704,0.5949123,0.011804095,0.33011338,0.8026773,0.7371659,0.07461294,0.2213523,0.5893713,0.25266504,0.016127126,-0.05654684,0.1356754,0.07790739,-0.1425267,-0.44287175,-0.069147676,828.8278,780.87915,809.89014,845.7509,650.32965,0.09619140625,-0.04022216796875,1.010498046875,1.2261962890625,27.91839599609375,2.115936279296875,1,1.0,1.0,1.0,1.0,85.00
2021-04-28 11:40:44.816,,,,,,,,,,,,,,,,,,,,,,,,,,,,,,,,,,,,,,/muse/elements/blink
2021-04-28 11:40:45.257,0.9391265,0.7236828,0.807592,1.0521704,0.5949123,0.3600902,0.3161673,0.8026773,0.7371659,0.32957202,0.15243782,0.5893713,0.25266504,0.04177937,0.20291752,0.1356754,0.07790739,-0.11150594,-0.29821807,-0.069147676,813.91943,801.4286,808.68134,816.7399,827.2161,0.0584716796875,0.014404296875,1.013427734375,6.71417236328125,-15.62652587890625,-2.34771728515625,1,1.0,1.0,1.0,1.0,85.00
2021-04-28 11:40:45.763,0.9391265,0.6988657,0.81250155,1.0521704,0.5949123,0.40217212,0.2983508,0.8026773,0.7371659,0.30364943,0.15942876,0.5893713,0.25266504,0.04910556,0.18747182,0.1356754,0.07790739,-0.092982434,-0.28039122,-0.069147676,790.14655,797.8022,803.8461,799.011,786.1172,0.1881103515625,-0.04168701171875,0.99542236328125,-0.456085205078125,-12.239532470703125,-5.86181640625,1,1.0,1.0,1.0,1.0,85.00
2021-04-28 11:40:46.265,0.9391265,0.790986,0.865189,1.0521704,0.5949123,0.48238277,0.2561259,0.8026773,0.7371659,0.36983714,0.12909567,0.5893713,0.25266504,0.072495714,0.24002953,0.1356754,0.07790739,-0.31335735,-0.19181107,-0.069147676,817.9487,813.1135,802.6374,810.293,843.3333,0.02557373046875,0.01116943359375,1.00634765625,5.921630859375,-18.116302490234375,2.115936279296875,1,2.0,1.0,1.0,2.0,85.00
2021-04-28 11:40:46.747,,,,,,,,,,,,,,,,,,,,,,,,,,,,,,,,,,,,,,/muse/elements/blink
2021-04-28 11:40:46.774,0.9391265,0.5761908,0.5327616,0.9674203,0.5949123,0.15027568,-0.25477535,0.5997476,0.7371659,0.28922978,-0.046891984,0.59610754,0.25266504,0.04314575,0.029865034,0.124120414,0.07790739,-0.39391285,-0.16541225,-0.3971438,958.1685,822.7839,794.9817,952.52747,738.97437,0.10357666015625,0.0172119140625,0.969482421875,8.03009033203125,-24.845428466796875,-3.75335693359375,1,1.0,1.0,1.0,1.0,85.00
2021-04-28 11:40:47.173,,,,,,,,,,,,,,,,,,,,,,,,,,,,,,,,,,,,,,/muse/elements/blink
2021-04-28 11:40:47.288,0.9391265,0.6503258,0.99370486,0.9674203,0.5949123,0.15448564,0.4143551,0.5997476,0.7371659,0.28922978,0.11639868,0.59610754,0.25266504,0.013951806,0.011811147,0.124120414,0.07790739,-0.39152798,-0.19978666,-0.3971438,797.8022,807.47253,813.1135,806.6667,687.8022,0.04132080078125,-0.03570556640625,0.994384765625,3.349609375,1.0467529296875,1.472930908203125,1,1.0,1.0,1.0,1.0,85.00
2021-04-28 11:40:47.804,0.9391265,1.1189963,1.1210963,0.9674203,0.5949123,0.337336,0.46253088,0.5997476,0.7371659,0.3766756,0.3693028,0.59610754,0.25266504,-0.05437898,-0.040368475,0.124120414,0.07790739,-0.3352843,-0.24429756,-0.3971438,785.7143,805.4579,812.3077,790.9524,740.989,0.1607666015625,0.02099609375,0.945068359375,0.934600830078125,27.193145751953125,3.760833740234375,1,1.0,1.0,1.0,1.0,85.00
2021-04-28 11:40:48.316,0.9391265,1.3134066,1.2554663,0.9674203,0.5949123,0.400753,0.54603785,0.5997476,0.7371659,0.3284059,0.38755602,0.59610754,0.25266504,-0.12398287,-0.041406453,0.124120414,0.07790739,-0.31442133,-0.287932,-0.3971438,821.978,771.2088,806.26373,829.2308,850.58606,0.28863525390625,-0.024169921875,1.0260009765625,5.570220947265625,6.17584228515625,-3.282318115234375,1,1.0,1.0,1.0,1.0,85.00
2021-04-28 11:40:48.830,0.9391265,1.4245493,1.021239,0.9674203,0.5949123,0.47206512,0.03164175,0.5997476,0.7371659,0.30605513,0.4086512,0.59610754,0.25266504,-0.14053518,-9.085431E-4,0.124120414,0.07790739,-0.287552,-0.3276619,-0.3971438,740.989,809.89014,828.4249,749.45056,728.0952,0.054443359375,-0.0181884765625,1.021484375,3.820648193359375,-18.4228515625,-1.80938720703125,1,1.0,1.0,1.0,1.0,85.00
2021-04-28 11:40:49.112,,,,,,,,,,,,,,,,,,,,,,,,,,,,,,,,,,,,,,/muse/elements/blink
2021-04-28 11:40:49.342,0.9391265,1.3520627,0.9365293,0.9674203,0.5949123,0.3101968,-0.055650346,0.5997476,0.7371659,0.15027234,0.19221023,0.59610754,0.25266504,-0.17048268,0.011118242,0.124120414,0.07790739,-0.32333738,-0.34333783,-0.3971438,780.87915,797.8022,812.3077,789.34064,765.56775,0.12005615234375,0.1234130859375,0.96453857421875,18.18359375,-21.48834228515625,7.82073974609375,1,2.0,1.0,1.0,2.0,85.00
2021-04-28 11:40:49.849,0.9391265,1.3520627,0.73738354,0.9674203,0.5949123,0.3101968,-0.023458757,0.5997476,0.7371659,0.15027234,0.077539355,0.59610754,0.25266504,-0.17048268,0.042055815,0.124120414,0.07790739,-0.32333738,-0.34946355,-0.3971438,802.6374,803.8461,809.4872,808.68134,690.2198,0.0538330078125,0.140625,0.9478759765625,7.170257568359375,-1.98883056640625,-0.874786376953125,1,2.0,1.0,1.0,2.0,85.00
2021-04-28 11:40:50.361,0.9391265,1.3520627,0.6698222,0.9674203,0.5949123,0.3101968,-0.056333702,0.5997476,0.7371659,0.15027234,-0.02110125,0.59610754,0.25266504,-0.17048268,0.0433347,0.124120414,0.07790739,-0.32333738,-0.3557434,-0.3971438,720.0366,777.6557,812.71063,720.4396,826.0073,0.13885498046875,0.1856689453125,1.0157470703125,-0.485992431640625,7.902984619140625,12.523651123046875,1,2.0,1.0,1.0,2.0,85.00
2021-04-28 11:40:50.415,,,,,,,,,,,,,,,,,,,,,,,,,,,,,,,,,,,,,,/muse/elements/blink
2021-04-28 11:40:50.867,0.9391265,1.2301172,0.6698222,0.9674203,0.5949123,0.44080442,-0.056333702,0.5997476,0.7371659,0.48205337,-0.02110125,0.59610754,0.25266504,0.104589336,0.0433347,0.124120414,0.07790739,-0.14504603,-0.3557434,-0.3971438,802.23444,803.8461,809.89014,816.337,679.34064,0.0963134765625,0.11431884765625,0.994140625,0.964508056640625,-12.508697509765625,-1.457977294921875,1,2.0,1.0,1.0,2.0,85.00
2021-04-28 11:40:51.371,0.9391265,1.1605147,0.6698222,0.9674203,0.5949123,0.37483868,-0.056333702,0.5997476,0.7371659,0.48271966,-0.02110125,0.59610754,0.25266504,0.13919666,0.0433347,0.124120414,0.07790739,-0.1522919,-0.3557434,-0.3971438,786.1172,798.20514,807.0696,795.38464,768.7912,0.0870361328125,0.0556640625,0.9688720703125,1.622467041015625,-6.10107421875,-4.71038818359375,1,2.0,1.0,1.0,2.0,85.00
2021-04-28 11:40:51.724,,,,,,,,,,,,,,,,,,,,,,,,,,,,,,,,,,,,,,/muse/elements/blink
2021-04-28 11:40:51.883,0.9391265,1.0831902,1.180728,0.9674203,0.5949123,0.36649904,0.3768689,0.5997476,0.7371659,0.28018102,0.2326455,0.59610754,0.25266504,0.1337334,0.13311538,0.124120414,0.07790739,-0.26363665,-0.25746936,-0.3971438,817.5458,815.9341,809.89014,813.91943,740.989,0.17919921875,0.0765380859375,0.97955322265625,5.682373046875,-2.654266357421875,0.022430419921875,1,2.0,1.0,1.0,2.0,85.00
2021-04-28 11:40:52.408,0.9391265,0.8716954,1.1437905,0.9674203,0.5949123,0.30963415,0.17280579,0.5997476,0.7371659,0.28947803,0.27376106,0.59610754,0.25266504,0.04819755,0.025722513,0.124120414,0.07790739,-0.3633889,-0.4033104,-0.3971438,817.9487,800.6227,801.02563,808.68134,805.05493,0.18646240234375,0.079345703125,1.00341796875,5.06927490234375,-8.792724609375,2.7215576171875,1,2.0,1.0,1.0,2.0,85.00
2021-04-28 11:40:52.912,0.9391265,0.7767135,1.0127592,0.9674203,0.5949123,0.2223105,0.035432238,0.5997476,0.7371659,0.32862872,0.27840614,0.59610754,0.25266504,-0.04443713,0.026728136,0.124120414,0.07790739,-0.48028857,-0.4487416,-0.3971438,806.6667,807.47253,806.26373,804.2491,701.9048,0.16717529296875,0.0960693359375,0.97021484375,6.10107421875,-6.6094970703125,4.68048095703125,1,2.0,1.0,1.0,2.0,85.00
2021-04-28 11:40:53.419,0.24554747,0.73933464,0.7577172,0.46428856,-0.0106989425,0.11964659,-0.3247589,-0.24672838,0.4681361,0.38687724,0.08304442,0.045337707,0.23951611,-0.16480774,-0.007729536,0.3272283,-0.3181622,-0.55663353,-0.50159496,-0.39957377,759.92676,812.71063,786.52014,756.30035,705.12823,0.16357421875,0.058349609375,0.98553466796875,3.8580322265625,0.919647216796875,-2.429962158203125,1,2.0,1.0,1.0,2.0,85.00
2021-04-28 11:40:53.931,0.43287483,0.18385918,0.3448995,0.61912763,0.16513409,-0.2858759,-0.1473811,-0.050346043,0.5326397,0.3380945,0.17295527,0.35578215,0.23627481,-0.13254644,-0.04447002,0.28059617,-0.3681459,-0.565144,-0.43905738,-0.3103538,763.5531,777.25275,817.9487,764.35895,714.3956,0.176513671875,0.072998046875,0.9854736328125,5.181427001953125,0.22430419921875,6.721649169921875,1,1.0,1.0,1.0,1.0,85.00
2021-04-28 11:40:53.997,,,,,,,,,,,,,,,,,,,,,,,,,,,,,,,,,,,,,,/muse/elements/blink
2021-04-28 11:40:54.287,,,,,,,,,,,,,,,,,,,,,,,,,,,,,,,,,,,,,,/muse/elements/blink
2021-04-28 11:40:54.449,0.43287483,1.0207111,0.6518415,0.61912763,0.16513409,0.24921367,0.15017155,-0.050346043,0.5326397,0.37562785,0.20563923,0.35578215,0.23627481,0.0080649555,-0.08582984,0.28059617,-0.3681459,-0.47784755,-0.43077037,-0.3103538,829.6337,808.68134,802.6374,820.7692,696.6667,0.124755859375,0.03363037109375,0.98748779296875,3.30474853515625,6.6693115234375,-7.274932861328125,1,1.0,1.0,1.0,1.0,85.00
2021-04-28 11:40:54.976,0.5331475,1.2136334,0.86667895,0.71252036,0.28088403,0.59709173,0.3457831,0.025820153,0.5313699,0.4323949,0.20245515,0.30632052,0.24363284,0.08778035,-0.18549888,0.22537817,-0.43775553,-0.3768081,-0.44797787,-0.22983322,931.1722,835.2747,796.5934,910.2198,774.83514,0.1385498046875,0.07659912109375,0.96038818359375,13.794708251953125,-21.510772705078125,-3.529052734375,1,1.0,1.0,1.0,1.0,85.00
2021-04-28 11:40:55.002,,,,,,,,,,,,,,,,,,,,,,,,,,,,,,,,,,,,,,/muse/elements/blink
2021-04-28 11:40:55.484,0.5331475,1.3011701,1.3710443,0.71252036,0.28088403,0.6801481,0.7510224,0.025820153,0.5313699,0.4323949,0.27129838,0.30632052,0.24363284,0.13202648,0.00103242,0.22537817,-0.43775553,-0.07136754,-0.5460503,-0.22983322,800.6227,811.50183,801.8315,801.8315,678.1319,0.2305908203125,0.19207763671875,0.95745849609375,9.114227294921875,-6.003875732421875,5.9814453125,1,1.0,1.0,1.0,1.0,85.00
2021-04-28 11:40:55.990,0.5331475,0.9334046,1.1983523,0.71252036,0.28088403,0.6001865,0.61926365,0.025820153,0.5313699,0.42070216,0.13820782,0.30632052,0.24363284,0.02051189,0.0031502107,0.22537817,-0.43775553,0.012867345,-0.39921758,-0.22983322,781.685,807.0696,807.8755,799.81683,692.23444,0.21044921875,0.219482421875,0.95880126953125,4.628143310546875,-2.325286865234375,6.68426513671875,1,1.0,1.0,1.0,1.0,85.00
2021-04-28 11:40:56.522,0.5331475,0.50243336,1.0481038,0.71252036,0.28088403,0.3014229,0.50197804,0.025820153,0.5313699,0.14332247,0.1717835,0.30632052,0.24363284,0.06497027,0.060009286,0.22537817,-0.43775553,-0.005368095,-0.4404488,-0.22983322,782.0879,821.5751,794.9817,767.1795,785.31134,0.17059326171875,0.21881103515625,0.9324951171875,8.336639404296875,-4.5458984375,-13.929290771484375,1,2.0,1.0,1.0,2.0,85.00
2021-04-28 11:40:57.040,0.7810818,0.81939256,0.7946447,0.71252036,0.62804526,0.48563808,0.31829545,0.025820153,0.74680024,0.56076473,0.35362452,0.30632052,0.67178667,0.0058226227,0.070233144,0.22537817,0.081850104,-0.39527294,-0.3829503,-0.22983322,666.8498,803.44324,835.6777,673.69965,804.2491,0.12652587890625,0.2789306640625,0.98382568359375,-1.697235107421875,-4.553375244140625,-4.254302978515625,1,1.0,1.0,1.0,1.0,85.00
2021-04-28 11:40:57.132,,,,,,,,,,,,,,,,,,,,,,,,,,,,,,,,,,,,,,/muse/elements/blink
2021-04-28 11:40:57.447,,,,,,,,,,,,,,,,,,,,,,,,,,,,,,,,,,,,,,/muse/elements/blink
2021-04-28 11:40:57.571,0.7810818,0.98886096,0.9181574,0.71252036,0.62804526,0.533451,0.34438437,0.025820153,0.74680024,0.5623088,0.37639818,0.30632052,0.67178667,0.05718937,0.09187679,0.22537817,0.081850104,-0.41193157,-0.36325184,-0.22983322,809.4872,798.60803,797.3993,809.0842,806.6667,0.1868896484375,0.25677490234375,0.960205078125,6.138458251953125,-4.1571044921875,6.512298583984375,1,1.0,1.0,1.0,1.0,85.00
2021-04-28 11:40:58.098,0.9766028,1.1284636,1.1077365,0.71252036,0.76070005,0.59227324,0.46634072,0.025820153,0.7330974,0.5563823,0.37639818,0.30632052,0.81469804,0.105944,0.040109877,0.22537817,-0.021119902,-0.31884512,-0.27143526,-0.22983322,798.20514,832.4542,796.99634,788.5348,745.0183,0.18414306640625,0.24853515625,0.95343017578125,4.912261962890625,-5.2337646484375,0.157012939453125,1,1.0,1.0,1.0,1.0,85.00
2021-04-28 11:40:58.618,0.9766028,1.0177221,0.9625553,0.71252036,0.76070005,0.5083933,0.48752144,0.025820153,0.7330974,0.5071215,0.25682396,0.30632052,0.81469804,0.1834389,0.022982527,0.22537817,-0.021119902,-0.23984055,-0.2605453,-0.22983322,795.38464,803.44324,813.5165,803.0403,708.3516,0.2056884765625,0.24261474609375,0.9501953125,4.777679443359375,-6.437530517578125,1.80938720703125,1,1.0,1.0,1.0,1.0,85.00
2021-04-28 11:40:59.129,0.33114362,0.86128354,0.53165257,0.6225698,0.24432808,0.40499827,0.31356034,0.52520436,0.5352301,0.44495004,0.011356293,0.60910076,0.75094736,0.1785638,0.04712905,0.26953417,0.12818515,-0.2594318,-0.35761645,-0.037919052,804.65204,805.4579,798.60803,805.4579,871.13556,0.18707275390625,0.2552490234375,0.949462890625,4.717864990234375,-3.5888671875,3.267364501953125,1,1.0,1.0,1.0,1.0,85.00
2021-04-28 11:40:59.647,0.1765922,0.5322172,0.43081868,0.50597167,0.20898373,0.1979155,0.18735768,0.48670173,0.67332906,0.41078836,0.037278242,0.60910076,0.6790239,0.11600478,6.052913E-4,0.21716812,0.13716644,-0.4068778,-0.39105362,-0.12389135,924.7253,869.12085,854.61536,921.0989,783.2967,0.15167236328125,0.13720703125,0.96051025390625,-10.16845703125,2.609405517578125,35.6793212890625,1,1.0,1.0,1.0,1.0,85.00
2021-04-28 11:40:59.651,,,,,,,,,,,,,,,,,,,,,,,,,,,,,,,,,,,,,,/muse/elements/blink
2021-04-28 11:41:00.148,0.1765922,0.41968098,0.08155984,0.50597167,0.20898373,-0.038709793,-0.27130407,0.48670173,0.67332906,0.34602827,-0.17787352,0.60910076,0.6790239,0.049149502,-0.027181908,0.21716812,0.13716644,-0.5520826,-0.46032783,-0.12389135,805.4579,815.9341,819.5604,806.6667,668.0586,0.20867919921875,0.08673095703125,0.9658203125,3.0206298828125,-9.67498779296875,3.775787353515625,1,1.0,1.0,1.0,1.0,85.00
2021-04-28 11:41:00.585,,,,,,,,,,,,,,,,,,,,,,,,,,,,,,,,,,,,,,/muse/elements/blink
2021-04-28 11:41:00.684,-0.2520222,-0.37869886,-0.02930595,0.22332989,0.15211338,-0.39248112,-0.6168766,0.40141088,0.67332906,-0.057165157,-0.25377375,0.35630828,0.52456045,-0.0031649445,-0.1436837,0.13095382,0.13637593,-0.5146012,-0.4880088,-0.31069565,782.8938,814.7253,795.78754,782.0879,664.0293,0.2464599609375,0.158935546875,1.0069580078125,11.70867919921875,-14.0863037109375,1.921539306640625,1,1.0,1.0,1.0,1.0,85.00
2021-04-28 11:41:01.178,,,,,,,,,,,,,,,,,,,,,,,,,,,,,,,,,,,,,,/muse/elements/blink
2021-04-28 11:41:01.202,-0.2520222,-0.37869886,-0.02930595,0.22332989,0.15211338,-0.39248112,-0.6168766,0.40141088,0.67332906,-0.057165157,-0.25377375,0.35630828,0.52456045,-0.0031649445,-0.1436837,0.13095382,0.13637593,-0.5146012,-0.4880088,-0.31069565,870.7326,808.2784,796.1905,876.77655,694.65204,0.16302490234375,0.09698486328125,0.97747802734375,-3.66363525390625,3.416900634765625,10.4376220703125,1,1.0,1.0,1.0,1.0,85.00
2021-04-28 11:41:01.718,-0.2520222,-0.37869886,-0.02930595,0.22332989,0.15211338,-0.39248112,-0.6168766,0.40141088,0.67332906,-0.057165157,-0.25377375,0.35630828,0.52456045,-0.0031649445,-0.1436837,0.13095382,0.13637593,-0.5146012,-0.4880088,-0.31069565,787.72894,800.2198,812.3077,781.685,753.47986,0.099609375,0.03350830078125,0.99188232421875,4.85992431640625,-5.084228515625,-1.06170654296875,1,1.0,1.0,1.0,1.0,85.00
2021-04-28 11:41:02.230,,,,,,,,,,,,,,,,,,,,,,,,,,,,,,,,,,,,,,/muse/elements/blink
2021-04-28 11:41:02.232,-0.2520222,-0.37869886,-0.02930595,0.22332989,0.15211338,-0.39248112,-0.6168766,0.40141088,0.67332906,-0.057165157,-0.25377375,0.35630828,0.52456045,-0.0031649445,-0.1436837,0.13095382,0.13637593,-0.5146012,-0.4880088,-0.31069565,833.663,816.337,800.6227,824.7985,767.5824,0.1373291015625,0.07281494140625,0.99188232421875,7.05810546875,-5.540313720703125,-2.071075439453125,1,2.0,1.0,1.0,2.0,85.00
2021-04-28 11:41:02.742,-0.2520222,0.99924237,1.1311816,0.22332989,0.15211338,0.117425896,0.22454415,0.40141088,0.67332906,0.048199907,0.08465936,0.35630828,0.52456045,-0.28113025,-0.04074633,0.13095382,0.13637593,-0.31851894,-0.27774966,-0.31069565,803.8461,792.1612,804.65204,801.02563,755.89746,0.1309814453125,0.08673095703125,1.00714111328125,7.035675048828125,-4.66552734375,3.8580322265625,1,2.0,1.0,1.0,2.0,85.00
2021-04-28 11:41:03.262,-0.2520222,0.85951614,0.9225779,0.22332989,0.15211338,0.073896214,0.035006568,0.40141088,0.67332906,0.13599634,0.1276744,0.35630828,0.52456045,-0.20623235,-0.06676724,0.13095382,0.13637593,-0.29507065,-0.3441844,-0.31069565,785.7143,799.41394,796.99634,786.9231,783.2967,0.130126953125,0.11651611328125,1.00982666015625,6.05621337890625,-2.818756103515625,6.71417236328125,1,2.0,1.0,1.0,2.0,85.00
2021-04-28 11:41:03.715,,,,,,,,,,,,,,,,,,,,,,,,,,,,,,,,,,,,,,/muse/elements/blink
2021-04-28 11:41:03.763,-0.2520222,0.8374158,0.81477845,0.22332989,0.15211338,0.17402977,-0.058023788,0.40141088,0.67332906,0.10298171,0.1276744,0.35630828,0.52456045,-0.15228093,0.012877066,0.13095382,0.13637593,-0.36882132,-0.30625743,-0.31069565,859.85345,809.4872,789.34064,851.79486,825.6044,0.09112548828125,0.05413818359375,0.98455810546875,0.859832763671875,-2.684173583984375,3.312225341796875,1,2.0,1.0,1.0,2.0,85.00
2021-04-28 11:41:04.279,-0.2520222,0.51178837,0.33324003,0.22332989,0.15211338,0.10715768,-0.42757106,0.40141088,0.67332906,0.030176435,-0.06456896,0.35630828,0.52456045,-0.10978125,0.04331334,0.13095382,0.13637593,-0.37778214,-0.3250744,-0.31069565,830.4396,807.47253,807.0696,815.9341,780.07324,0.07672119140625,0.06878662109375,1.002197265625,2.6617431640625,-4.29168701171875,-1.009368896484375,1,2.0,1.0,1.0,2.0,85.00
2021-04-28 11:41:04.807,-0.2520222,0.54044235,0.14937952,0.22332989,0.15211338,0.1151733,-0.34509328,0.40141088,0.67332906,-0.051148407,-0.08857059,0.35630828,0.52456045,-0.077632904,0.23016141,0.13095382,0.13637593,-0.44615716,-0.2571294,-0.31069565,808.68134,806.6667,798.20514,805.4579,735.34796,0.087890625,0.05950927734375,0.9866943359375,3.222503662109375,-3.72344970703125,-0.306549072265625,1,2.0,1.0,1.0,2.0,85.00
2021-04-28 11:41:05.108,,,,,,,,,,,,,,,,,,,,,,,,,,,,,,,,,,,,,,/muse/elements/blink
2021-04-28 11:41:05.331,-0.2520222,0.3227194,0.38261494,0.22332989,0.15211338,-0.108456165,0.059911564,0.40141088,0.67332906,-0.53388983,0.11719814,0.35630828,0.52456045,0.10538072,0.29761544,0.13095382,0.13637593,-0.3847612,-0.35148692,-0.31069565,801.02563,799.81683,812.3077,801.8315,649.5238,0.16943359375,0.10455322265625,0.999755859375,15.828399658203125,-15.858306884765625,-7.2076416015625,1,2.0,1.0,1.0,2.0,85.00
2021-04-28 11:41:05.844,-0.2520222,0.3227194,0.7535126,0.22332989,0.15211338,-0.108456165,0.25268975,0.40141088,0.67332906,-0.53388983,0.25861612,0.35630828,0.52456045,0.10538072,0.21268435,0.13095382,0.13637593,-0.3847612,-0.32973385,-0.31069565,792.1612,807.8755,809.0842,798.60803,788.93774,0.22515869140625,0.157958984375,0.9747314453125,8.83758544921875,-11.147918701171875,3.1402587890625,1,2.0,1.0,1.0,2.0,85.00
2021-04-28 11:41:06.367,-0.2520222,0.26856247,0.64909506,0.22332989,0.15211338,-0.19162332,0.12623842,0.40141088,0.67332906,-0.006680079,0.28842086,0.35630828,0.52456045,-7.634877E-4,0.15078749,0.13095382,0.13637593,-0.4292942,-0.24961367,-0.31069565,792.5641,813.1135,805.4579,796.5934,825.6044,0.225830078125,0.161376953125,0.9591064453125,4.08233642578125,-3.96270751953125,1.203765869140625,1,2.0,1.0,1.0,2.0,85.00
2021-04-28 11:41:06.873,0.47405583,0.24794208,0.6857112,0.89203143,0.24702848,-0.27870965,0.04459214,0.80143964,0.2527999,0.105696976,0.3039737,0.37858325,0.3887262,-0.23853014,0.09290521,0.19001,-0.060570184,-0.45043007,-0.21887505,-0.11433797,776.04395,826.0073,786.1172,763.95605,728.9011,0.232666015625,0.18017578125,0.95013427734375,6.83380126953125,-5.9814453125,-14.333038330078125,1,1.0,1.0,1.0,1.0,85.00
2021-04-28 11:41:07.391,1.0179199,0.8992859,0.8109935,0.89203143,0.6933261,0.3447731,0.43484533,0.80143964,0.83274347,0.57735014,0.73079276,0.37858325,0.5639137,-0.15517065,0.10911098,0.19001,0.031440463,-0.47650135,-0.1890691,-0.11433797,828.4249,815.12823,806.26373,820.7692,828.4249,0.21295166015625,0.22735595703125,0.94390869140625,3.6187744140625,-5.93658447265625,-1.24114990234375,1,1.0,1.0,1.0,1.0,85.00
2021-04-28 11:41:07.904,1.0217974,0.9950407,0.9683639,0.89203143,0.7213794,0.35641268,0.5283666,0.80143964,0.8494886,0.57735014,0.7254941,0.37858325,0.64830464,-0.11390772,0.10686234,0.19001,0.1379887,-0.4770351,-0.27509642,-0.11433797,801.02563,807.8755,801.4286,802.6374,686.1905,0.2327880859375,0.21630859375,0.95489501953125,3.880462646484375,-3.768310546875,1.517791748046875,1,1.0,1.0,1.0,1.0,85.00
2021-04-28 11:41:08.410,0.9459724,1.0009944,0.92306286,0.38247865,0.7122682,0.3721615,0.5342388,0.33333614,0.9218196,0.57735014,0.7242146,0.18984963,0.7043968,-0.047743767,0.05601623,0.14173202,0.1788425,-0.530683,-0.31102902,-0.13098101,784.5055,798.60803,801.4286,787.72894,661.2088,0.25604248046875,0.2313232421875,0.93341064453125,9.024505615234375,-8.14971923828125,8.8226318359375,1,1.0,1.0,1.0,1.0,85.00
2021-04-28 11:41:08.931,0.65200865,0.72968626,0.72160417,0.84196705,0.6537493,0.17284125,0.1307734,0.5531661,0.94840056,0.47013542,0.53561515,0.43331993,0.63630825,0.010523195,-0.029891143,0.369764,0.12333765,-0.48335317,-0.38855252,0.02383008,471.8315,765.16486,842.1245,477.87546,712.381,0.299072265625,0.2191162109375,0.9649658203125,-0.411224365234375,6.95343017578125,7.274932861328125,1,1.0,1.0,1.0,1.0,85.00
2021-04-28 11:41:09.101,,,,,,,,,,,,,,,,,,,,,,,,,,,,,,,,,,,,,,/muse/elements/blink
2021-04-28 11:41:09.436,0.36663666,0.63893527,0.51510936,0.84196705,0.6283097,0.43924084,-0.08030369,0.5531661,0.9376447,0.43709746,-0.12742501,0.43331993,0.5848139,0.00482512,-0.103499494,0.369764,0.05979833,-0.48027351,-0.37819853,0.02383008,896.1172,833.663,778.86444,869.5238,751.4652,0.2303466796875,0.1546630859375,0.9681396484375,11.955413818359375,-16.291961669921875,-14.662017822265625,1,1.0,1.0,1.0,1.0,85.00
2021-04-28 11:41:09.537,,,,,,,,,,,,,,,,,,,,,,,,,,,,,,,,,,,,,,/muse/elements/blink
2021-04-28 11:41:09.952,0.58893406,0.72858036,0.7360549,1.0602016,0.79844594,0.58295035,-0.053700633,0.69842607,0.7862375,0.43470913,-0.13285281,0.40349093,0.54596555,0.011881308,-0.15205199,0.5185153,-0.0010033547,-0.42687675,-0.5056216,0.13772449,784.90845,800.6227,811.9048,791.3553,710.3663,0.216796875,0.20098876953125,0.95330810546875,5.921630859375,-3.9776611328125,-3.09539794921875,1,1.0,1.0,1.0,1.0,85.00
2021-04-28 11:41:10.412,,,,,,,,,,,,,,,,,,,,,,,,,,,,,,,,,,,,,,/muse/elements/blink
2021-04-28 11:41:10.478,0.6432183,0.9450835,0.7999001,1.0602016,0.8365654,0.78884387,-0.11402036,0.69842607,0.71124995,0.37391478,-0.15862046,0.40349093,0.5246329,-0.12973517,-0.20569,0.5185153,-0.013836019,-0.47672004,-0.62295246,0.13772449,877.98535,811.50183,783.69965,874.7619,789.7436,0.14300537109375,0.13873291015625,0.97222900390625,-5.151519775390625,7.8955078125,15.8209228515625,1,1.0,1.0,1.0,1.0,85.00
2021-04-28 11:41:10.981,0.6432183,0.9450835,0.7999001,1.0602016,0.8365654,0.78884387,-0.11402036,0.69842607,0.71124995,0.37391478,-0.15862046,0.40349093,0.5246329,-0.12973517,-0.20569,0.5185153,-0.013836019,-0.47672004,-0.62295246,0.13772449,823.9927,820.7692,809.89014,810.293,734.5421,0.07666015625,0.1068115234375,0.992919921875,3.401947021484375,-0.6280517578125,1.2860107421875,1,1.0,1.0,1.0,1.0,85.00
2021-04-28 11:41:11.513,0.6432183,0.9450835,0.7999001,1.0602016,0.8365654,0.78884387,-0.11402036,0.69842607,0.71124995,0.37391478,-0.15862046,0.40349093,0.5246329,-0.12973517,-0.20569,0.5185153,-0.013836019,-0.47672004,-0.62295246,0.13772449,809.4872,809.4872,801.02563,805.4579,845.7509,0.06005859375,0.09210205078125,1.00372314453125,3.252410888671875,-1.876678466796875,-2.0635986328125,1,1.0,1.0,1.0,1.0,85.00
2021-04-28 11:41:12.041,0.6432183,0.942099,-0.0027237022,1.0602016,0.8365654,0.21852073,-0.10978978,0.69842607,0.71124995,0.42356965,0.016443051,0.40349093,0.5246329,0.15264201,0.2229839,0.5185153,-0.013836019,-0.4479181,-0.1274632,0.13772449,816.337,809.89014,810.696,818.3516,788.1319,0.0377197265625,0.121337890625,0.9974365234375,4.598236083984375,-3.880462646484375,2.100982666015625,1,2.0,1.0,1.0,2.0,85.00
2021-04-28 11:41:12.447,,,,,,,,,,,,,,,,,,,,,,,,,,,,,,,,,,,,,,/muse/elements/blink
2021-04-28 11:41:12.553,0.44057956,0.14847472,-0.11143178,0.22229467,0.6333688,-0.20714392,-0.054056343,0.2432889,0.35946506,-0.036268312,0.018108305,0.37119332,0.19063169,0.07656424,0.07155274,0.27993584,-0.25814462,-0.46718562,-0.1300109,-0.21594466,802.6374,797.3993,801.8315,809.4872,720.84247,0.10638427734375,0.131591796875,0.99713134765625,10.60211181640625,-13.196563720703125,-30.8343505859375,1,1.0,1.0,1.0,1.0,85.00
2021-04-28 11:41:13.077,0.44057956,0.4201979,0.93612695,0.22229467,0.6333688,-0.07168184,0.23110439,0.2432889,0.35946506,-0.082433805,0.06744933,0.37119332,0.19063169,0.0014059797,0.035707552,0.27993584,-0.25814462,-0.44591194,-0.20108159,-0.21594466,789.7436,803.44324,796.99634,776.04395,724.0659,0.12115478515625,0.1427001953125,0.9775390625,6.213226318359375,-7.835693359375,0.25421142578125,1,1.0,1.0,1.0,1.0,85.00
2021-04-28 11:41:13.580,0.44057956,0.6263687,0.9938108,0.23486364,0.6333688,0.09658577,0.24127066,0.30210054,0.35946506,-0.109825864,0.0760864,0.30381182,0.19063169,-0.071593516,0.005298429,0.17156447,-0.25814462,-0.3797829,-0.36521763,-0.2535585,794.17584,811.9048,806.6667,804.65204,705.12823,0.14752197265625,0.173828125,0.97900390625,1.906585693359375,-3.222503662109375,5.7421875,1,1.0,1.0,1.0,1.0,85.00
2021-04-28 11:41:13.894,,,,,,,,,,,,,,,,,,,,,,,,,,,,,,,,,,,,,,/muse/elements/blink
2021-04-28 11:41:14.094,0.44057956,1.0685667,1.0970414,0.23486364,0.6333688,0.49138469,0.39456525,0.30210054,0.35946506,0.3743205,0.26074556,0.30381182,0.19063169,0.16532236,0.07700082,0.17156447,-0.25814462,-0.36900362,-0.4924392,-0.2535585,812.71063,802.6374,796.99634,819.15753,670.07324,0.11517333984375,0.11944580078125,0.99774169921875,0.725250244140625,-2.175750732421875,3.54400634765625,1,1.0,1.0,1.0,1.0,85.00
2021-04-28 11:41:14.620,0.44057956,1.2925391,0.945534,0.23486364,0.6333688,0.59661734,0.36830598,0.30210054,0.35946506,0.45107538,0.23997846,0.30381182,0.19063169,0.17239004,0.104157835,0.17156447,-0.25814462,-0.33433044,-0.60390043,-0.2535585,912.6374,818.7546,815.9341,909.81683,701.50183,0.0567626953125,0.09381103515625,1.0072021484375,3.24493408203125,-3.69354248046875,5.091705322265625,1,1.0,1.0,1.0,1.0,85.00
2021-04-28 11:41:15.150,0.44057956,1.0561854,0.86438966,0.23486364,0.6333688,0.44094583,0.41798726,0.30210054,0.35946506,0.48058704,0.25503156,0.30381182,0.19063169,0.06916164,0.15119264,0.17156447,-0.25814462,-0.28535482,-0.41645083,-0.2535585,794.9817,807.0696,801.4286,802.6374,624.1392,0.06561279296875,0.12896728515625,0.99169921875,4.418792724609375,-2.97576904296875,-0.396270751953125,1,2.0,1.0,1.0,2.0,85.00
2021-04-28 11:41:15.380,,,,,,,,,,,,,,,,,,,,,,,,,,,,,,,,,,,,,,/muse/elements/blink
2021-04-28 11:41:15.652,0.44057956,0.6131853,0.28720742,0.23486364,0.6333688,0.3188213,0.18874122,0.30210054,0.35946506,0.27122504,0.38946387,0.30381182,0.19063169,-0.029604636,0.04131104,0.17156447,-0.25814462,-0.3499455,-0.274243,-0.2535585,794.57874,809.4872,796.1905,797.8022,741.79486,0.0718994140625,0.052978515625,0.99761962890625,4.62066650390625,-6.138458251953125,5.8917236328125,1,2.0,1.0,1.0,2.0,85.00
2021-04-28 11:41:16.171,0.44057956,0.55395657,0.62344927,0.23486364,0.6333688,0.42168468,0.35667247,0.30210054,0.35946506,0.24865948,0.4549185,0.30381182,0.19063169,-0.052812543,0.012271822,0.17156447,-0.25814462,-0.41085452,-0.32848814,-0.2535585,804.65204,807.0696,802.23444,808.68134,775.64105,0.061767578125,0.0831298828125,1.0040283203125,4.9346923828125,-6.108551025390625,4.725341796875,1,2.0,1.0,1.0,2.0,85.00
2021-04-28 11:41:16.694,0.44057956,0.517427,0.59036344,0.23486364,0.6333688,0.44538414,0.3078663,0.30210054,0.35946506,0.3177333,0.46021634,0.30381182,0.19063169,0.0113078365,0.0015912908,0.17156447,-0.25814462,-0.51513726,-0.38272962,-0.2535585,821.1722,805.05493,796.1905,816.337,747.03296,0.06964111328125,0.06890869140625,0.9964599609375,5.24871826171875,-2.803802490234375,2.429962158203125,1,2.0,1.0,1.0,2.0,85.00
2021-04-28 11:41:17.197,1.0639168,0.4495749,0.6453433,1.2757947,0.7317565,0.39375466,0.28500277,0.64782923,0.6747728,0.50220495,0.48984075,0.70346653,0.61941916,0.06814186,0.04907785,0.58513397,-0.22287802,-0.5684767,-0.37046158,-0.1367905,786.9231,805.8608,802.6374,792.5641,705.5311,0.046630859375,0.0665283203125,1.00213623046875,3.887939453125,-2.818756103515625,2.64678955078125,1,1.0,1.0,1.0,1.0,85.00
2021-04-28 11:41:17.706,0.89982516,0.28523242,0.33433256,0.9845589,0.5664158,0.24222232,0.008615963,0.40165076,0.6747728,0.50220495,0.34318075,0.70346653,0.5121907,0.124925524,0.08470248,0.48718986,-0.2700499,-0.49847013,-0.3812104,-0.17210183,773.6264,806.26373,807.47253,784.5055,701.50183,0.0355224609375,0.062255859375,1.0,4.2169189453125,-4.14215087890625,-0.052337646484375,1,1.0,1.0,1.0,1.0,85.00
2021-04-28 11:41:18.213,0.70243067,0.11832,0.26129913,0.9051439,0.3690329,0.08126144,-0.009156338,0.34480563,0.624481,0.50071263,0.2528188,0.70346653,0.41583654,0.09901141,0.083599664,0.3725625,-0.279688,-0.4991123,-0.4083149,-0.23068422,811.50183,801.02563,800.6227,807.47253,842.1245,0.0506591796875,0.05792236328125,1.00164794921875,3.297271728515625,-8.95721435546875,2.88604736328125,1,1.0,1.0,1.0,1.0,90.00
2021-04-28 11:41:18.730,0.7781449,-0.04659029,-0.070478484,0.73918957,0.24470738,-0.080776185,-0.21446723,0.16103241,0.32995218,0.18466724,-0.12926601,0.26581556,0.1985692,0.006323611,0.055055346,0.22471277,-0.27209854,-0.4691931,-0.48031315,-0.2623311,793.36993,811.9048,809.0842,796.5934,699.0842,0.058837890625,0.0567626953125,0.99993896484375,4.77020263671875,-4.000091552734375,-0.545806884765625,1,1.0,1.0,1.0,1.0,90.00
2021-04-28 11:41:19.236,0.7962369,-0.14447986,-0.051731244,0.7818305,0.2480071,-0.27455232,-0.19216993,0.23609962,0.34965506,-0.12900019,-0.10966161,0.31199333,0.15627976,-0.037170377,0.098579705,0.1450131,-0.21383612,-0.4976983,-0.40473402,-0.32589266,873.95605,809.4872,802.23444,871.9414,679.34064,0.0784912109375,0.05914306640625,1.00323486328125,3.93280029296875,-6.69921875,-0.605621337890625,1,1.0,1.0,1.0,1.0,90.00
2021-04-28 11:41:19.271,,,,,,,,,,,,,,,,,,,,,,,,,,,,,,,,,,,,,,/muse/elements/blink
2021-04-28 11:41:19.756,0.8696909,-0.08060319,0.5868351,0.8210955,0.09830487,0.12708354,0.08670007,0.24653043,0.3375456,0.12066331,-0.0029269673,0.31199333,0.22508489,-0.022313122,0.08024264,0.20320944,-0.15334839,-0.42008847,-0.29971242,-0.3050798,810.293,802.23444,805.8608,815.12823,819.9634,0.044677734375,0.0604248046875,1.00006103515625,4.35150146484375,-5.704803466796875,-2.691650390625,1,1.0,1.0,1.0,1.0,90.00
2021-04-28 11:41:19.774,,,,,,,,,,,,,,,,,,,,,,,,,,,,,,,,,,,,,,/muse/elements/blink
2021-04-28 11:41:19.977,,,,,,,,,,,,,,,,,,,,,,,,,,,,,,,,,,,,,,/muse/elements/blink
2021-04-28 11:41:20.272,0.41384453,0.54485667,0.8116725,0.46235815,0.010313485,0.45890057,0.2772442,0.29358578,0.21938398,0.2223171,0.11434077,0.3107768,0.22697234,-0.02733213,0.16003743,0.25365156,-0.13070312,-0.4487798,-0.3047926,-0.41976488,819.5604,814.3223,808.2784,815.5311,750.65936,0.11627197265625,0.14227294921875,0.9891357421875,7.155303955078125,-8.097381591796875,6.05621337890625,1,1.0,1.0,1.0,1.0,90.00
2021-04-28 11:41:20.782,0.41384453,0.73322344,1.1775211,0.46235815,0.010313485,0.6455678,0.38962018,0.29358578,0.21938398,0.2223171,0.26995346,0.3107768,0.22697234,-0.06893087,0.010239121,0.25365156,-0.13070312,-0.46043333,-0.5454448,-0.41976488,835.6777,823.5897,815.5311,820.7692,761.9414,0.13201904296875,0.15301513671875,0.97607421875,5.151519775390625,-5.495452880859375,2.811279296875,1,1.0,1.0,1.0,1.0,90.00
2021-04-28 11:41:21.298,0.41384453,0.774311,0.99072075,0.46235815,0.010313485,0.5388531,0.20025791,0.29358578,0.21938398,0.15384613,0.23963065,0.3107768,0.22697234,-0.06244245,0.027304262,0.25365156,-0.13070312,-0.5144538,-0.6736879,-0.41976488,790.9524,805.4579,808.2784,794.57874,730.5128,0.1502685546875,0.17059326171875,0.98199462890625,4.77020263671875,-5.644989013671875,1.233673095703125,1,1.0,1.0,1.0,1.0,90.00
2021-04-28 11:41:21.826,0.12851946,-0.1630978,0.8407466,0.056651298,0.13966933,0.05401594,0.066968724,0.31272483,0.6496777,0.056887608,0.18532567,0.3368388,0.15513493,0.05579313,-0.0519709,0.043275606,-0.100568086,-0.57292545,-0.61608696,-0.22614115,808.2784,812.3077,809.89014,808.2784,734.1392,0.15557861328125,0.1796875,0.98223876953125,5.106658935546875,-3.93280029296875,3.7982177734375,1,1.0,1.0,1.0,1.0,90.00
2021-04-28 11:41:22.207,,,,,,,,,,,,,,,,,,,,,,,,,,,,,,,,,,,,,,/muse/elements/blink
2021-04-28 11:41:22.340,0.09148643,0.1262883,-0.027066031,-0.042056546,0.22546564,0.029675609,-0.18073197,0.28864232,0.8202569,0.1910399,-0.13177145,0.3431136,0.17215204,-0.0020319608,-0.09564152,0.022945618,-0.06701977,-0.5565627,-0.5315125,-0.30244267,843.3333,816.337,786.1172,835.6777,731.7216,0.083251953125,0.0899658203125,0.97869873046875,0.478515625,2.46734619140625,12.54608154296875,1,1.0,1.0,1.0,1.0,90.00
2021-04-28 11:41:22.863,0.073355526,0.19640703,-0.033922244,-0.07784887,0.21884792,0.0324008,-0.19392343,0.28387463,0.81384176,0.1709555,-0.31222492,0.27598685,0.16619815,-0.058448505,-0.18559021,0.001158253,-0.06452852,-0.6660989,-0.5081387,-0.3395588,813.5165,809.89014,804.65204,816.7399,968.6447,0.06793212890625,0.073974609375,0.99188232421875,4.194488525390625,-1.03179931640625,-0.52337646484375,1,1.0,1.0,1.0,1.0,90.00
2021-04-28 11:41:23.370,0.05031308,0.3694451,-0.22439094,-0.22324367,0.2614267,-0.026398769,-0.37976742,0.20490061,0.79232526,0.07645012,-0.48734865,0.095859945,0.2086323,-0.12690273,-0.3036281,-0.023850894,-0.032121215,-0.46080646,-0.5022127,-0.4647237,966.63007,836.4835,769.19415,943.663,767.98535,0.13714599609375,0.13238525390625,0.99810791015625,10.609588623046875,-13.5479736328125,-36.494293212890625,1,1.0,1.0,1.0,1.0,90.00
2021-04-28 11:41:23.438,,,,,,,,,,,,,,,,,,,,,,,,,,,,,,,,,,,,,,/muse/elements/blink
2021-04-28 11:41:23.872,0.05031308,0.98449165,-0.22439094,-0.22324367,0.2614267,-0.07713391,-0.37976742,0.20490061,0.79232526,-0.07970252,-0.48734865,0.095859945,0.2086323,0.03311353,-0.3036281,-0.023850894,-0.032121215,-0.47983426,-0.5022127,-0.4647237,816.7399,807.8755,806.26373,805.05493,691.8315,0.16064453125,0.1600341796875,0.98199462890625,3.768310546875,-7.349700927734375,0.441131591796875,1,1.0,1.0,1.0,1.0,90.00
2021-04-28 11:41:24.244,,,,,,,,,,,,,,,,,,,,,,,,,,,,,,,,,,,,,,/muse/elements/blink
2021-04-28 11:41:24.395,0.05031308,0.98449165,-0.22439094,-0.22324367,0.2614267,-0.07713391,-0.37976742,0.20490061,0.79232526,-0.07970252,-0.48734865,0.095859945,0.2086323,0.03311353,-0.3036281,-0.023850894,-0.032121215,-0.47983426,-0.5022127,-0.4647237,803.44324,810.293,802.23444,809.0842,754.68866,0.09515380859375,0.09564208984375,0.9844970703125,1.233673095703125,0.964508056640625,11.237640380859375,1,1.0,1.0,1.0,1.0,90.00
2021-04-28 11:41:24.901,0.05031308,1.0738962,-0.22439094,-0.22324367,0.2614267,-0.016932376,-0.37976742,0.20490061,0.79232526,-0.10089617,-0.48734865,0.095859945,0.2086323,0.06478645,-0.3036281,-0.023850894,-0.032121215,-0.5085273,-0.5022127,-0.4647237,822.381,811.0989,803.44324,817.1429,793.36993,0.07720947265625,0.0489501953125,1.00738525390625,3.401947021484375,-0.55328369140625,7.873077392578125,1,2.0,1.0,1.0,2.0,90.00
2021-04-28 11:41:25.403,0.05031308,1.0738962,-0.22439094,-0.22324367,0.2614267,-0.016932376,-0.37976742,0.20490061,0.79232526,-0.10089617,-0.48734865,0.095859945,0.2086323,0.06478645,-0.3036281,-0.023850894,-0.032121215,-0.5085273,-0.5022127,-0.4647237,798.20514,804.65204,806.26373,798.60803,724.0659,0.06512451171875,0.0770263671875,1.0023193359375,4.38140869140625,-4.41131591796875,0.179443359375,1,2.0,1.0,1.0,2.0,90.00
2021-04-28 11:41:25.912,0.05031308,-0.322372,0.22912268,-0.29149547,0.2614267,-0.559119,-0.29778752,-0.051689953,0.79232526,-0.25537798,-0.10421381,0.48597708,0.2086323,-0.027114978,0.1073895,0.14718628,-0.032121215,-0.23741683,-0.22103873,-0.5148576,848.5714,834.87177,796.99634,837.28937,802.23444,0.1263427734375,0.13531494140625,1.00164794921875,12.807769775390625,-11.028289794921875,-28.99505615234375,1,1.0,1.0,1.0,1.0,90.00
2021-04-28 11:41:25.995,,,,,,,,,,,,,,,,,,,,,,,,,,,,,,,,,,,,,,/muse/elements/blink
2021-04-28 11:41:26.261,,,,,,,,,,,,,,,,,,,,,,,,,,,,,,,,,,,,,,/muse/elements/blink
2021-04-28 11:41:26.422,0.05031308,-0.322372,1.0214052,-0.29149547,0.2614267,-0.559119,0.101531975,-0.051689953,0.79232526,-0.25537798,0.1691412,0.48597708,0.2086323,-0.027114978,0.044643365,0.14718628,-0.032121215,-0.23741683,-0.284254,-0.5148576,810.293,805.4579,798.60803,798.20514,786.52014,0.16693115234375,0.1419677734375,0.9854736328125,3.102874755859375,-4.05242919921875,4.9346923828125,1,1.0,1.0,1.0,1.0,90.00
2021-04-28 11:41:26.756,,,,,,,,,,,,,,,,,,,,,,,,,,,,,,,,,,,,,,/muse/elements/blink
2021-04-28 11:41:26.935,0.05031308,-0.5734992,1.0979912,-0.29149547,0.2614267,-0.674494,0.15502593,-0.051689953,0.79232526,-0.3841199,0.30013302,0.48597708,0.2086323,-0.0398897,0.076428376,0.14718628,-0.032121215,-0.21858585,-0.2917717,-0.5148576,829.2308,819.15753,807.0696,834.87177,879.19415,0.06903076171875,0.06817626953125,0.99847412109375,4.50103759765625,-3.84307861328125,4.306640625,1,1.0,1.0,1.0,1.0,90.00
2021-04-28 11:41:27.467,0.05031308,-0.5734992,1.3349615,-0.29149547,0.2614267,-0.674494,0.33401585,-0.051689953,0.79232526,-0.3841199,0.30013302,0.48597708,0.2086323,-0.0398897,0.036895912,0.14718628,-0.032121215,-0.21858585,-0.37342823,-0.5148576,772.8205,808.2784,802.6374,767.98535,637.4359,0.0809326171875,0.0740966796875,1.00067138671875,4.284210205078125,-3.09539794921875,1.4654541015625,1,1.0,1.0,1.0,1.0,90.00
2021-04-28 11:41:27.973,0.05031308,-0.5734992,1.4456375,-0.29149547,0.2614267,-0.674494,0.4087599,-0.051689953,0.79232526,-0.3841199,0.30013302,0.48597708,0.2086323,-0.0398897,0.11292426,0.14718628,-0.032121215,-0.21858585,-0.39294872,-0.5148576,794.9817,804.2491,805.8608,788.5348,669.67035,0.08782958984375,0.068359375,0.99652099609375,2.1234130859375,-8.7628173828125,-4.762725830078125,1,1.0,1.0,1.0,1.0,90.00
2021-04-28 11:41:28.477,0.05031308,-0.027860316,-0.75024956,-0.29149547,0.2614267,0.015107268,-0.25060073,-0.051689953,0.79232526,0.171098,-0.32808155,0.48597708,0.2086323,-0.019478906,0.097873054,0.14718628,-0.032121215,-0.6578363,-0.37473607,-0.5148576,814.3223,807.8755,809.4872,807.0696,731.31866,0.0535888671875,0.0606689453125,0.99951171875,2.519683837890625,-1.353302001953125,-1.77947998046875,1,1.0,1.0,1.0,1.0,85.00
2021-04-28 11:41:28.981,0.05031308,0.3688294,-0.16468516,-0.29149547,0.2614267,0.34257105,0.036310986,-0.051689953,0.79232526,0.5036088,0.21668868,0.48597708,0.2086323,0.09265957,-5.841267E-4,0.14718628,-0.032121215,-0.5561859,-0.32877436,-0.5148576,767.5824,789.7436,811.50183,757.1062,740.989,0.073486328125,0.06878662109375,1.004150390625,2.31781005859375,-1.143951416015625,-3.2598876953125,1,2.0,1.0,1.0,2.0,85.00
2021-04-28 11:41:29.144,,,,,,,,,,,,,,,,,,,,,,,,,,,,,,,,,,,,,,/muse/elements/blink
2021-04-28 11:41:29.487,0.05031308,0.8231972,0.61713195,-0.29149547,0.2614267,0.4900011,0.46500838,-0.051689953,0.79232526,0.5036088,0.50338215,0.48597708,0.2086323,0.08000979,-0.028310763,0.14718628,-0.032121215,-0.36556455,-0.26735023,-0.5148576,819.9634,800.6227,802.6374,810.696,781.685,0.02679443359375,0.01910400390625,1.000244140625,5.21881103515625,-8.067474365234375,3.117828369140625,1,2.0,1.0,1.0,2.0,85.00
2021-04-28 11:41:29.992,0.05031308,0.9285395,0.77080715,-0.29149547,0.2614267,0.5168305,0.59409046,-0.051689953,0.79232526,0.5036088,0.50338215,0.48597708,0.2086323,0.06115241,-0.05145889,0.14718628,-0.032121215,-0.3511314,-0.21948855,-0.5148576,791.3553,805.4579,799.41394,809.89014,802.6374,0.043701171875,0.033203125,1.0076904296875,6.44500732421875,-2.6617431640625,-0.635528564453125,1,2.0,1.0,1.0,2.0,85.00
2021-04-28 11:41:30.502,0.05031308,0.86531526,0.77138394,-0.29149547,0.2614267,0.3258301,0.48707554,-0.051689953,0.79232526,0.255604,0.4890784,0.48597708,0.2086323,-0.06799094,0.0415173,0.14718628,-0.032121215,-0.3748999,-0.15569451,-0.5148576,819.9634,817.9487,811.50183,815.5311,754.2857,0.05181884765625,0.031982421875,0.9971923828125,4.762725830078125,-3.30474853515625,0.127105712890625,1,2.0,1.0,1.0,2.0,85.00
2021-04-28 11:41:31.011,0.48490912,0.63450956,0.09282829,0.8205876,0.5477558,0.13239191,-0.48945335,0.41232538,0.8597424,0.29668522,0.017444614,0.36734712,0.5722843,-0.050334807,0.065918416,0.62794,0.23053534,-0.50069433,-0.2572247,0.30102336,823.5897,808.2784,811.0989,828.022,765.56775,0.01373291015625,0.0517578125,1.00006103515625,6.347808837890625,-5.921630859375,-2.79632568359375,1,1.0,1.0,1.0,1.0,85.00
2021-04-28 11:41:31.544,0.48182735,0.050274063,0.06261071,0.70989674,0.66371363,0.07075363,-0.4781293,0.41307,0.90369946,0.29720077,0.36158913,0.599547,0.50993925,-0.02566997,0.12731466,0.50614667,0.107488126,-0.5084809,-0.29287857,0.16979423,804.65204,806.26373,803.44324,794.17584,744.21246,0.01580810546875,0.0279541015625,0.996826171875,4.433746337890625,-4.568328857421875,0.19439697265625,1,1.0,1.0,1.0,1.0,85.00
2021-04-28 11:41:32.044,0.44693118,-0.033640217,0.014051932,0.6165335,0.80740654,0.16680302,-0.2890007,0.52381086,0.94816136,0.29720077,0.36763933,0.599547,0.4614955,0.0174051,0.15622634,0.47598857,-0.011029738,-0.56587696,-0.29415137,0.054608587,787.326,807.47253,805.8608,793.7729,615.2747,0.02276611328125,0.04510498046875,1.0086669921875,4.598236083984375,-4.5758056640625,2.75146484375,1,1.0,1.0,1.0,1.0,85.00
2021-04-28 11:41:32.558,0.3575849,-0.14386082,0.0076489174,0.3226172,0.80708265,0.2753532,-0.2524649,0.49127972,0.8601293,0.1037011,0.31978062,0.5630277,0.35799888,0.019348243,0.14713621,0.26049858,-0.27809447,-0.57317555,-0.22576864,-0.2853464,811.9048,807.8755,802.23444,800.2198,761.53845,0.0179443359375,0.04302978515625,1.00042724609375,6.65435791015625,-3.33465576171875,2.071075439453125,1,1.0,1.0,1.0,1.0,85.00
2021-04-28 11:41:33.088,0.15000665,-0.26771054,-0.11593158,-0.016337099,0.64402145,0.13370773,-0.31659,0.3708339,0.83933324,0.2515211,0.12481469,0.16750862,0.31160232,0.08311226,0.10095035,0.12030964,-0.3194817,-0.5288866,-0.18961133,-0.38734618,829.2308,807.47253,805.05493,817.1429,771.6117,0.0230712890625,0.05224609375,1.0081787109375,3.641204833984375,-7.1478271484375,1.55517578125,1,1.0,1.0,1.0,1.0,85.00
2021-04-28 11:41:33.614,-0.11183077,-0.3263373,-0.19581975,-0.06212353,0.23652378,0.010956745,-0.45878962,0.14840718,0.71789503,0.21922123,-0.10417042,0.24841776,0.32465592,0.13400641,0.10136382,0.08534051,-0.31969258,-0.3830679,-0.22808191,-0.29064038,802.23444,813.1135,800.2198,809.4872,698.68134,0.01885986328125,0.0599365234375,1.00213623046875,4.613189697265625,-2.489776611328125,3.805694580078125,1,1.0,1.0,1.0,1.0,85.00
2021-04-28 11:41:34.118,-0.1590999,-0.30360955,-0.37753457,0.14986281,0.18161835,-0.27938324,-0.4467354,0.2016972,0.6805437,0.23258373,-0.17144006,0.31123865,0.33294657,0.13629483,0.15591794,0.156068,-0.288669,-0.36503512,-0.24808742,-0.15273416,796.5934,812.71063,799.011,790.9524,676.52014,0.0093994140625,0.05419921875,1.00146484375,4.66552734375,-4.38140869140625,1.71966552734375,1,1.0,1.0,1.0,1.0,85.00
2021-04-28 11:41:34.639,-0.13474543,-0.030589553,-0.050597247,0.26068297,0.2681752,-0.0996113,-0.2600559,0.29662716,0.7481755,0.19356044,-0.13661246,0.29041,0.36053985,0.11618849,0.1406473,0.28402215,-0.27626047,-0.4155381,-0.3098486,-0.1272152,796.99634,807.47253,809.89014,796.99634,711.5751,0.0218505859375,0.0555419921875,0.99755859375,5.21881103515625,-4.11224365234375,1.7645263671875,1,1.0,1.0,1.0,1.0,85.00
2021-04-28 11:41:35.152,0.19453627,0.14799218,0.08774195,0.3045541,0.24722731,0.0060397885,-0.21506734,0.2355404,0.74344254,0.099583015,-0.13988504,0.236851,0.33793566,0.058406174,0.10393636,0.27999154,-0.19510047,-0.45763233,-0.34869888,-0.11949422,822.7839,807.0696,806.26373,815.9341,861.8681,0.0377197265625,0.06341552734375,1.006591796875,4.77020263671875,-6.631927490234375,1.256103515625,1,1.0,1.0,1.0,1.0,85.00
2021-04-28 11:41:35.663,0.27397168,0.30153,0.26108557,0.21440478,0.1319933,0.075293526,-0.095415376,0.21920708,0.7389683,0.04371411,-0.20156832,0.42526135,0.3448451,0.046210367,0.035691153,0.22809187,-0.2048413,-0.50738114,-0.34427273,-0.19227912,815.9341,814.3223,811.50183,822.7839,688.60803,0.0123291015625,0.04840087890625,0.998046875,3.760833740234375,-3.24493408203125,0.28411865234375,1,1.0,1.0,1.0,1.0,85.00
2021-04-28 11:41:36.179,0.32385293,0.22544274,0.24448666,0.14448781,0.030493075,-0.050172225,-0.067039065,0.2658192,0.6452181,0.022145472,-0.20452984,0.4807833,0.33597007,0.06386484,-0.010502256,0.16791365,-0.23525596,-0.5426665,-0.2559971,-0.17855822,794.57874,809.4872,806.6667,796.99634,711.1722,0.01568603515625,0.04925537109375,1.00177001953125,5.196380615234375,-3.686065673828125,2.175750732421875,1,1.0,1.0,1.0,1.0,85.00
2021-04-28 11:41:36.691,0.61533576,0.1084455,0.24173295,0.5101595,0.5738614,-0.08040675,-0.029874744,0.46798176,0.92750525,0.20592728,-0.011894144,0.7777832,0.32212678,0.0072068833,-0.013882879,0.1019838,-0.29468644,-0.6055987,-0.21507141,-0.26671034,791.75824,807.0696,804.65204,798.60803,864.2857,-3.662109375E-4,0.048828125,1.00787353515625,4.628143310546875,-3.4393310546875,1.9140625,1,1.0,1.0,1.0,1.0,85.00
2021-04-28 11:41:37.202,1.0131797,-0.27279398,0.1280814,0.79249984,0.7032533,-0.10204801,-0.15541284,0.47980374,0.9491872,0.2480931,0.19505878,0.7777832,0.32244477,-0.026672207,-0.02841162,0.17877741,-0.29575026,-0.51678497,-0.27095702,-0.27449936,789.7436,808.68134,792.5641,790.54944,696.26373,-0.00579833984375,0.04217529296875,0.99884033203125,4.149627685546875,-4.508514404296875,1.039276123046875,1,1.0,1.0,1.0,1.0,85.00
2021-04-28 11:41:37.703,1.039263,0.0806466,0.071930274,0.82277256,0.73548114,0.0031575647,-0.24004805,0.4818511,0.9491872,0.27163416,0.29892892,0.79790926,0.27951124,0.0146797635,0.03424201,0.19241618,-0.22517627,-0.4594785,-0.36863723,-0.2703759,823.1868,810.293,801.4286,815.9341,833.663,0.00555419921875,0.04327392578125,1.0081787109375,4.18701171875,-5.061798095703125,0.650482177734375,1,1.0,1.0,1.0,1.0,85.00
2021-04-28 11:41:37.753,,,,,,,,,,,,,,,,,,,,,,,,,,,,,,,,,,,,,,/muse/elements/blink
2021-04-28 11:41:38.211,1.0832583,0.29120708,0.264561,0.80948776,0.9001441,0.052643184,-0.25934434,0.7944758,1.0846968,0.29967734,0.35594216,1.0631503,0.3431568,0.04239091,0.11860185,0.3002586,-0.18515532,-0.38579547,-0.45488977,-0.23341548,793.7729,834.87177,774.0293,778.46155,712.7839,0.0264892578125,0.07806396484375,0.98284912109375,16.979827880859375,-16.16485595703125,-40.65887451171875,1,1.0,1.0,1.0,1.0,85.00
2021-04-28 11:41:38.348,,,,,,,,,,,,,,,,,,,,,,,,,,,,,,,,,,,,,,/muse/elements/blink
2021-04-28 11:41:38.728,0.8982863,0.48698223,0.5838012,0.6393437,0.97089964,0.057839427,-0.022295274,0.9136776,1.0815794,0.2609503,0.33015728,1.0631503,0.34029144,0.07886956,0.13880509,0.32665917,-0.1483881,-0.40930054,-0.43665364,-0.24894223,779.2674,801.02563,803.8461,795.38464,708.7546,0.090576171875,0.15631103515625,0.9842529296875,6.646881103515625,-7.020721435546875,3.22998046875,1,1.0,1.0,1.0,1.0,85.00
2021-04-28 11:41:39.255,1.101805,0.5454414,0.73433626,0.83328635,1.2179365,0.116669394,0.030960396,1.1885831,1.0815794,0.1887102,0.3028883,1.0631503,0.4547739,-0.033880536,0.13186818,0.40766853,-0.16367829,-0.3692115,-0.45006683,-0.31666538,790.54944,807.47253,809.0842,797.3993,690.6227,0.1343994140625,0.16522216796875,0.98333740234375,4.725341796875,-5.929107666015625,1.39068603515625,1,1.0,1.0,1.0,1.0,85.00
2021-04-28 11:41:39.683,,,,,,,,,,,,,,,,,,,,,,,,,,,,,,,,,,,,,,/muse/elements/blink
2021-04-28 11:41:39.783,1.1665034,0.6504495,0.7595865,0.83328635,1.272845,0.088071,0.09740712,1.1885831,1.0815794,0.14272335,0.10386243,1.0631503,0.4839725,0.099799454,-0.102442496,0.40766853,-0.12702058,-0.45592666,-0.49227658,-0.31666538,810.293,802.6374,784.90845,816.7399,643.0769,0.04400634765625,0.05157470703125,0.99163818359375,-0.635528564453125,3.3197021484375,15.050811767578125,1,1.0,1.0,1.0,1.0,85.00
2021-04-28 11:41:40.305,1.1665034,0.56879294,0.38245016,0.83328635,1.272845,0.032952707,-0.20818244,1.1885831,1.0815794,0.055135813,-0.031134201,1.0631503,0.4839725,0.14128095,-0.2327542,0.40766853,-0.12702058,-0.43577585,-0.53708214,-0.31666538,808.2784,807.47253,805.8608,809.4872,762.74725,0.0709228515625,0.04156494140625,1.00103759765625,3.768310546875,-1.697235107421875,4.127197265625,1,1.0,1.0,1.0,1.0,85.00
2021-04-28 11:41:40.832,1.1665034,0.5386813,0.38245016,0.83328635,1.272845,0.10923642,-0.20818244,1.1885831,1.0815794,0.19494246,-0.031134201,1.0631503,0.4839725,0.10046133,-0.2327542,0.40766853,-0.12702058,-0.34320867,-0.53708214,-0.31666538,815.9341,809.0842,809.89014,806.26373,785.7143,0.06134033203125,0.0443115234375,1.00164794921875,4.747772216796875,-4.3963623046875,0.216827392578125,1,1.0,1.0,1.0,1.0,85.00
2021-04-28 11:41:41.336,0.24877052,0.009257904,-0.24196163,0.031234566,0.13402668,-0.09852167,-0.30473024,0.51835907,0.059244655,-0.024712725,-0.08627049,-0.009811281,0.2915225,-0.007998461,-0.04085799,0.13770284,-0.44943917,-0.3459596,-0.22892286,-0.26136488,806.26373,804.65204,803.0403,800.2198,764.35895,0.03448486328125,0.0296630859375,0.99237060546875,4.486083984375,-6.7291259765625,-3.70849609375,1,2.0,1.0,1.0,2.0,85.00
2021-04-28 11:41:41.854,0.25030562,-0.10925131,-0.1423401,-0.09088748,0.14599556,-0.2319443,-0.23810616,0.38704854,0.11192744,-0.021968205,0.091096014,0.089324936,0.23330231,-0.108346574,-0.051609103,0.18199845,-0.449819,-0.41331193,-0.28162393,-0.25427857,788.1319,800.2198,808.68134,795.78754,682.5641,0.0333251953125,0.08489990234375,1.0052490234375,5.9515380859375,-2.444915771484375,-6.960906982421875,1,1.0,1.0,1.0,1.0,85.00
2021-04-28 11:41:42.381,0.17744105,-0.39371035,-0.24182652,-0.055966392,0.16183853,-0.23799226,-0.21481736,0.4070599,0.336718,-0.11235085,0.16782956,0.30679855,0.1610321,-0.16822484,-0.084472,0.21077485,-0.4355323,-0.52520233,-0.30554995,-0.26052263,787.72894,796.5934,813.1135,788.1319,690.2198,0.0391845703125,0.05767822265625,1.0018310546875,2.564544677734375,-6.452484130859375,-0.037384033203125,1,1.0,1.0,1.0,1.0,85.00
2021-04-28 11:41:42.914,0.24625935,-0.5932964,-0.4061076,0.24325833,0.40127623,-0.13918638,-0.109073706,0.48079783,0.642729,0.23461059,0.29806685,0.67785823,0.1863833,-0.22381341,0.116473235,0.30298677,-0.3948224,-0.5751809,-0.30433396,-0.2353062,788.1319,803.8461,807.47253,788.93774,661.2088,0.02447509765625,0.06072998046875,1.00390625,5.540313720703125,-1.024322509765625,1.323394775390625,1,1.0,1.0,1.0,1.0,85.00
2021-04-28 11:41:43.054,,,,,,,,,,,,,,,,,,,,,,,,,,,,,,,,,,,,,,/muse/elements/blink
2021-04-28 11:41:43.439,0.28539568,-0.57465523,-0.5223477,0.50494397,0.5162222,-0.079055995,0.021918107,0.6315376,0.6666652,0.26119435,0.30842927,1.0207906,0.22069514,-0.17772016,0.14105664,0.3802394,-0.38357925,-0.53330994,-0.3210936,-0.14449161,834.87177,810.696,805.8608,826.4103,839.304,-0.05474853515625,-0.0460205078125,0.98681640625,-13.555450439453125,6.34033203125,-5.375823974609375,1,1.0,1.0,1.0,1.0,85.00
2021-04-28 11:41:43.948,0.4255412,0.52699685,0.43564472,1.033011,0.6882612,0.20838258,0.2221955,0.895429,0.61515296,0.47876364,0.3315014,1.118959,0.34417203,2.5629872E-4,0.2417316,0.51120716,-0.40092024,-0.43085685,-0.2673725,-0.048649296,824.3956,801.4286,801.8315,829.6337,838.9011,-0.10491943359375,-0.1136474609375,0.9737548828125,9.70489501953125,-1.099090576171875,2.444915771484375,1,1.0,1.0,1.0,1.0,85.00
2021-04-28 11:41:44.471,0.6350836,0.72997445,0.79084325,1.0689328,0.60109925,0.34488988,0.32150912,0.85767174,0.82550937,0.5139086,0.34472272,1.118959,0.32668924,0.08029219,0.22704071,0.49011883,-0.2674207,-0.4070145,-0.29787028,-0.05304409,790.54944,804.65204,800.2198,784.10254,714.7985,-0.0892333984375,-0.0562744140625,1.00347900390625,6.81884765625,-7.97027587890625,1.951446533203125,1,1.0,1.0,1.0,1.0,85.00
2021-04-28 11:41:44.975,0.6319433,0.7769906,0.9147321,0.9049346,0.47652337,0.3850348,0.37175217,0.6411919,0.85439444,0.50055325,0.42287904,1.0213348,0.33234528,0.10867815,0.25854754,0.40460932,-0.19108683,-0.41513133,-0.27862605,-0.15193298,783.2967,811.50183,805.05493,785.7143,607.2161,-0.0675048828125,-0.05377197265625,0.9898681640625,3.207550048828125,-6.228179931640625,-0.28411865234375,1,1.0,1.0,1.0,1.0,85.00
2021-04-28 11:41:45.486,0.70914936,0.5748822,0.8367049,0.57634765,0.43955413,0.2973057,0.32531074,0.20238912,0.85439444,0.4526948,0.40344286,0.45629117,0.342493,0.1277638,0.19886082,0.36355296,-0.16839054,-0.4102184,-0.28685266,-0.19204745,804.2491,803.44324,809.0842,803.44324,802.23444,-0.04443359375,-0.0494384765625,1.00128173828125,3.940277099609375,-4.403839111328125,0.800018310546875,1,1.0,1.0,1.0,1.0,85.00
2021-04-28 11:41:45.993,0.7177163,0.22158726,0.49466053,0.72975564,0.31065947,0.0951453,0.178607,0.25200132,0.6228591,0.1393543,0.36364183,0.38472602,0.3287665,0.05727591,0.14920352,0.31811064,-0.13143477,-0.41244838,-0.18918414,-0.18256691,789.34064,798.60803,804.65204,795.38464,694.65204,-0.0330810546875,-0.0516357421875,1.00531005859375,3.805694580078125,-3.641204833984375,2.325286865234375,1,1.0,1.0,1.0,1.0,85.00
2021-04-28 11:41:46.509,0.6999765,0.0870409,0.24659306,0.8601013,0.32653183,-2.9488045E-4,-0.017812023,0.36999324,0.82797617,0.083177015,0.15349287,0.770445,0.27747342,0.047109317,0.11575768,0.28950825,-0.17016673,-0.49057233,-0.15593632,-0.17950772,794.9817,817.1429,807.8755,789.34064,614.0659,-0.0654296875,-0.0667724609375,0.99688720703125,3.09539794921875,-3.087921142578125,1.712188720703125,1,1.0,1.0,1.0,1.0,85.00
2021-04-28 11:41:47.012,0.7472912,-0.1974603,-0.056871437,1.0174785,0.5339874,-0.29600668,-0.25098586,0.6600152,0.9739377,-0.053384803,0.055194754,0.94167644,0.29215127,-0.083392486,0.097656,0.27540976,-0.17804095,-0.5746784,-0.15728909,-0.23388317,823.1868,805.4579,806.6667,821.5751,841.7216,-0.07244873046875,-0.074462890625,0.987060546875,4.478607177734375,-4.433746337890625,-4.598236083984375,1,1.0,1.0,1.0,1.0,85.00
2021-04-28 11:41:47.525,0.74429333,0.44497794,0.2382808,1.0854623,0.67681843,0.20755078,-0.085025266,0.8589246,0.9739377,-0.08827832,0.2902172,0.94167644,0.32428455,0.019577604,0.15542644,0.45978913,-0.24773489,-0.6696545,-0.21918231,-0.17356147,816.7399,803.8461,806.6667,818.3516,791.3553,-0.047607421875,-0.0408935546875,1.00115966796875,8.5235595703125,-2.998199462890625,-8.291778564453125,1,1.0,1.0,1.0,1.0,85.00
2021-04-28 11:41:47.943,,,,,,,,,,,,,,,,,,,,,,,,,,,,,,,,,,,,,,/muse/elements/blink
2021-04-28 11:41:48.041,0.913543,0.7945852,0.6746621,1.0854623,0.8028225,0.53399545,0.4100804,0.8589246,0.9728719,0.100641936,0.59973174,0.94167644,0.3801657,0.07173387,0.14619818,0.45978913,-0.17003994,-0.6123867,-0.2916189,-0.17356147,819.5604,810.293,813.1135,816.7399,731.7216,-0.03729248046875,0.00518798828125,1.003662109375,6.796417236328125,-7.237548828125,4.149627685546875,1,1.0,1.0,1.0,1.0,85.00
2021-04-28 11:41:48.546,0.88882893,1.0094895,0.9163422,1.0854623,0.73734546,0.75240827,0.63303816,0.8589246,0.93557984,0.100641936,0.781487,0.94167644,0.3540497,0.13796067,0.16813771,0.45978913,-0.18396863,-0.58510715,-0.34450915,-0.17356147,815.5311,803.0403,801.4286,815.5311,638.24176,0.1080322265625,0.0875244140625,1.00396728515625,17.884521484375,-12.733001708984375,-36.05316162109375,1,1.0,1.0,1.0,1.0,85.00
2021-04-28 11:41:49.057,0.88882893,1.1914501,1.2270635,1.0854623,0.73734546,0.9403284,0.7793042,0.8589246,0.93557984,0.099318966,0.781487,0.94167644,0.3540497,0.07800207,0.05883428,0.45978913,-0.18396863,-0.5406127,-0.49350983,-0.17356147,799.81683,805.05493,810.696,806.6667,859.0476,0.036865234375,0.11944580078125,1.0009765625,10.220794677734375,-6.08612060546875,8.306732177734375,1,1.0,1.0,1.0,1.0,90.00
2021-04-28 11:41:49.423,,,,,,,,,,,,,,,,,,,,,,,,,,,,,,,,,,,,,,/muse/elements/blink
2021-04-28 11:41:49.584,0.88882893,1.1914501,1.2071314,1.0854623,0.73734546,0.9403284,0.49425867,0.8589246,0.93557984,0.099318966,0.7412543,0.94167644,0.3540497,0.07800207,0.012955325,0.45978913,-0.18396863,-0.5406127,-0.6319742,-0.17356147,851.39197,798.60803,796.5934,852.6007,843.73627,0.0968017578125,0.138671875,0.9796142578125,4.358978271484375,-9.129180908203125,3.656158447265625,1,1.0,1.0,1.0,1.0,90.00
2021-04-28 11:41:50.087,0.88882893,0.95350456,1.1298083,1.0854623,0.73734546,0.40641958,0.29817793,0.8589246,0.93557984,0.08918954,0.121359274,0.94167644,0.3540497,-0.22832802,-0.011595394,0.45978913,-0.18396863,-0.17806005,-0.579257,-0.17356147,820.3663,808.68134,807.47253,817.1429,846.1539,0.10107421875,0.13421630859375,0.98260498046875,3.372039794921875,-4.448699951171875,5.330963134765625,1,2.0,1.0,1.0,2.0,90.00
2021-04-28 11:41:50.551,,,,,,,,,,,,,,,,,,,,,,,,,,,,,,,,,,,,,,/muse/elements/blink
2021-04-28 11:41:50.595,0.88882893,0.7774049,0.83795726,1.0854623,0.73734546,0.23906344,0.17013709,0.8589246,0.93557984,0.11093343,0.07230265,0.94167644,0.3540497,-0.10013698,-0.09899517,0.45978913,-0.18396863,-0.2577025,-0.5771689,-0.17356147,743.4066,778.46155,834.0659,745.0183,657.1795,0.1060791015625,0.1302490234375,0.98980712890625,2.729034423828125,-2.669219970703125,3.596343994140625,1,2.0,1.0,1.0,2.0,90.00
2021-04-28 11:41:51.108,0.88882893,0.9024791,0.87426364,1.0854623,0.73734546,0.56870514,0.21352962,0.8589246,0.93557984,0.16265038,0.041626886,0.94167644,0.3540497,-0.051174395,-0.18251447,0.45978913,-0.18396863,-0.26639116,-0.5458192,-0.17356147,808.2784,810.293,803.0403,820.3663,713.5897,0.1031494140625,0.11346435546875,0.989501953125,4.209442138671875,-3.54400634765625,3.551483154296875,1,2.0,1.0,1.0,2.0,90.00
2021-04-28 11:41:51.615,0.88882893,0.8527903,0.81951886,1.0854623,0.73734546,0.5977583,0.15127027,0.8589246,0.93557984,0.042934485,0.14442024,0.94167644,0.3540497,0.056666166,-0.10016119,0.45978913,-0.18396863,-0.3439431,-0.44171527,-0.17356147,826.0073,804.2491,803.8461,826.4103,830.0366,0.1162109375,0.09051513671875,0.98358154296875,4.2169189453125,-6.041259765625,-3.177642822265625,1,2.0,1.0,1.0,2.0,90.00
2021-04-28 11:41:52.129,0.88882893,0.84612507,0.89486074,1.0854623,0.73734546,0.6251806,0.28396314,0.8589246,0.93557984,0.19121571,0.2796845,0.94167644,0.3540497,0.21427882,0.060471572,0.45978913,-0.18396863,-0.4552506,-0.36185786,-0.17356147,880.80585,815.5311,786.9231,865.09155,760.32965,0.13714599609375,0.09564208984375,0.989013671875,3.36456298828125,-6.213226318359375,1.143951416015625,1,2.0,1.0,1.0,2.0,90.00
2021-04-28 11:41:52.652,0.88882893,0.6067164,0.80766565,1.0854623,0.73734546,0.17467968,0.28437024,0.8589246,0.93557984,0.14703931,0.28638452,0.94167644,0.3540497,0.1824387,0.14705965,0.45978913,-0.18396863,-0.63051295,-0.28584662,-0.17356147,794.17584,813.5165,803.0403,798.20514,773.6264,0.16864013671875,0.09283447265625,0.99212646484375,6.886138916015625,-0.2093505859375,1.502838134765625,1,2.0,1.0,1.0,2.0,90.00
2021-04-28 11:41:53.167,,,,,,,,,,,,,,,,,,,,,,,,,,,,,,,,,,,,,,/muse/elements/blink
2021-04-28 11:41:53.167,0.88882893,0.77139115,0.84909326,1.0854623,0.73734546,0.3401569,0.30577832,0.8589246,0.93557984,0.2227245,0.09808542,0.94167644,0.3540497,0.09127081,0.10459829,0.45978913,-0.18396863,-0.6277336,-0.3581431,-0.17356147,776.4469,799.41394,807.0696,793.36993,619.707,0.1021728515625,0.1014404296875,0.99505615234375,1.77947998046875,0.171966552734375,4.0374755859375,1,2.0,1.0,1.0,2.0,90.00
2021-04-28 11:41:53.493,,,,,,,,,,,,,,,,,,,,,,,,,,,,,,,,,,,,,,/muse/elements/blink
2021-04-28 11:41:53.672,0.88882893,0.87768406,0.93683016,1.0854623,0.73734546,0.39667538,0.30195966,0.8589246,0.93557984,0.1298992,0.048403002,0.94167644,0.3540497,-0.09111913,0.029958377,0.45978913,-0.18396863,-0.6356921,-0.38023838,-0.17356147,869.92676,801.02563,814.3223,873.1502,707.9487,0.12548828125,0.09326171875,0.98577880859375,6.108551025390625,-7.596435546875,1.143951416015625,1,2.0,1.0,1.0,2.0,90.00
2021-04-28 11:41:53.773,,,,,,,,,,,,,,,,,,,,,,,,,,,,,,,,,,,,,,/muse/elements/blink
2021-04-28 11:41:54.186,0.88882893,0.8456054,0.5600014,1.0854623,0.73734546,0.43454805,0.054907814,0.8589246,0.93557984,0.16063496,-0.021280268,0.94167644,0.3540497,-0.023762912,0.042839687,0.45978913,-0.18396863,-0.3206324,-0.3686469,-0.17356147,843.3333,813.1135,809.4872,839.304,1022.23444,0.1295166015625,0.10406494140625,0.98126220703125,1.95892333984375,-3.9776611328125,2.37762451171875,1,2.0,1.0,1.0,2.0,90.00
2021-04-28 11:41:54.701,0.88882893,0.449539,0.3821212,1.0854623,0.73734546,0.245234,-0.0678312,0.8589246,0.93557984,0.23811376,0.07797292,0.94167644,0.3540497,0.19327934,0.0483947,0.45978913,-0.18396863,-0.119003065,-0.2868733,-0.17356147,753.0769,815.12823,801.8315,756.7033,716.4103,0.1353759765625,0.08447265625,1.00164794921875,3.745880126953125,-3.9776611328125,2.6019287109375,1,2.0,1.0,1.0,2.0,90.00
2021-04-28 11:41:54.803,,,,,,,,,,,,,,,,,,,,,,,,,,,,,,,,,,,,,,/muse/elements/blink
2021-04-28 11:41:55.226,0.88882893,0.4661773,0.30085194,1.0854623,0.73734546,0.13533321,-0.15827674,0.8589246,0.93557984,0.23171934,0.10710045,0.94167644,0.3540497,0.16580829,0.038464528,0.45978913,-0.18396863,-0.2026934,-0.27715352,-0.17356147,961.39197,821.978,778.86444,958.5714,789.34064,0.14410400390625,0.06890869140625,0.9852294921875,4.18701171875,-7.29736328125,-3.66363525390625,1,2.0,1.0,1.0,2.0,90.00
2021-04-28 11:41:55.230,,,,,,,,,,,,,,,,,,,,,,,,,,,,,,,,,,,,,,/muse/elements/blink
2021-04-28 11:41:55.730,0.88882893,0.43340364,0.4826812,1.0854623,0.73734546,0.12128749,-0.051970866,0.8589246,0.93557984,0.21429221,0.052724224,0.94167644,0.3540497,0.18783922,0.06335768,0.45978913,-0.18396863,-0.23998882,-0.2888219,-0.17356147,817.1429,801.4286,798.60803,828.022,843.73627,0.12750244140625,0.07177734375,0.97625732421875,5.644989013671875,-3.66363525390625,-2.1533203125,1,2.0,1.0,1.0,2.0,90.00
2021-04-28 11:41:55.874,,,,,,,,,,,,,,,,,,,,,,,,,,,,,,,,,,,,,,/muse/elements/blink
2021-04-28 11:41:56.238,0.88882893,0.5650536,0.66918576,1.0854623,0.73734546,0.24095866,0.09720442,0.8589246,0.93557984,0.083300956,0.021115545,0.94167644,0.3540497,0.07294053,0.06590716,0.45978913,-0.18396863,-0.5058099,-0.38711587,-0.17356147,828.022,816.7399,807.47253,816.337,707.1429,0.189208984375,0.17352294921875,0.98138427734375,8.261871337890625,-5.682373046875,-1.62994384765625,1,2.0,1.0,1.0,2.0,90.00
2021-04-28 11:41:56.754,0.88882893,0.6109238,0.7419485,1.0854623,0.73734546,0.39223945,0.27566832,0.8589246,0.93557984,0.3021229,0.03370039,0.94167644,0.3540497,0.018724337,0.03848344,0.45978913,-0.18396863,-0.23117487,-0.331385,-0.17356147,791.75824,805.4579,798.20514,784.90845,691.4286,0.19744873046875,0.15863037109375,0.96551513671875,1.9439697265625,-3.60382080078125,-4.583282470703125,1,2.0,1.0,1.0,2.0,90.00
2021-04-28 11:41:57.267,0.88882893,0.35666236,0.401814,1.0854623,0.73734546,0.16112053,0.054367416,0.8589246,0.93557984,0.3021229,-0.06382285,0.94167644,0.3540497,0.07313579,-0.061325084,0.45978913,-0.18396863,-0.345398,-0.38867682,-0.17356147,555.64105,781.685,852.6007,576.1905,735.34796,0.1895751953125,0.1739501953125,0.97344970703125,4.673004150390625,-2.3028564453125,5.443115234375,1,2.0,1.0,1.0,2.0,90.00
2021-04-28 11:41:57.441,,,,,,,,,,,,,,,,,,,,,,,,,,,,,,,,,,,,,,/muse/elements/blink
2021-04-28 11:41:57.776,0.88882893,0.81609535,0.40322185,1.0854623,0.73734546,0.2826181,0.022448158,0.8589246,0.93557984,0.4093381,-0.07050137,0.94167644,0.3540497,0.10840588,-0.055706695,0.45978913,-0.18396863,-0.40306923,-0.40129185,-0.17356147,820.7692,808.68134,805.8608,819.9634,793.36993,0.1707763671875,0.1475830078125,0.97845458984375,3.5888671875,-5.06927490234375,0.994415283203125,1,2.0,1.0,1.0,2.0,90.00
