TimeStamp,Delta_TP9,Delta_AF7,Delta_AF8,Delta_TP10,Theta_TP9,Theta_AF7,Theta_AF8,Theta_TP10,Alpha_TP9,Alpha_AF7,Alpha_AF8,Alpha_TP10,Beta_TP9,Beta_AF7,Beta_AF8,Beta_TP10,Gamma_TP9,Gamma_AF7,Gamma_AF8,Gamma_TP10,RAW_TP9,RAW_AF7,RAW_AF8,RAW_TP10,AUX_RIGHT,Accelerometer_X,Accelerometer_Y,Accelerometer_Z,Gyro_X,Gyro_Y,Gyro_Z,HeadBandOn,HSI_TP9,HSI_AF7,HSI_AF8,HSI_TP10,Battery,Elements
2021-03-28 17:06:55.664,0.0,0.0,0.013427475,0.0,0.0,0.0,0.19288424,0.0,0.0,0.0,0.27104703,0.0,0.0,0.0,0.3359318,0.0,0.0,0.0,-0.30989888,0.0,822.381,73.333336,801.4286,699.89014,658.3883,-0.16363525390625,0.0394287109375,0.99444580078125,5.03936767578125,-6.08612060546875,1.06170654296875,1,2.0,2.0,1.0,2.0,100.00
2021-03-28 17:06:55.827,,,,,,,,,,,,,,,,,,,,,,,,,,,,,,,,,,,,,,/muse/elements/blink
2021-03-28 17:06:56.172,0.0,0.0,0.1922415,0.0,0.0,0.0,0.09158348,0.0,0.0,0.0,0.26017958,0.0,0.0,0.0,0.21540838,0.0,0.0,0.0,-0.28271317,0.0,878.3883,0.0,796.99634,814.7253,850.58606,-0.16253662109375,0.0384521484375,0.9910888671875,5.016937255859375,-5.24871826171875,1.15142822265625,1,2.0,2.0,1.0,2.0,100.00
2021-03-28 17:06:56.683,0.0,0.0,0.33351547,0.0,0.0,0.0,0.109891504,0.0,0.0,0.0,0.639585,0.0,0.0,0.0,0.17505696,0.0,0.0,0.0,-0.22012074,0.0,781.685,597.5458,827.2161,877.1795,790.54944,-0.15740966796875,0.046142578125,0.9866943359375,5.914154052734375,-4.762725830078125,1.57012939453125,1,2.0,2.0,1.0,2.0,100.00
2021-03-28 17:06:57.146,,,,,,,,,,,,,,,,,,,,,,,,,,,,,,,,,,,,,,/muse/elements/blink
2021-03-28 17:06:57.197,0.0,0.0,0.38101614,0.0,0.0,0.0,0.20138344,0.0,0.0,0.0,0.6470429,0.0,0.0,0.0,0.20950992,0.0,0.0,0.0,-0.18569332,0.0,772.4176,571.75824,809.0842,863.8828,780.07324,-0.17462158203125,0.035888671875,0.99322509765625,3.8580322265625,-0.067291259765625,-3.686065673828125,1,2.0,2.0,1.0,2.0,100.00
2021-03-28 17:06:57.713,0.0,0.0,0.657149,0.0,0.0,0.0,0.49188718,0.0,0.0,0.0,0.707399,0.0,0.0,0.0,0.26392305,0.0,0.0,0.0,-0.14557269,0.0,860.65936,637.4359,831.2454,837.28937,801.02563,-0.3929443359375,7.9345703125E-4,0.91058349609375,18.06396484375,13.166656494140625,-1.188812255859375,1,2.0,2.0,1.0,2.0,100.00
2021-03-28 17:06:57.995,,,,,,,,,,,,,,,,,,,,,,,,,,,,,,,,,,,,,,/muse/elements/blink
2021-03-28 17:06:58.239,0.0,0.0,0.7425775,0.0,0.0,0.0,0.59763694,0.0,0.0,0.0,0.61276084,0.0,0.0,0.0,0.29804036,0.0,0.0,0.0,-0.15072843,0.0,821.5751,36.263737,783.69965,734.5421,668.86444,-0.2781982421875,0.24786376953125,0.9259033203125,22.034149169921875,-26.75201416015625,-22.191162109375,1,2.0,2.0,1.0,2.0,100.00
2021-03-28 17:06:58.386,,,,,,,,,,,,,,,,,,,,,,,,,,,,,,,,,,,,,,/muse/elements/blink
2021-03-28 17:06:58.743,0.0,0.0,0.954267,0.0,0.0,0.0,0.8051419,0.0,0.0,0.0,0.36113074,0.0,0.0,0.0,0.2683032,0.0,0.0,0.0,-0.13753748,0.0,804.65204,217.98535,796.99634,841.7216,756.30035,-0.14111328125,0.296142578125,0.935791015625,4.508514404296875,-24.247283935546875,3.648681640625,1,2.0,2.0,1.0,2.0,100.00
2021-03-28 17:06:59.284,0.0,0.0,1.0003563,0.0,0.0,0.0,0.8443396,0.0,0.0,0.0,0.35919192,0.0,0.0,0.0,0.26661143,0.0,0.0,0.0,-0.09836845,0.0,707.9487,1170.1099,778.86444,604.7985,689.41394,0.015380859375,0.17559814453125,0.994873046875,-7.888031005859375,-16.40411376953125,-6.7889404296875,1,2.0,2.0,1.0,2.0,100.00
2021-03-28 17:06:59.659,,,,,,,,,,,,,,,,,,,,,,,,,,,,,,,,,,,,,,/muse/elements/blink
2021-03-28 17:06:59.786,0.0,0.0,1.0003563,0.0,0.0,0.0,0.8443396,0.0,0.0,0.0,0.35919192,0.0,0.0,0.0,0.26661143,0.0,0.0,0.0,-0.09836845,0.0,898.5348,1284.5421,843.73627,910.6227,963.00366,-0.070556640625,0.08087158203125,1.0009765625,2.041168212890625,3.192596435546875,-29.86236572265625,1,2.0,4.0,1.0,2.0,100.00
2021-03-28 17:07:00.301,0.0,0.0,1.0003563,0.0,0.0,0.0,0.8443396,0.0,0.0,0.0,0.35919192,0.0,0.0,0.0,0.26661143,0.0,0.0,0.0,-0.09836845,0.0,867.1062,1251.9048,801.8315,823.9927,704.3223,-0.2247314453125,-0.05078125,0.96038818359375,9.76470947265625,-20.374298095703125,-16.07513427734375,1,2.0,4.0,1.0,2.0,100.00
2021-03-28 17:07:00.732,,,,,,,,,,,,,,,,,,,,,,,,,,,,,,,,,,,,,,/muse/elements/blink
2021-03-28 17:07:00.836,0.0,0.0,1.0003563,0.0,0.0,0.0,0.8443396,0.0,0.0,0.0,0.35919192,0.0,0.0,0.0,0.26661143,0.0,0.0,0.0,-0.09836845,0.0,784.90845,519.7802,822.7839,743.4066,737.76556,-0.06549072265625,-0.008056640625,0.96148681640625,-13.56292724609375,-1.114044189453125,24.142608642578125,1,2.0,4.0,1.0,2.0,100.00
2021-03-28 17:07:01.362,0.0,0.0,1.0003563,0.0,0.0,0.0,0.8443396,0.0,0.0,0.0,0.35919192,0.0,0.0,0.0,0.26661143,0.0,0.0,0.0,-0.09836845,0.0,872.74725,249.81685,804.2491,863.0769,790.9524,-0.021240234375,-0.01995849609375,0.94183349609375,16.650848388671875,-25.922088623046875,62.7154541015625,1,2.0,2.0,1.0,2.0,100.00
2021-03-28 17:07:01.864,0.0,0.0,1.0003563,0.0,0.0,0.0,0.8443396,0.0,0.0,0.0,0.35919192,0.0,0.0,0.0,0.26661143,0.0,0.0,0.0,-0.09836845,0.0,730.5128,604.3956,815.9341,745.42126,780.4762,0.0831298828125,0.14398193359375,1.01171875,5.570220947265625,-10.385284423828125,16.8975830078125,1,2.0,2.0,1.0,2.0,100.00
2021-03-28 17:07:02.409,0.0,0.0,1.3898739,0.0,0.0,0.0,0.5984551,0.0,0.0,0.0,0.8715861,0.0,0.0,0.0,0.695762,0.0,0.0,0.0,-0.09449111,0.0,915.05493,126.92308,830.84247,857.03296,720.4396,0.18890380859375,0.11865234375,0.9759521484375,-0.157012939453125,-5.869293212890625,46.513214111328125,1,2.0,2.0,1.0,2.0,100.00
2021-03-28 17:07:02.421,,,,,,,,,,,,,,,,,,,,,,,,,,,,,,,,,,,,,,/muse/elements/blink
2021-03-28 17:07:02.921,0.0,0.0,1.3754913,0.0,0.0,0.0,0.57025415,0.0,0.0,0.0,0.88333875,0.0,0.0,0.0,0.66077465,0.0,0.0,0.0,-0.11142551,0.0,761.9414,126.92308,788.93774,696.6667,649.5238,0.197509765625,0.103271484375,0.983642578125,8.03009033203125,-8.59832763671875,-3.30474853515625,1,2.0,2.0,1.0,2.0,100.00
2021-03-28 17:07:03.429,0.0,0.0,1.3498892,0.0,0.0,0.0,0.48819596,0.0,0.0,0.0,0.81009424,0.0,0.0,0.0,0.5391956,0.0,0.0,0.0,-0.111708894,0.0,784.90845,374.72528,813.91943,829.6337,736.1539,0.2288818359375,0.2113037109375,0.95465087890625,3.177642822265625,-5.51788330078125,16.022796630859375,1,2.0,2.0,1.0,2.0,100.00
2021-03-28 17:07:03.763,,,,,,,,,,,,,,,,,,,,,,,,,,,,,,,,,,,,,,/muse/elements/blink
2021-03-28 17:07:03.933,0.0,0.0,1.035026,0.0,0.0,0.0,0.5293649,0.0,0.0,0.0,0.637228,0.0,0.0,0.0,0.41080007,0.0,0.0,0.0,-0.096168995,0.0,770.40295,581.8315,807.8755,840.9158,790.9524,0.248046875,0.1588134765625,0.96343994140625,4.149627685546875,-7.080535888671875,1.712188720703125,1,2.0,2.0,1.0,2.0,100.00
2021-03-28 17:07:04.467,0.0,0.0,0.8430618,0.0,0.0,0.0,0.4022852,0.0,0.0,0.0,0.6390373,0.0,0.0,0.0,0.31117296,0.0,0.0,0.0,-0.09459172,0.0,722.8571,611.2454,813.1135,674.90845,692.6374,0.24774169921875,0.13043212890625,0.9576416015625,2.953338623046875,-5.1141357421875,-2.27294921875,1,2.0,2.0,1.0,2.0,100.00
2021-03-28 17:07:05.011,0.0,0.0,0.6952629,0.0,0.0,0.0,0.35232133,0.0,0.0,0.0,0.6745116,0.0,0.0,0.0,0.28992146,0.0,0.0,0.0,-0.1479947,0.0,807.47253,133.36996,789.34064,719.6337,551.6117,0.25103759765625,0.1390380859375,0.9600830078125,3.132781982421875,-5.42816162109375,-3.45428466796875,1,2.0,2.0,1.0,2.0,100.00
2021-03-28 17:07:05.025,,,,,,,,,,,,,,,,,,,,,,,,,,,,,,,,,,,,,,/muse/elements/blink
2021-03-28 17:07:05.335,,,,,,,,,,,,,,,,,,,,,,,,,,,,,,,,,,,,,,/muse/elements/blink
2021-03-28 17:07:05.543,0.0,0.0,0.64497334,0.0,0.0,0.0,0.24609783,0.0,0.0,0.0,0.504679,0.0,0.0,0.0,0.21135776,0.0,0.0,0.0,-0.23088096,0.0,759.12085,407.76556,804.65204,684.9817,695.05493,0.22869873046875,0.143798828125,0.96343994140625,5.689849853515625,-5.323486328125,0.657958984375,1,2.0,2.0,1.0,2.0,100.00
2021-03-28 17:07:06.046,0.0,0.0,0.63401437,0.0,0.0,0.0,0.2266473,0.0,0.0,0.0,0.4625753,0.0,0.0,0.0,0.22115006,0.0,0.0,0.0,-0.37634626,0.0,769.59705,574.57874,821.5751,736.9597,651.9414,0.21124267578125,0.24896240234375,0.984375,13.465728759765625,-2.340240478515625,-34.774627685546875,1,2.0,2.0,1.0,2.0,100.00
2021-03-28 17:07:06.250,,,,,,,,,,,,,,,,,,,,,,,,,,,,,,,,,,,,,,/muse/elements/blink
2021-03-28 17:07:06.488,,,,,,,,,,,,,,,,,,,,,,,,,,,,,,,,,,,,,,/muse/elements/blink
2021-03-28 17:07:06.567,0.0,0.0,0.6179607,0.0,0.0,0.0,0.36630067,0.0,0.0,0.0,0.13566703,0.0,0.0,0.0,0.20162009,0.0,0.0,0.0,-0.34059307,0.0,803.44324,388.82785,800.2198,840.5128,791.75824,0.1414794921875,0.2552490234375,0.965087890625,4.91973876953125,-5.600128173828125,6.11602783203125,1,2.0,2.0,1.0,2.0,100.00
2021-03-28 17:07:07.123,0.0,0.0,0.7476265,0.0,0.0,0.0,0.32890534,0.0,0.0,0.0,0.14631912,0.0,0.0,0.0,0.2513953,0.0,0.0,0.0,-0.12674081,0.0,758.315,386.8132,813.1135,776.4469,789.34064,0.20751953125,0.2322998046875,0.95916748046875,5.166473388671875,-12.538604736328125,2.4224853515625,1,2.0,2.0,1.0,2.0,100.00
2021-03-28 17:07:07.661,0.0,0.0,0.78224796,0.0,0.0,0.0,0.3886553,0.0,0.0,0.0,0.3076847,0.0,0.0,0.0,0.27644202,0.0,0.0,0.0,-0.08355857,0.0,853.4066,566.1172,829.2308,903.36993,892.0879,0.24151611328125,0.22430419921875,0.983154296875,2.27294921875,-1.188812255859375,13.450775146484375,1,2.0,2.0,1.0,2.0,100.00
2021-03-28 17:07:07.779,,,,,,,,,,,,,,,,,,,,,,,,,,,,,,,,,,,,,,/muse/elements/blink
2021-03-28 17:07:08.071,,,,,,,,,,,,,,,,,,,,,,,,,,,,,,,,,,,,,,/muse/elements/blink
2021-03-28 17:07:08.169,0.0,0.0,0.77521217,0.0,0.0,0.0,0.2650461,0.0,0.0,0.0,0.743572,0.0,0.0,0.0,0.33065203,0.0,0.0,0.0,-0.14619987,0.0,774.83514,734.1392,832.8571,759.92676,718.022,0.20611572265625,0.06610107421875,0.97393798828125,7.259979248046875,-1.816864013671875,7.364654541015625,1,2.0,2.0,1.0,2.0,100.00
2021-03-28 17:07:08.690,0.0,0.0,0.85795957,0.0,0.0,0.0,0.45598269,0.0,0.0,0.0,0.8023904,0.0,0.0,0.0,0.45870012,0.0,0.0,0.0,-0.37200972,0.0,842.52747,284.06595,810.293,738.5714,774.43225,0.28228759765625,0.040771484375,0.96966552734375,5.2337646484375,-1.846771240234375,-0.55328369140625,1,2.0,2.0,1.0,2.0,100.00
2021-03-28 17:07:09.232,,,,,,,,,,,,,,,,,,,,,,,,,,,,,,,,,,,,,,/muse/elements/blink
2021-03-28 17:07:09.240,0.0,0.0,1.1804574,0.0,0.0,0.0,0.38170794,0.0,0.0,0.0,0.8023904,0.0,0.0,0.0,0.5227452,0.0,0.0,0.0,-0.36902002,0.0,776.4469,363.04028,788.1319,698.2784,772.01465,0.18206787109375,0.06768798828125,0.96600341796875,6.878662109375,-5.682373046875,-10.609588623046875,1,2.0,4.0,1.0,2.0,100.00
2021-03-28 17:07:09.507,,,,,,,,,,,,,,,,,,,,,,,,,,,,,,,,,,,,,,/muse/elements/blink
2021-03-28 17:07:09.764,0.0,0.0,1.2715007,0.0,0.0,0.0,0.4615638,0.0,0.0,0.0,0.78101176,0.0,0.0,0.0,0.51984566,0.0,0.0,0.0,-0.3671932,0.0,800.6227,202.674,809.89014,719.6337,715.6044,0.2386474609375,0.253662109375,0.97589111328125,9.3609619140625,-11.12548828125,-16.486358642578125,1,2.0,2.0,1.0,2.0,100.00
2021-03-28 17:07:10.109,,,,,,,,,,,,,,,,,,,,,,,,,,,,,,,,,,,,,,/muse/elements/blink
2021-03-28 17:07:10.273,0.0,0.0,1.3716178,0.0,0.0,0.0,0.436701,0.0,0.0,0.0,0.46367246,0.0,0.0,0.0,0.41928232,0.0,0.0,0.0,-0.27847505,0.0,885.2381,132.16118,791.3553,914.65204,947.28937,0.13714599609375,0.23760986328125,0.95751953125,7.1478271484375,-6.05621337890625,6.2506103515625,1,2.0,2.0,1.0,2.0,100.00
2021-03-28 17:07:10.391,,,,,,,,,,,,,,,,,,,,,,,,,,,,,,,,,,,,,,/muse/elements/blink
2021-03-28 17:07:10.817,0.0,0.0,1.199675,0.0,0.0,0.0,0.5889437,0.0,0.0,0.0,0.45170978,0.0,0.0,0.0,0.40877473,0.0,0.0,0.0,-0.14613481,0.0,830.84247,624.1392,837.28937,912.23444,849.7802,0.21270751953125,0.2403564453125,0.9732666015625,-7.499237060546875,-0.216827392578125,39.55230712890625,1,2.0,2.0,1.0,2.0,100.00
2021-03-28 17:07:11.249,,,,,,,,,,,,,,,,,,,,,,,,,,,,,,,,,,,,,,/muse/elements/blink
2021-03-28 17:07:11.323,0.0,0.0,1.2114128,0.0,0.0,0.0,0.5532995,0.0,0.0,0.0,0.58663684,0.0,0.0,0.0,0.41488984,0.0,0.0,0.0,-0.10029817,0.0,734.5421,701.50183,775.64105,678.1319,675.7143,0.16473388671875,0.080810546875,0.98968505859375,6.280517578125,-6.886138916015625,-10.00396728515625,1,2.0,2.0,1.0,2.0,100.00
2021-03-28 17:07:11.849,0.0,0.0,1.1732402,0.0,0.0,0.0,0.5709325,0.0,0.0,0.0,0.84449875,0.0,0.0,0.0,0.42435166,0.0,0.0,0.0,-0.15676694,0.0,881.2088,33.040295,808.2784,831.6484,910.2198,0.120361328125,0.1934814453125,0.9925537109375,13.1292724609375,-0.814971923828125,-6.198272705078125,1,2.0,2.0,1.0,2.0,100.00
2021-03-28 17:07:12.004,,,,,,,,,,,,,,,,,,,,,,,,,,,,,,,,,,,,,,/muse/elements/blink
2021-03-28 17:07:12.363,0.0,0.0,1.1924632,0.0,0.0,0.0,0.5954371,0.0,0.0,0.0,0.84449875,0.0,0.0,0.0,0.37498388,0.0,0.0,0.0,-0.28488877,0.0,760.7326,259.08426,800.6227,776.04395,819.5604,0.13623046875,0.19134521484375,0.975830078125,8.29925537109375,-4.972076416015625,3.2000732421875,1,2.0,2.0,1.0,2.0,100.00
2021-03-28 17:07:12.875,0.0,0.0,0.9264898,0.0,0.0,0.0,0.3730611,0.0,0.0,0.0,0.78293234,0.0,0.0,0.0,0.29422688,0.0,0.0,0.0,-0.312286,0.0,753.47986,702.3077,807.0696,810.293,770.80585,0.12359619140625,0.2353515625,0.970703125,10.938568115234375,-11.82830810546875,-0.83740234375,1,2.0,2.0,1.0,2.0,100.00
2021-03-28 17:07:13.259,,,,,,,,,,,,,,,,,,,,,,,,,,,,,,,,,,,,,,/muse/elements/blink
2021-03-28 17:07:13.392,0.0,0.0,0.875207,0.0,0.0,0.0,0.26426718,0.0,0.0,0.0,0.69367003,0.0,0.0,0.0,0.19579844,0.0,0.0,0.0,-0.2634937,0.0,756.7033,556.4469,790.54944,732.9304,734.94507,0.1622314453125,0.30120849609375,0.97381591796875,9.263763427734375,-12.583465576171875,-5.016937255859375,1,2.0,2.0,1.0,2.0,100.00
2021-03-28 17:07:13.910,0.0,0.0,0.72086316,0.0,0.0,0.0,0.3663809,0.0,0.0,0.0,0.51429826,0.0,0.0,0.0,0.18919478,0.0,0.0,0.0,-0.24866064,0.0,603.9927,589.89014,822.7839,601.1722,709.5604,0.13543701171875,0.27947998046875,0.948974609375,2.75146484375,-6.063690185546875,-4.553375244140625,1,2.0,2.0,1.0,2.0,100.00
2021-03-28 17:07:14.061,,,,,,,,,,,,,,,,,,,,,,,,,,,,,,,,,,,,,,/muse/elements/blink
2021-03-28 17:07:14.418,0.0,0.0,0.77901083,0.0,0.0,0.0,0.5519241,0.0,0.0,0.0,0.57660097,0.0,0.0,0.0,0.33537036,0.0,0.0,0.0,-0.17238969,0.0,818.7546,271.17215,809.89014,830.0366,770.80585,0.14459228515625,0.23223876953125,0.95501708984375,0.4486083984375,-3.282318115234375,-0.560760498046875,1,2.0,2.0,1.0,2.0,100.00
2021-03-28 17:07:14.571,,,,,,,,,,,,,,,,,,,,,,,,,,,,,,,,,,,,,,/muse/elements/blink
2021-03-28 17:07:14.946,0.0,0.0,0.6921875,0.0,0.0,0.0,0.5696145,0.0,0.0,0.0,0.58616173,0.0,0.0,0.0,0.32812032,0.0,0.0,0.0,-0.14157759,0.0,807.8755,356.1905,825.6044,807.8755,641.8681,0.21044921875,0.25836181640625,0.99755859375,-16.217193603515625,-11.536712646484375,49.60113525390625,1,2.0,2.0,1.0,2.0,100.00
2021-03-28 17:07:15.453,0.0,0.0,0.81139266,0.0,0.0,0.0,0.47359118,0.0,0.0,0.0,0.48106128,0.0,0.0,0.0,0.24856135,0.0,0.0,0.0,-0.11879702,0.0,784.10254,658.3883,811.9048,872.3443,751.06226,0.20513916015625,0.00592041015625,0.974609375,7.095489501953125,-4.7552490234375,-1.435546875,1,2.0,2.0,1.0,2.0,100.00
2021-03-28 17:07:15.967,0.0,0.0,0.8801806,0.0,0.0,0.0,0.4074087,0.0,0.0,0.0,0.40408874,0.0,0.0,0.0,0.07677786,0.0,0.0,0.0,-0.2148257,0.0,749.85345,828.4249,788.5348,801.8315,862.674,0.16534423828125,0.029541015625,0.982666015625,7.2076416015625,0.186920166015625,-8.8226318359375,1,2.0,2.0,1.0,2.0,100.00
2021-03-28 17:07:16.082,,,,,,,,,,,,,,,,,,,,,,,,,,,,,,,,,,,,,,/muse/elements/blink
2021-03-28 17:07:16.508,0.0,0.0,0.88778436,0.0,0.0,0.0,0.5090713,0.0,0.0,0.0,0.9239216,0.0,0.0,0.0,0.111783125,0.0,0.0,0.0,-0.2775921,0.0,826.0073,121.28205,810.696,813.1135,751.06226,0.12548828125,0.0667724609375,0.9881591796875,5.62255859375,2.310333251953125,-1.2860107421875,1,2.0,2.0,1.0,2.0,100.00
2021-03-28 17:07:17.043,0.0,0.0,0.8303872,0.0,0.0,0.0,0.60428405,0.0,0.0,0.0,0.9402364,0.0,0.0,0.0,0.20782432,0.0,0.0,0.0,-0.33013508,0.0,844.5421,148.27838,801.02563,780.87915,658.7912,0.1270751953125,0.0721435546875,1.002197265625,5.3533935546875,-1.338348388671875,-1.7047119140625,1,2.0,2.0,1.0,2.0,100.00
2021-03-28 17:07:17.085,,,,,,,,,,,,,,,,,,,,,,,,,,,,,,,,,,,,,,/muse/elements/blink
2021-03-28 17:07:17.430,,,,,,,,,,,,,,,,,,,,,,,,,,,,,,,,,,,,,,/muse/elements/blink
2021-03-28 17:07:17.576,0.0,0.0,0.6863835,0.0,0.0,0.0,0.5655178,0.0,0.0,0.0,0.94376415,0.0,0.0,0.0,0.25912133,0.0,0.0,0.0,-0.25070858,0.0,781.685,232.49084,795.78754,707.5458,796.1905,0.0758056640625,0.07000732421875,1.001708984375,5.7122802734375,0.022430419921875,2.729034423828125,1,2.0,4.0,1.0,2.0,100.00
2021-03-28 17:07:18.078,0.0,0.0,0.6125982,0.0,0.0,0.0,0.42720506,0.0,0.0,0.0,0.7720291,0.0,0.0,0.0,0.348025,0.0,0.0,0.0,-0.17647786,0.0,787.72894,491.97803,799.41394,777.25275,754.2857,0.08184814453125,0.0550537109375,1.00006103515625,2.699127197265625,-3.626251220703125,2.310333251953125,1,2.0,4.0,1.0,2.0,100.00
2021-03-28 17:07:18.618,0.0,0.0,0.42910355,0.0,0.0,0.0,0.2685032,0.0,0.0,0.0,0.4981262,0.0,0.0,0.0,0.4320247,0.0,0.0,0.0,-0.18734245,0.0,747.03296,143.44322,774.0293,694.65204,821.5751,0.0931396484375,0.08001708984375,0.99737548828125,4.957122802734375,-2.385101318359375,-9.4805908203125,1,2.0,2.0,1.0,2.0,100.00
2021-03-28 17:07:18.877,,,,,,,,,,,,,,,,,,,,,,,,,,,,,,,,,,,,,,/muse/elements/blink
2021-03-28 17:07:19.128,0.0,0.0,0.66805696,0.0,0.0,0.0,0.44900998,0.0,0.0,0.0,0.5629603,0.0,0.0,0.0,0.5136013,0.0,0.0,0.0,-0.30228907,0.0,764.35895,657.98535,819.5604,814.7253,800.2198,0.0594482421875,0.06396484375,1.00421142578125,3.24493408203125,-9.031982421875,7.529144287109375,1,2.0,4.0,1.0,2.0,100.00
2021-03-28 17:07:19.657,0.0,0.0,0.86274594,0.0,0.0,0.0,0.5790333,0.0,0.0,0.0,0.5894475,0.0,0.0,0.0,0.48444483,0.0,0.0,0.0,-0.36117998,0.0,775.64105,254.24908,801.02563,705.9341,655.9707,0.0750732421875,0.05780029296875,0.9969482421875,4.553375244140625,-8.112335205078125,3.985137939453125,1,2.0,2.0,1.0,2.0,100.00
2021-03-28 17:07:20.161,0.0,0.0,0.998841,0.0,0.0,0.0,0.6979071,0.0,0.0,0.0,0.5757673,0.0,0.0,0.0,0.4592311,0.0,0.0,0.0,-0.32644674,0.0,851.39197,149.48718,796.1905,935.2015,1048.022,0.0941162109375,0.04901123046875,0.99041748046875,2.3626708984375,-2.429962158203125,0.814971923828125,1,2.0,4.0,1.0,2.0,100.00
2021-03-28 17:07:20.678,0.0,0.0,0.9514997,0.0,0.0,0.0,0.44127107,0.0,0.0,0.0,0.5520393,0.0,0.0,0.0,0.40246457,0.0,0.0,0.0,-0.2193426,0.0,746.63007,563.69965,812.71063,802.23444,729.304,0.0296630859375,0.03363037109375,0.994140625,7.125396728515625,-3.39447021484375,-4.3963623046875,1,2.0,2.0,1.0,2.0,100.00
2021-03-28 17:07:20.912,,,,,,,,,,,,,,,,,,,,,,,,,,,,,,,,,,,,,,/muse/elements/blink
2021-03-28 17:07:21.216,0.0,0.0,0.9303347,0.0,0.0,0.0,0.18420108,0.0,0.0,0.0,0.70350945,0.0,0.0,0.0,0.38304543,0.0,0.0,0.0,-0.21843751,0.0,834.0659,180.1099,803.8461,866.30035,901.75824,0.0799560546875,0.07171630859375,0.97662353515625,8.97216796875,-7.05810546875,-0.418701171875,1,2.0,2.0,1.0,2.0,100.00
2021-03-28 17:07:21.744,0.0,0.0,1.0019755,0.0,0.0,0.0,0.27668417,0.0,0.0,0.0,0.7383858,0.0,0.0,0.0,0.33574444,0.0,0.0,0.0,-0.26141655,0.0,744.21246,491.17215,804.2491,699.0842,712.381,0.12030029296875,0.1219482421875,1.001220703125,5.540313720703125,-5.9515380859375,3.4991455078125,1,2.0,2.0,1.0,2.0,100.00
2021-03-28 17:07:22.275,0.0,0.0,0.99823076,0.0,0.0,0.0,0.32136244,0.0,0.0,0.0,0.70118076,0.0,0.0,0.0,0.29887146,0.0,0.0,0.0,-0.2609959,0.0,764.35895,620.5128,807.8755,746.63007,733.3333,0.1014404296875,0.10546875,0.99407958984375,3.132781982421875,-5.345916748046875,11.790924072265625,1,2.0,2.0,1.0,2.0,100.00
2021-03-28 17:07:22.337,,,,,,,,,,,,,,,,,,,,,,,,,,,,,,,,,,,,,,/muse/elements/blink
2021-03-28 17:07:22.688,,,,,,,,,,,,,,,,,,,,,,,,,,,,,,,,,,,,,,/muse/elements/blink
2021-03-28 17:07:22.804,0.0,0.0,0.8457369,0.0,0.0,0.0,0.54637504,0.0,0.0,0.0,0.84428686,0.0,0.0,0.0,0.23568721,0.0,0.0,0.0,-0.29339316,0.0,795.38464,155.1282,792.5641,722.4542,718.022,0.12139892578125,0.0794677734375,0.99212646484375,5.076751708984375,-5.046844482421875,9.97406005859375,1,2.0,4.0,1.0,2.0,100.00
2021-03-28 17:07:23.340,0.0,0.0,0.7301616,0.0,0.0,0.0,0.5989042,0.0,0.0,0.0,0.8048724,0.0,0.0,0.0,0.2711337,0.0,0.0,0.0,-0.1984424,0.0,732.1245,637.4359,786.9231,745.82416,758.71796,0.1268310546875,0.04736328125,0.9876708984375,3.72344970703125,-3.940277099609375,-2.3626708984375,1,2.0,2.0,1.0,2.0,100.00
2021-03-28 17:07:23.843,0.0,0.0,0.6594482,0.011449164,0.0,0.0,0.6061171,0.34455937,0.0,0.0,0.79324436,0.7557352,0.0,0.0,0.20546027,1.6383054,0.0,0.0,-0.24739316,0.88490784,765.56775,227.65567,781.28204,729.304,747.4359,0.07281494140625,0.0584716796875,1.0111083984375,6.213226318359375,-1.3458251953125,-15.0433349609375,1,1.0,4.0,1.0,1.0,100.00
2021-03-28 17:07:23.993,,,,,,,,,,,,,,,,,,,,,,,,,,,,,,,,,,,,,,/muse/elements/blink
2021-03-28 17:07:24.360,0.0,0.0,0.6735781,0.011449164,0.0,0.0,0.57805586,0.34455937,0.0,0.0,0.7237697,0.7557352,0.0,0.0,0.30394006,1.6383054,0.0,0.0,-0.2354111,0.88490784,757.50916,695.4579,813.1135,828.022,759.5238,0.1097412109375,0.11529541015625,0.9945068359375,4.119720458984375,-6.38519287109375,1.71966552734375,1,1.0,4.0,1.0,1.0,100.00
2021-03-28 17:07:24.904,0.0,0.0,0.61321086,0.011449164,0.0,0.0,0.5043566,0.34455937,0.0,0.0,0.72425246,0.7557352,0.0,0.0,0.39144665,1.6383054,0.0,0.0,-0.27297065,0.88490784,770.0,540.7326,805.05493,707.9487,599.9634,0.0859375,0.11126708984375,0.982177734375,3.701019287109375,-3.00567626953125,1.383209228515625,1,1.0,4.0,1.0,1.0,100.00
2021-03-28 17:07:25.433,0.0,0.0,0.6144765,0.011449164,0.0,0.0,0.49041545,0.34455937,0.0,0.0,0.723685,0.7557352,0.0,0.0,0.4115864,1.6383054,0.0,0.0,-0.1527213,0.88490784,788.93774,534.68866,799.41394,738.97437,658.7912,0.1231689453125,0.083984375,0.999755859375,1.12152099609375,-4.717864990234375,17.8546142578125,1,1.0,4.0,1.0,1.0,100.00
2021-03-28 17:07:25.950,0.0,0.0,0.86824703,0.011449164,0.0,0.0,0.3500817,0.34455937,0.0,0.0,0.6004038,0.7557352,0.0,0.0,0.3940864,1.6383054,0.0,0.0,-0.15359886,0.88490784,748.24176,782.49084,818.7546,727.6923,633.4066,0.1370849609375,0.09930419921875,0.9920654296875,9.159088134765625,-2.452392578125,-6.2506103515625,1,1.0,2.0,1.0,1.0,100.00
2021-03-28 17:07:26.491,0.0,0.0,0.99175537,0.011449164,0.0,0.0,0.50177383,0.34455937,0.0,0.0,0.7213233,0.7557352,0.0,0.0,0.3746866,1.6383054,0.0,0.0,-0.20849906,0.88490784,787.326,369.8901,801.02563,717.619,618.0952,0.10040283203125,0.09539794921875,0.98992919921875,3.386993408203125,-3.1402587890625,-2.011260986328125,1,2.0,4.0,1.0,2.0,100.00
2021-03-28 17:07:27.047,0.0,0.0,0.89373696,0.011449164,0.0,0.0,0.41862717,0.34455937,0.0,0.0,0.70847857,0.7557352,0.0,0.0,0.351969,1.6383054,0.0,0.0,-0.28510842,0.88490784,720.4396,734.1392,792.96704,679.7436,616.4835,0.095458984375,0.139404296875,0.9813232421875,4.8150634765625,-2.79632568359375,-3.84307861328125,1,2.0,2.0,1.0,2.0,100.00
2021-03-28 17:07:27.577,0.0,0.0,0.6121808,0.011449164,0.0,0.0,0.33093047,0.34455937,0.0,0.0,0.6586445,0.7557352,0.0,0.0,0.3050073,1.6383054,0.0,0.0,-0.2991802,0.88490784,863.0769,116.446884,785.7143,819.15753,839.304,0.0347900390625,0.15740966796875,1.006591796875,4.4561767578125,-5.764617919921875,2.22808837890625,1,2.0,4.0,1.0,2.0,100.00
2021-03-28 17:07:28.092,0.0,0.0,0.32815233,0.011449164,0.0,0.0,0.2808421,0.34455937,0.0,0.0,0.06656583,0.7557352,0.0,0.0,0.23709843,1.6383054,0.0,0.0,-0.28815928,0.88490784,773.22345,585.05493,803.0403,823.1868,762.3443,0.05242919921875,0.1231689453125,1.00982666015625,1.54022216796875,-6.998291015625,-2.34771728515625,1,2.0,2.0,1.0,2.0,100.00
2021-03-28 17:07:28.303,,,,,,,,,,,,,,,,,,,,,,,,,,,,,,,,,,,,,,/muse/elements/blink
2021-03-28 17:07:28.622,0.0,0.0,0.45436633,0.011449164,0.0,0.0,0.38926837,0.34455937,0.0,0.0,0.22216465,0.7557352,0.0,0.0,0.28096765,1.6383054,0.0,0.0,-0.30893475,0.88490784,798.20514,441.2088,798.20514,817.5458,766.77655,0.09210205078125,0.12933349609375,0.99639892578125,4.702911376953125,-5.973968505859375,1.069183349609375,1,2.0,2.0,1.0,2.0,100.00
2021-03-28 17:07:29.169,0.0,0.0,0.48195785,0.011449164,0.0,0.0,0.3662474,0.34455937,0.0,0.0,0.29074672,0.7557352,0.0,0.0,0.2998955,1.6383054,0.0,0.0,-0.34912395,0.88490784,784.10254,483.9194,817.9487,778.46155,655.56775,0.0821533203125,0.14068603515625,1.00103759765625,3.342132568359375,-3.970184326171875,11.686248779296875,1,2.0,4.0,1.0,2.0,100.00
2021-03-28 17:07:29.700,0.0,0.0,0.76998174,0.011449164,0.0,0.0,0.44051784,0.34455937,0.0,0.0,0.39125317,0.7557352,0.0,0.0,0.32354748,1.6383054,0.0,0.0,-0.35276002,0.88490784,740.18317,859.0476,806.6667,745.42126,720.0366,0.05108642578125,0.076171875,0.99407958984375,6.198272705078125,-4.673004150390625,3.46923828125,1,2.0,4.0,1.0,2.0,100.00
2021-03-28 17:07:30.253,0.0,0.0,0.7600414,0.011449164,0.0,0.0,0.38057443,0.34455937,0.0,0.0,0.3951929,0.7557352,0.0,0.0,0.26069173,1.6383054,0.0,0.0,-0.33594272,0.88490784,784.10254,594.7253,806.6667,848.5714,825.6044,0.03289794921875,0.11077880859375,1.00921630859375,6.332855224609375,-1.936492919921875,-3.12530517578125,1,2.0,2.0,1.0,2.0,100.00
2021-03-28 17:07:30.786,0.0,0.0,0.9474369,0.011449164,0.0,0.0,0.39297837,0.34455937,0.0,0.0,0.41239852,0.7557352,0.0,0.0,0.25525373,1.6383054,0.0,0.0,-0.24713945,0.88490784,743.00366,630.989,804.2491,707.9487,657.5824,0.02880859375,0.14056396484375,0.99530029296875,12.119903564453125,-6.41510009765625,-4.209442138671875,1,2.0,4.0,1.0,2.0,100.00
2021-03-28 17:07:30.856,,,,,,,,,,,,,,,,,,,,,,,,,,,,,,,,,,,,,,/muse/elements/blink
2021-03-28 17:07:31.297,0.0,0.0,0.7640441,0.011449164,0.0,0.0,0.38995314,0.34455937,0.0,0.0,0.514256,0.7557352,0.0,0.0,0.3047658,1.6383054,0.0,0.0,-0.29112777,0.88490784,789.7436,520.58606,807.0696,789.34064,689.41394,0.03082275390625,0.13629150390625,0.99359130859375,6.83380126953125,-6.3702392578125,3.431854248046875,1,2.0,4.0,1.0,2.0,100.00
2021-03-28 17:07:31.849,0.7247899,0.0,0.7331771,0.011449164,0.6337359,0.0,0.3950939,0.34455937,0.81723654,0.0,0.5566312,0.7557352,1.4451936,0.0,0.33938873,1.6383054,1.0685574,0.0,-0.2556771,0.88490784,761.13556,401.72162,798.20514,704.3223,649.5238,0.092041015625,0.20489501953125,0.98956298828125,5.884246826171875,-3.461761474609375,7.117919921875,1,1.0,4.0,1.0,1.0,100.00
2021-03-28 17:07:32.375,0.6102771,0.0,0.5810175,0.011449164,0.5339529,0.0,0.29828042,0.34455937,0.83353007,0.0,0.5458395,0.7557352,1.4264302,0.0,0.3331499,1.6383054,1.0162866,0.0,-0.25423518,0.88490784,688.60803,451.68497,805.8608,647.50916,630.18317,-0.0264892578125,0.200927734375,0.98065185546875,0.97198486328125,1.353302001953125,2.52716064453125,1,1.0,4.0,1.0,1.0,100.00
2021-03-28 17:07:32.563,,,,,,,,,,,,,,,,,,,,,,,,,,,,,,,,,,,,,,/muse/elements/blink
2021-03-28 17:07:32.881,0.6102771,0.0,0.6206829,0.011449164,0.5339529,0.0,0.28255987,0.34455937,0.83353007,0.0,0.7075834,0.7557352,1.4264302,0.0,0.30981964,1.6383054,1.0162866,0.0,-0.2675364,0.88490784,811.0989,798.60803,792.96704,877.1795,830.84247,-0.04193115234375,0.0291748046875,1.03302001953125,15.035858154296875,-0.37384033203125,-68.487548828125,1,1.0,4.0,1.0,1.0,100.00
2021-03-28 17:07:33.381,,,,,,,,,,,,,,,,,,,,,,,,,,,,,,,,,,,,,,/muse/elements/blink
2021-03-28 17:07:33.388,0.40467298,0.0,0.9944223,0.011449164,0.36462447,0.0,0.56396806,0.34455937,0.72963244,0.0,0.7129521,0.7557352,1.401775,0.0,0.33222178,1.6383054,0.94063014,0.0,-0.24242513,0.88490784,761.53845,839.304,815.12823,791.75824,711.1722,-0.05474853515625,0.0892333984375,0.99755859375,7.9254150390625,-4.47113037109375,17.921905517578125,1,1.0,4.0,1.0,1.0,100.00
2021-03-28 17:07:33.927,0.40467298,0.0,1.1401078,0.011449164,0.36462447,0.0,0.6922673,0.34455937,0.72963244,0.0,0.7234909,0.7557352,1.401775,0.0,0.32351577,1.6383054,0.94063014,0.0,-0.22554752,0.88490784,800.6227,699.89014,795.38464,852.1978,823.9927,-0.0726318359375,0.06060791015625,0.9945068359375,3.54400634765625,-9.966583251953125,4.4561767578125,1,1.0,4.0,1.0,1.0,100.00
2021-03-28 17:07:34.471,0.40467298,0.0,1.0948325,0.011449164,0.36462447,0.0,0.642977,0.34455937,0.72963244,0.0,0.658162,0.7557352,1.401775,0.0,0.3526989,1.6383054,0.94063014,0.0,-0.24850142,0.88490784,742.1978,657.98535,809.4872,749.0476,693.44324,-0.032470703125,0.0787353515625,1.01202392578125,6.138458251953125,-6.930999755859375,-2.01873779296875,1,1.0,4.0,1.0,1.0,100.00
2021-03-28 17:07:35.004,0.40467298,0.0,0.6167602,0.011449164,0.36462447,0.0,0.40939572,0.34455937,0.72963244,0.0,0.4858318,0.7557352,1.401775,0.0,0.3086517,1.6383054,0.94063014,0.0,-0.2666186,0.88490784,778.0586,674.10254,799.41394,810.293,776.4469,-0.0377197265625,0.0833740234375,1.0064697265625,6.160888671875,-4.673004150390625,0.04486083984375,1,2.0,4.0,1.0,2.0,100.00
2021-03-28 17:07:35.550,0.40467298,0.0,0.20267642,0.011449164,0.36462447,0.0,0.23021269,0.34455937,0.72963244,0.0,0.48504382,0.7557352,1.401775,0.0,0.2887724,1.6383054,0.94063014,0.0,-0.2526057,0.88490784,764.35895,460.54944,803.44324,731.7216,682.5641,-0.0023193359375,0.09906005859375,0.97869873046875,7.798309326171875,-3.132781982421875,4.366455078125,1,2.0,4.0,1.0,2.0,100.00
2021-03-28 17:07:36.081,0.51325613,0.0,0.25227714,0.011449164,0.3216953,0.0,0.22399561,0.34455937,0.5956672,0.0,0.45572314,0.7557352,1.3817501,0.0,0.24988455,1.6383054,0.95994794,0.0,-0.18401891,0.88490784,720.84247,771.6117,809.4872,730.9158,670.87915,0.00897216796875,0.077392578125,0.99591064453125,4.044952392578125,-4.314117431640625,0.934600830078125,1,1.0,4.0,1.0,1.0,100.00
2021-03-28 17:07:36.198,,,,,,,,,,,,,,,,,,,,,,,,,,,,,,,,,,,,,,/muse/elements/blink
2021-03-28 17:07:36.585,0.5810721,0.0,0.26510102,0.011449164,0.5341267,0.0,0.16523328,0.34455937,0.7649472,0.0,0.5077426,0.7557352,1.3616579,0.0,0.2699169,1.6383054,0.91000247,0.0,-0.22786912,0.88490784,834.0659,528.24176,799.011,873.95605,908.60803,-0.02691650390625,0.10870361328125,1.00653076171875,3.102874755859375,-2.803802490234375,3.985137939453125,1,1.0,4.0,1.0,1.0,100.00
2021-03-28 17:07:37.131,0.74375093,0.0,0.31921,0.011449164,0.60472924,0.0,0.13404639,0.34455937,0.73773646,0.0,0.4853624,0.7557352,1.4005611,0.0,0.34536725,1.6383054,0.7891083,0.0,-0.2657772,0.88490784,790.54944,463.36996,798.20514,805.05493,734.1392,-0.0091552734375,0.10040283203125,0.998291015625,5.1141357421875,-4.53094482421875,-0.964508056640625,1,1.0,4.0,1.0,1.0,100.00
2021-03-28 17:07:37.287,,,,,,,,,,,,,,,,,,,,,,,,,,,,,,,,,,,,,,/muse/elements/blink
2021-03-28 17:07:37.681,0.7635075,0.0,0.23471142,0.011449164,0.6728799,0.0,0.011462858,0.34455937,0.85442305,0.0,0.47654808,0.7557352,1.3998432,0.0,0.3360799,1.6383054,0.75000304,0.0,-0.31601796,0.88490784,780.07324,325.9707,796.1905,763.95605,738.97437,0.02032470703125,0.10076904296875,0.99444580078125,6.048736572265625,-6.56463623046875,0.28411865234375,1,1.0,4.0,1.0,1.0,100.00
2021-03-28 17:07:38.187,0.7500645,0.0,0.16469078,0.011449164,0.61083466,0.0,-0.087469295,0.34455937,0.84580356,0.0,0.46600482,0.7557352,1.4220952,0.0,0.35097614,1.6383054,0.7449627,0.0,-0.26865274,0.88490784,795.38464,716.8132,805.4579,840.5128,805.4579,0.0870361328125,0.11871337890625,0.9840087890625,6.3702392578125,-13.1591796875,0.22430419921875,1,1.0,2.0,1.0,1.0,100.00
2021-03-28 17:07:38.712,0.72840744,0.0,0.08917242,0.011449164,0.6989135,0.0,0.1190994,0.34455937,0.74572927,0.0,0.70247686,0.7557352,1.4271524,0.0,0.28963012,1.6383054,0.6176794,0.0,-0.1278295,0.88490784,765.9707,852.6007,813.5165,798.20514,664.0293,0.00152587890625,0.12530517578125,1.013916015625,3.865509033203125,-4.762725830078125,4.0972900390625,1,1.0,4.0,1.0,1.0,100.00
2021-03-28 17:07:39.115,,,,,,,,,,,,,,,,,,,,,,,,,,,,,,,,,,,,,,/muse/elements/blink
2021-03-28 17:07:39.255,0.72840744,0.0,0.20881496,0.011449164,0.6989135,0.0,0.41280878,0.34455937,0.74572927,0.0,0.7030697,0.7557352,1.4271524,0.0,0.30509526,1.6383054,0.6176794,0.0,-0.027479198,0.88490784,928.7546,267.14285,779.2674,895.7143,807.8755,0.02337646484375,0.13177490234375,0.97833251953125,8.2843017578125,-11.013336181640625,-0.171966552734375,1,1.0,4.0,1.0,1.0,100.00
2021-03-28 17:07:39.774,0.72840744,0.0,0.2596246,0.011449164,0.6989135,0.0,0.5644144,0.34455937,0.74572927,0.0,0.7030697,0.7557352,1.4271524,0.0,0.2577567,1.6383054,0.6176794,0.0,0.040867403,0.88490784,749.45056,430.32968,787.72894,726.08057,695.4579,0.0545654296875,0.0865478515625,0.99395751953125,3.955230712890625,-11.2451171875,1.263580322265625,1,1.0,4.0,1.0,1.0,100.00
2021-03-28 17:07:40.069,,,,,,,,,,,,,,,,,,,,,,,,,,,,,,,,,,,,,,/muse/elements/blink
2021-03-28 17:07:40.295,,,,,,,,,,,,,,,,,,,,,,,,,,,,,,,,,,,,,,/muse/elements/blink
2021-03-28 17:07:40.303,0.72840744,0.0,0.52096343,0.011449164,0.6989135,0.0,0.69634014,0.34455937,0.74572927,0.0,0.5917,0.7557352,1.4271524,0.0,0.18680072,1.6383054,0.6176794,0.0,0.008400946,0.88490784,795.78754,257.47253,797.8022,761.9414,712.381,0.02239990234375,0.08575439453125,1.0020751953125,3.730926513671875,-11.424560546875,1.4056396484375,1,2.0,4.0,1.0,2.0,100.00
2021-03-28 17:07:40.821,0.72840744,0.0,1.0656711,0.011449164,0.6989135,0.0,1.1535131,0.34455937,0.74572927,0.0,0.6871062,0.7557352,1.4271524,0.0,0.23256549,1.6383054,0.6176794,0.0,-0.17999648,0.88490784,790.9524,535.4945,801.02563,833.663,801.8315,0.06439208984375,0.1029052734375,0.99639892578125,4.329071044921875,-3.72344970703125,1.682281494140625,1,2.0,4.0,1.0,2.0,100.00
2021-03-28 17:07:41.364,0.72840744,0.0,0.9014943,0.011449164,0.6989135,0.0,0.95235115,0.34455937,0.74572927,0.0,0.690281,0.7557352,1.4271524,0.0,0.32218048,1.6383054,0.6176794,0.0,-0.29381925,0.88490784,754.68866,681.75824,805.05493,793.7729,707.5458,0.04461669921875,0.0819091796875,1.00213623046875,2.55706787109375,-3.551483154296875,0.59814453125,1,2.0,4.0,1.0,2.0,100.00
2021-03-28 17:07:41.517,,,,,,,,,,,,,,,,,,,,,,,,,,,,,,,,,,,,,,/muse/elements/blink
2021-03-28 17:07:41.908,0.72840744,0.0,0.84554154,0.011449164,0.6989135,0.0,0.7037652,0.34455937,0.74572927,0.0,0.6968158,0.7557352,1.4271524,0.0,0.30527055,1.6383054,0.6176794,0.0,-0.3259792,0.88490784,813.91943,606.4103,812.3077,850.989,851.79486,0.1182861328125,0.0966796875,0.974853515625,5.27862548828125,-6.467437744140625,-0.082244873046875,1,2.0,4.0,1.0,2.0,100.00
2021-03-28 17:07:42.449,0.72840744,0.0,0.5655609,0.011449164,0.6989135,0.0,0.3356075,0.34455937,0.74572927,0.0,0.53706604,0.7557352,1.4271524,0.0,0.24675927,1.6383054,0.6176794,0.0,-0.4035037,0.88490784,757.1062,724.4689,817.9487,804.2491,835.2747,0.0792236328125,0.1083984375,0.988037109375,5.33843994140625,-9.5404052734375,-0.157012939453125,1,2.0,4.0,1.0,2.0,100.00
2021-03-28 17:07:42.901,,,,,,,,,,,,,,,,,,,,,,,,,,,,,,,,,,,,,,/muse/elements/blink
2021-03-28 17:07:42.963,0.79891574,0.0,0.5556327,0.90138006,0.9078844,0.0,0.4340776,0.9302569,0.52385914,0.0,0.5650125,0.59936,1.3935654,0.0,0.17537975,1.3985782,0.72634524,0.0,-0.3988213,0.7890518,838.9011,342.08792,795.78754,891.28204,978.71796,0.0799560546875,0.12469482421875,0.9990234375,5.00946044921875,-4.0374755859375,-0.10467529296875,1,1.0,4.0,1.0,1.0,100.00
2021-03-28 17:07:43.507,0.92093503,0.0,0.32876107,1.0044521,0.8735824,0.0,0.48758933,0.9371966,0.73357,0.0,0.5569721,0.97336835,1.3998609,0.0,0.14726365,1.4193915,0.7000532,0.0,-0.32321122,0.7641546,778.86444,84.61539,786.52014,738.97437,716.4103,0.0797119140625,0.12359619140625,1.01104736328125,5.091705322265625,-14.2657470703125,1.801910400390625,1,1.0,4.0,1.0,1.0,100.00
2021-03-28 17:07:44.017,0.93663216,0.0,0.4679288,1.0288852,0.7983451,0.0,0.30006978,0.91955286,1.0279405,0.0,0.38192645,0.97336835,1.4059579,0.0,0.10545367,1.433317,0.68451154,0.0,-0.26705045,0.72006756,731.7216,545.56775,803.8461,702.71063,597.5458,0.049072265625,0.12274169921875,0.98126220703125,8.14971923828125,-4.53094482421875,-0.299072265625,1,1.0,4.0,1.0,1.0,100.00
2021-03-28 17:07:44.543,,,,,,,,,,,,,,,,,,,,,,,,,,,,,,,,,,,,,,/muse/elements/blink
2021-03-28 17:07:44.548,0.9208239,0.0,0.41691765,1.0157876,0.7467723,0.0,0.40366626,0.7654985,1.132854,0.0,0.5663283,1.2449951,1.4388142,0.0,0.042511422,1.5586431,0.7186475,0.0,-0.27556717,0.77340895,803.8461,326.77655,792.1612,780.07324,734.5421,0.04254150390625,0.12255859375,1.00042724609375,3.297271728515625,-3.96270751953125,-0.710296630859375,1,1.0,4.0,1.0,1.0,100.00
2021-03-28 17:07:45.053,0.712558,0.0,0.3374217,1.0157876,0.58647376,0.0,0.41085833,0.7654985,1.1783817,0.0,0.5801887,1.2449951,1.4011836,0.0,0.058216684,1.5586431,0.7004211,0.0,-0.34396407,0.77340895,778.86444,736.1539,808.2784,811.0989,821.5751,0.055419921875,0.1180419921875,0.9921875,5.9814453125,-4.867401123046875,2.6617431640625,1,1.0,2.0,1.0,1.0,100.00
2021-03-28 17:07:45.590,0.5675231,0.0,0.09502313,1.0157876,0.46966767,0.0,0.38931254,0.7654985,1.1781693,0.0,0.5985367,1.2449951,1.3249099,0.0,0.048991613,1.5586431,0.88195086,0.0,-0.2141753,0.77340895,794.57874,688.20514,807.0696,832.8571,773.22345,0.13433837890625,0.1297607421875,0.9560546875,7.67120361328125,-10.3179931640625,1.293487548828125,1,1.0,4.0,1.0,1.0,100.00
2021-03-28 17:07:45.646,,,,,,,,,,,,,,,,,,,,,,,,,,,,,,,,,,,,,,/muse/elements/blink
2021-03-28 17:07:46.114,0.3827616,0.0,0.3078549,1.0157876,0.15644437,0.0,0.29174137,0.7654985,0.830863,0.0,0.7424911,1.2449951,1.2314035,0.0,0.104219474,1.5586431,0.9334739,0.0,-0.16785118,0.77340895,805.05493,306.63004,805.4579,872.74725,974.68866,0.09857177734375,0.1204833984375,0.995361328125,4.568328857421875,-9.667510986328125,13.630218505859375,1,1.0,4.0,1.0,1.0,100.00
2021-03-28 17:07:46.626,1.108441,0.0,0.5465174,1.0157876,0.8377092,0.0,0.53253657,0.7654985,1.2570064,0.0,0.7424911,1.2449951,1.2652119,0.0,0.19783348,1.5586431,0.98106086,0.0,-0.12304356,0.77340895,760.7326,560.87915,788.1319,730.10986,647.1062,0.109375,0.133544921875,0.98583984375,5.8917236328125,-5.36834716796875,5.443115234375,1,1.0,4.0,1.0,1.0,100.00
2021-03-28 17:07:46.773,,,,,,,,,,,,,,,,,,,,,,,,,,,,,,,,,,,,,,/muse/elements/blink
2021-03-28 17:07:47.175,1.2563307,0.0,0.5594588,1.0157876,0.98346364,0.0,0.57577676,0.7654985,1.2570064,0.0,0.7424911,1.2449951,1.2841897,0.0,0.2013523,1.5586431,0.93043077,0.0,-0.19288541,0.77340895,731.7216,396.0806,792.96704,693.8461,672.8938,0.05084228515625,0.1380615234375,1.012939453125,4.91973876953125,-4.29168701171875,-21.779937744140625,1,1.0,4.0,1.0,1.0,100.00
2021-03-28 17:07:47.273,,,,,,,,,,,,,,,,,,,,,,,,,,,,,,,,,,,,,,/muse/elements/blink
2021-03-28 17:07:47.711,1.2563307,0.0,0.54433143,1.0157876,0.98346364,0.0,0.42515653,0.7654985,1.2570064,0.0,0.5625934,1.2449951,1.2841897,0.0,0.23983112,1.5586431,0.93043077,0.0,-0.26080742,0.77340895,685.38464,649.5238,813.91943,707.9487,626.55676,-0.0162353515625,-0.0185546875,1.02642822265625,2.213134765625,3.7384033203125,13.615264892578125,1,1.0,4.0,1.0,1.0,100.00
2021-03-28 17:07:48.229,1.2563307,0.0,0.4902429,1.0157876,0.98346364,0.0,0.35542735,0.7654985,1.2570064,0.0,0.48706713,1.2449951,1.2841897,0.0,0.23017715,1.5586431,0.93043077,0.0,-0.28481486,0.77340895,793.7729,236.92308,798.20514,784.90845,753.8828,-0.009521484375,0.25958251953125,0.98358154296875,17.77984619140625,-8.022613525390625,10.624542236328125,1,1.0,4.0,1.0,1.0,100.00
2021-03-28 17:07:48.263,,,,,,,,,,,,,,,,,,,,,,,,,,,,,,,,,,,,,,/muse/elements/blink
2021-03-28 17:07:48.747,1.2563307,0.0,0.6850575,1.0157876,0.98346364,0.0,0.639082,0.7654985,1.2570064,0.0,0.53172266,1.2449951,1.2841897,0.0,0.28155407,1.5586431,0.93043077,0.0,-0.34918192,0.77340895,802.6374,700.293,809.0842,811.0989,719.6337,0.03424072265625,0.149169921875,0.97869873046875,5.031890869140625,-4.628143310546875,-0.40374755859375,1,2.0,4.0,1.0,2.0,100.00
2021-03-28 17:07:49.274,1.2563307,0.0,0.72645557,1.0157876,0.98346364,0.0,0.6384524,0.7654985,1.2570064,0.0,0.5720211,1.2449951,1.2841897,0.0,0.21766871,1.5586431,0.93043077,0.0,-0.33972326,0.77340895,792.96704,879.59705,810.696,809.89014,729.304,0.083984375,0.18988037109375,0.9930419921875,9.278717041015625,-9.64508056640625,-1.06170654296875,1,2.0,4.0,1.0,2.0,100.00
2021-03-28 17:07:49.730,,,,,,,,,,,,,,,,,,,,,,,,,,,,,,,,,,,,,,/muse/elements/blink
2021-03-28 17:07:49.801,1.2563307,0.0,0.69198996,1.0157876,0.98346364,0.0,0.595383,0.7654985,1.2570064,0.0,0.5886327,1.2449951,1.2841897,0.0,0.109203584,1.5586431,0.93043077,0.0,-0.3213904,0.77340895,761.53845,595.9341,790.54944,737.3626,718.022,0.0684814453125,0.2030029296875,0.962158203125,11.85821533203125,-2.504730224609375,0.680389404296875,1,2.0,4.0,1.0,2.0,100.00
2021-03-28 17:07:50.345,1.2563307,0.0,0.54574096,1.0157876,0.98346364,0.0,0.6484608,0.7654985,1.2570064,0.0,0.66099876,1.2449951,1.2841897,0.0,0.1314265,1.5586431,0.93043077,0.0,-0.2928424,0.77340895,707.9487,548.7912,804.65204,713.5897,637.4359,0.07135009765625,0.22607421875,0.985107421875,5.72723388671875,-7.9852294921875,-0.112152099609375,1,2.0,4.0,1.0,2.0,100.00
2021-03-28 17:07:50.860,0.70738244,0.0,0.3031422,1.0157876,0.8366039,0.0,0.6585708,0.7654985,0.74172205,0.0,0.5844587,1.2449951,1.3802029,0.0,0.17675832,1.5586431,0.6148345,0.0,-0.25729203,0.77340895,788.5348,281.24542,797.3993,794.9817,711.978,0.06072998046875,0.18780517578125,0.95416259765625,3.252410888671875,-0.83740234375,-2.73651123046875,1,1.0,4.0,1.0,1.0,100.00
2021-03-28 17:07:51.130,,,,,,,,,,,,,,,,,,,,,,,,,,,,,,,,,,,,,,/muse/elements/blink
2021-03-28 17:07:51.407,0.70738244,0.0,0.2906091,1.0157876,0.8366039,0.0,0.5904201,0.7654985,0.74172205,0.0,0.5958258,1.2449951,1.3802029,0.0,0.23740458,1.5586431,0.6148345,0.0,-0.317072,0.77340895,810.293,702.71063,809.4872,830.0366,783.69965,0.01104736328125,0.2381591796875,0.99591064453125,7.559051513671875,-1.3458251953125,-0.5084228515625,1,1.0,4.0,1.0,1.0,100.00
2021-03-28 17:07:51.940,0.70698506,0.0,0.23831964,1.0157876,0.73647046,0.0,0.0889123,0.7654985,0.682588,0.0,0.30410275,1.2449951,1.3860495,0.0,0.21253613,1.5586431,0.60697794,0.0,-0.2768527,0.77340895,740.58606,489.56042,787.326,730.9158,666.04395,0.02728271484375,0.198486328125,0.977783203125,1.562652587890625,-2.803802490234375,-2.026214599609375,1,1.0,4.0,1.0,1.0,100.00
2021-03-28 17:07:52.165,,,,,,,,,,,,,,,,,,,,,,,,,,,,,,,,,,,,,,/muse/elements/blink
2021-03-28 17:07:52.474,0.70698506,0.0,0.4519406,1.0157876,0.73647046,0.0,0.20225231,0.7654985,0.682588,0.0,0.29521683,1.2449951,1.3860495,0.0,0.19324711,1.5586431,0.60697794,0.0,-0.26681346,0.77340895,817.5458,495.20148,803.8461,811.9048,751.4652,-0.01898193359375,0.16680908203125,0.9913330078125,5.211334228515625,-6.41510009765625,-2.3028564453125,1,1.0,4.0,1.0,1.0,100.00
2021-03-28 17:07:53.020,0.70698506,0.0,0.4959025,1.0157876,0.73647046,0.0,0.21156147,0.7654985,0.682588,0.0,0.14708248,1.2449951,1.3860495,0.0,0.1769179,1.5586431,0.60697794,0.0,-0.19175826,0.77340895,785.7143,899.7436,814.3223,809.4872,786.52014,-0.00335693359375,0.1710205078125,0.99365234375,6.467437744140625,-7.76092529296875,-0.28411865234375,1,1.0,4.0,1.0,1.0,100.00
2021-03-28 17:07:53.393,,,,,,,,,,,,,,,,,,,,,,,,,,,,,,,,,,,,,,/muse/elements/blink
2021-03-28 17:07:53.523,0.70698506,0.0,0.52903306,1.0157876,0.73647046,0.0,0.19513492,0.7654985,0.682588,0.0,0.23975618,1.2449951,1.3860495,0.0,0.19620204,1.5586431,0.60697794,0.0,-0.16124955,0.77340895,818.3516,505.27472,784.90845,821.1722,740.18317,0.0216064453125,0.1663818359375,0.99188232421875,3.760833740234375,-5.9814453125,1.263580322265625,1,2.0,4.0,1.0,2.0,100.00
2021-03-28 17:07:54.035,0.70698506,0.0,0.50291836,1.0157876,0.73647046,0.0,0.4022782,0.7654985,0.682588,0.0,0.5121882,1.2449951,1.3860495,0.0,0.19595464,1.5586431,0.60697794,0.0,-0.17881203,0.77340895,789.34064,900.9524,803.44324,811.9048,746.63007,0.020751953125,0.15277099609375,0.98345947265625,9.16656494140625,-6.8487548828125,9.52545166015625,1,2.0,4.0,1.0,2.0,100.00
2021-03-28 17:07:54.544,0.70698506,0.0,0.7235131,1.0157876,0.73647046,0.0,0.46286935,0.7654985,0.682588,0.0,0.5073648,1.2449951,1.3860495,0.0,0.24812149,1.5586431,0.60697794,0.0,-0.22833952,0.77340895,523.8095,738.1685,813.1135,508.9011,653.1502,0.04345703125,0.15277099609375,0.96209716796875,-0.411224365234375,10.467529296875,-14.43023681640625,1,2.0,4.0,1.0,2.0,100.00
2021-03-28 17:07:54.709,,,,,,,,,,,,,,,,,,,,,,,,,,,,,,,,,,,,,,/muse/elements/blink
2021-03-28 17:07:55.054,0.70698506,0.0,1.0317138,1.0157876,0.73647046,0.0,0.76432586,0.7654985,0.682588,0.0,0.5211283,1.2449951,1.3860495,0.0,0.29227722,1.5586431,0.60697794,0.0,-0.31380776,0.77340895,762.3443,436.37363,796.1905,749.45056,643.47986,0.02081298828125,0.159423828125,0.984619140625,3.835601806640625,-0.897216796875,-22.430419921875,1,2.0,4.0,1.0,2.0,100.00
2021-03-28 17:07:55.601,0.70698506,0.0,1.1342412,1.0157876,0.73647046,0.0,0.8118054,0.7654985,0.682588,0.0,0.31961992,1.2449951,1.3860495,0.0,0.3643211,1.5586431,0.60697794,0.0,-0.27383164,0.77340895,813.5165,426.7033,803.0403,799.011,674.10254,-0.05108642578125,0.1766357421875,0.95416259765625,10.06378173828125,8.575897216796875,2.7215576171875,1,2.0,4.0,1.0,2.0,100.00
2021-03-28 17:07:56.127,0.70698506,0.0,1.0499266,1.0157876,0.73647046,0.0,0.7619534,0.7654985,0.682588,0.0,0.5148116,1.2449951,1.3860495,0.0,0.33285847,1.5586431,0.60697794,0.0,-0.20932466,0.77340895,793.7729,176.88644,790.14655,797.3993,785.7143,-0.01971435546875,0.1632080078125,0.98883056640625,4.74029541015625,-1.71966552734375,1.323394775390625,1,2.0,4.0,1.0,2.0,100.00
2021-03-28 17:07:56.157,,,,,,,,,,,,,,,,,,,,,,,,,,,,,,,,,,,,,,/muse/elements/blink
2021-03-28 17:07:56.649,0.70698506,0.0,0.7849996,1.0157876,0.73647046,0.0,0.46992648,0.7654985,0.682588,0.0,0.4886672,1.2449951,1.3860495,0.0,0.29815662,1.5586431,0.60697794,0.0,-0.21105888,0.77340895,753.47986,693.44324,808.2784,767.5824,770.40295,-0.01995849609375,0.175537109375,0.9853515625,4.702911376953125,-7.16278076171875,2.998199462890625,1,2.0,4.0,1.0,2.0,100.00
2021-03-28 17:07:57.182,0.70698506,0.0,0.34550503,1.0157876,0.73647046,0.0,0.12903449,0.7654985,0.682588,0.0,0.49385518,1.2449951,1.3860495,0.0,0.27478924,1.5586431,0.60697794,0.0,-0.21145593,0.77340895,692.23444,608.8278,801.4286,698.68134,595.12823,0.03125,0.19403076171875,0.9840087890625,6.81884765625,-5.682373046875,-1.308441162109375,1,2.0,4.0,1.0,2.0,100.00
2021-03-28 17:07:57.642,,,,,,,,,,,,,,,,,,,,,,,,,,,,,,,,,,,,,,/muse/elements/blink
2021-03-28 17:07:57.714,0.70698506,0.0,0.34692413,1.0157876,0.73647046,0.0,0.22690661,0.7654985,0.682588,0.0,0.47648162,1.2449951,1.3860495,0.0,0.2669026,1.5586431,0.60697794,0.0,-0.26294124,0.77340895,757.1062,453.69965,809.89014,779.2674,779.2674,-0.01470947265625,0.17950439453125,0.999755859375,2.10845947265625,-1.8243408203125,5.151519775390625,1,2.0,4.0,1.0,2.0,100.00
2021-03-28 17:07:58.059,,,,,,,,,,,,,,,,,,,,,,,,,,,,,,,,,,,,,,/muse/elements/blink
2021-03-28 17:07:58.225,0.70698506,0.0,0.8261774,1.0157876,0.73647046,0.0,0.6035701,0.7654985,0.682588,0.0,0.7164383,1.2449951,1.3860495,0.0,0.24135707,1.5586431,0.60697794,0.0,-0.28171703,0.77340895,700.293,386.41025,797.3993,712.7839,625.7509,-0.04327392578125,0.13958740234375,0.985595703125,2.76641845703125,-1.495361328125,1.2860107421875,1,2.0,4.0,1.0,2.0,100.00
2021-03-28 17:07:58.781,0.70698506,0.0,1.02554,1.0157876,0.73647046,0.0,0.7665991,0.7654985,0.682588,0.0,0.7164383,1.2449951,1.3860495,0.0,0.13912337,1.5586431,0.60697794,0.0,-0.38213432,0.77340895,999.2674,120.47619,746.2271,998.86444,775.2381,-0.1033935546875,0.1639404296875,1.0050048828125,4.29168701171875,-6.3104248046875,1.547698974609375,1,2.0,4.0,1.0,2.0,100.00
2021-03-28 17:07:58.855,,,,,,,,,,,,,,,,,,,,,,,,,,,,,,,,,,,,,,/muse/elements/blink
2021-03-28 17:07:59.301,0.70698506,0.0,1.2807132,1.0157876,0.73647046,0.0,0.9800251,0.7654985,0.682588,0.0,0.7164383,1.2449951,1.3860495,0.0,0.091621,1.5586431,0.60697794,0.0,-0.41659415,0.77340895,773.6264,374.72528,803.44324,767.1795,777.6557,0.009033203125,0.13629150390625,0.96978759765625,8.23944091796875,-8.7628173828125,1.68975830078125,1,2.0,4.0,1.0,2.0,100.00
2021-03-28 17:07:59.838,0.70698506,0.0,1.2807132,1.0157876,0.73647046,0.0,0.9800251,0.7654985,0.682588,0.0,0.7164383,1.2449951,1.3860495,0.0,0.091621,1.5586431,0.60697794,0.0,-0.41659415,0.77340895,757.9121,231.68498,778.46155,749.0476,829.2308,-0.047607421875,0.11004638671875,1.00653076171875,0.35888671875,-8.351593017578125,-4.97955322265625,1,2.0,4.0,1.0,2.0,100.00
2021-03-28 17:08:00.382,0.70698506,0.0,0.74685526,1.0157876,0.73647046,0.0,0.2720921,0.7654985,0.682588,0.0,0.12665927,1.2449951,1.3860495,0.0,0.3277939,1.5586431,0.60697794,0.0,-0.11422428,0.77340895,811.50183,656.77655,815.12823,837.28937,763.95605,-0.04364013671875,0.121826171875,0.97332763671875,7.1478271484375,4.306640625,1.83929443359375,1,2.0,4.0,1.0,2.0,100.00
2021-03-28 17:08:00.395,,,,,,,,,,,,,,,,,,,,,,,,,,,,,,,,,,,,,,/muse/elements/blink
2021-03-28 17:08:00.885,0.70698506,0.0,0.70579416,1.0157876,0.73647046,0.0,0.09640112,0.7654985,0.682588,0.0,0.43802914,1.2449951,1.3860495,0.0,0.32988152,1.5586431,0.60697794,0.0,-0.13399605,0.77340895,716.4103,568.93774,790.9524,723.2601,485.93405,-0.07080078125,0.1319580078125,0.99371337890625,2.923431396484375,-7.07305908203125,3.715972900390625,1,2.0,4.0,1.0,2.0,100.00
2021-03-28 17:08:01.395,1.0769544,0.0,0.64841,1.0157876,0.849894,0.0,-0.013117235,0.7654985,0.8153951,0.0,0.45104656,1.2449951,1.1767629,0.0,0.35400927,1.5586431,0.6184265,0.0,-0.17176007,0.77340895,820.7692,222.41759,806.6667,851.79486,923.91943,-0.076904296875,0.0645751953125,0.99359130859375,5.973968505859375,-6.08612060546875,1.487884521484375,1,1.0,4.0,1.0,1.0,100.00
2021-03-28 17:08:01.947,0.9835554,0.0,0.5762042,1.0157876,0.8054914,0.0,0.24328512,0.7654985,0.89001817,0.0,0.54197985,1.2449951,1.1640521,0.0,0.3174879,1.5586431,0.6254501,0.0,-0.25788707,0.77340895,723.663,396.48352,799.011,731.31866,709.5604,-0.07733154296875,0.07391357421875,1.00732421875,6.646881103515625,-6.751556396484375,0.949554443359375,1,1.0,4.0,1.0,1.0,100.00
2021-03-28 17:08:02.490,0.84913164,0.0,0.5545501,1.0157876,0.7365678,0.0,0.2662571,0.7654985,0.748582,0.0,0.39627296,1.2449951,1.1465783,0.0,0.26855904,1.5586431,0.62794995,0.0,-0.30056706,0.77340895,746.2271,461.75824,803.44324,746.63007,662.4176,-0.08758544921875,0.13214111328125,1.02984619140625,5.60760498046875,-3.641204833984375,0.37384033203125,1,1.0,4.0,1.0,1.0,100.00
2021-03-28 17:08:02.501,,,,,,,,,,,,,,,,,,,,,,,,,,,,,,,,,,,,,,/muse/elements/blink
2021-03-28 17:08:03.007,0.9557438,0.0,0.45132223,1.1025704,0.7223154,0.0,0.32409656,0.9649408,0.8156217,0.0,0.33906472,0.9277531,1.1900014,0.0,0.21880141,1.3007044,0.77302283,0.0,-0.31278995,0.84990764,763.5531,296.95972,786.52014,766.77655,748.24176,0.01885986328125,0.06353759765625,0.99737548828125,-5.016937255859375,-10.445098876953125,-2.564544677734375,1,1.0,4.0,1.0,1.0,100.00
2021-03-28 17:08:03.240,,,,,,,,,,,,,,,,,,,,,,,,,,,,,,,,,,,,,,/muse/elements/blink
2021-03-28 17:08:03.511,0.7893771,0.0,0.54342306,0.99886024,0.6650173,0.0,0.34931746,0.7667377,0.84326863,0.0,0.5266606,0.97810036,1.216831,0.0,0.25325513,1.2739425,0.80964565,0.0,-0.3473259,0.8506919,780.4762,798.20514,812.3077,793.7729,774.0293,-0.02703857421875,0.09393310546875,1.00726318359375,0.43365478515625,-2.758941650390625,3.9178466796875,1,1.0,4.0,1.0,1.0,100.00
2021-03-28 17:08:04.028,0.7995568,0.0,0.6297644,0.91925496,0.6420825,0.0,0.5138091,0.79065895,0.85629874,0.0,0.579714,0.9983878,1.2129889,0.0,0.29823598,1.2519467,0.7840259,0.0,-0.33777663,0.80157995,807.8755,489.56042,792.1612,796.1905,696.26373,-0.00604248046875,0.083251953125,1.0037841796875,5.562744140625,-8.695526123046875,-2.67669677734375,1,1.0,4.0,1.0,1.0,100.00
2021-03-28 17:08:04.541,0.7843363,0.0,0.69270974,0.8654588,0.5348485,0.0,0.4473105,0.76221025,0.7231325,0.0,0.579714,0.97010505,1.2014679,0.0,0.25146648,1.2524165,0.68391335,0.0,-0.34934005,0.72143877,587.47253,619.707,826.8132,597.5458,684.9817,-0.05084228515625,0.0960693359375,0.95684814453125,5.809478759765625,7.22259521484375,-0.381317138671875,1,1.0,4.0,1.0,1.0,100.00
2021-03-28 17:08:04.601,,,,,,,,,,,,,,,,,,,,,,,,,,,,,,,,,,,,,,/muse/elements/blink
2021-03-28 17:08:04.963,,,,,,,,,,,,,,,,,,,,,,,,,,,,,,,,,,,,,,/muse/elements/blink
2021-03-28 17:08:05.052,1.0236919,0.0,0.7581067,0.92120653,0.47141483,0.0,0.3533197,0.82204825,0.6227197,0.0,0.5082419,0.9378651,1.202952,0.0,0.23221648,1.2509501,0.5715354,0.0,-0.32937056,0.72648185,619.707,431.53845,691.4286,622.1245,655.16486,-0.0169677734375,0.12725830078125,1.0316162109375,8.00018310546875,6.69921875,1.71966552734375,1,1.0,4.0,1.0,1.0,100.00
2021-03-28 17:08:05.556,1.0236919,0.0,0.7567004,1.0026928,0.47141483,0.0,-0.030778741,0.8464358,0.6227197,0.0,-0.054329295,0.67652494,1.202952,0.0,0.07647074,1.2841161,0.5715354,0.0,-0.39334506,0.7181134,803.8461,528.6447,769.59705,791.75824,820.7692,-0.0357666015625,0.0863037109375,1.01092529296875,4.02252197265625,-9.5703125,2.6019287109375,1,1.0,4.0,1.0,1.0,100.00
2021-03-28 17:08:05.684,,,,,,,,,,,,,,,,,,,,,,,,,,,,,,,,,,,,,,/muse/elements/blink
2021-03-28 17:08:05.959,,,,,,,,,,,,,,,,,,,,,,,,,,,,,,,,,,,,,,/muse/elements/blink
2021-03-28 17:08:06.079,1.0236919,0.0,0.8549951,1.0026928,0.47141483,0.0,0.0129599115,0.8464358,0.6227197,0.0,-0.24073368,0.67652494,1.202952,0.0,0.03410738,1.2841161,0.5715354,0.0,-0.427983,0.7181134,854.61536,928.7546,796.1905,861.4652,766.3736,-0.017822265625,0.1688232421875,0.96942138671875,9.906768798828125,-2.04864501953125,5.75714111328125,1,1.0,4.0,1.0,1.0,100.00
2021-03-28 17:08:06.618,1.0236919,0.0,0.8549951,1.0026928,0.47141483,0.0,0.0129599115,0.8464358,0.6227197,0.0,-0.24073368,0.67652494,1.202952,0.0,0.03410738,1.2841161,0.5715354,0.0,-0.427983,0.7181134,782.8938,678.5348,799.41394,783.2967,667.25275,-0.013916015625,0.15496826171875,0.9873046875,6.467437744140625,-0.2392578125,4.059906005859375,1,1.0,4.0,1.0,1.0,100.00
2021-03-28 17:08:07.162,,,,,,,,,,,,,,,,,,,,,,,,,,,,,,,,,,,,,,/muse/elements/blink
2021-03-28 17:08:07.166,1.0236919,0.0,0.8549951,1.0026928,0.47141483,0.0,0.0129599115,0.8464358,0.6227197,0.0,-0.24073368,0.67652494,1.202952,0.0,0.03410738,1.2841161,0.5715354,0.0,-0.427983,0.7181134,784.5055,837.28937,799.011,788.1319,742.6007,-0.02435302734375,0.20623779296875,0.96124267578125,11.940460205078125,-2.609405517578125,11.88812255859375,1,2.0,4.0,1.0,2.0,100.00
2021-03-28 17:08:07.698,1.1110684,0.0,0.0790998,1.0026928,0.6924222,0.0,0.28201532,0.8464358,0.96161014,0.0,0.5095363,0.67652494,1.2175889,0.0,0.35449317,1.2841161,0.70885336,0.0,-0.17567094,0.7181134,732.52747,674.10254,814.7253,746.63007,631.39197,-0.00347900390625,0.22540283203125,0.968017578125,8.964691162109375,-2.5421142578125,4.366455078125,1,1.0,4.0,1.0,1.0,100.00
2021-03-28 17:08:08.221,0.9412753,0.0,0.39573833,1.0026928,0.6659606,0.0,0.2770938,0.8464358,0.9726217,0.0,0.5105073,0.67652494,1.1135001,0.0,0.33029845,1.2841161,0.77892864,0.0,-0.18391427,0.7181134,785.7143,339.67032,783.69965,790.9524,743.4066,0.01324462890625,0.301025390625,0.956298828125,6.661834716796875,-8.41888427734375,10.587158203125,1,1.0,4.0,1.0,1.0,100.00
2021-03-28 17:08:08.519,,,,,,,,,,,,,,,,,,,,,,,,,,,,,,,,,,,,,,/muse/elements/blink
2021-03-28 17:08:08.726,0.8455188,0.0,0.51071775,1.0026928,0.6147736,0.0,0.20790635,0.8464358,1.0788214,0.0,0.5476184,0.67652494,1.1141227,0.0,0.28428942,1.2841161,0.74657685,0.0,-0.19090024,0.7181134,781.28204,597.1429,799.41394,794.9817,866.30035,0.03955078125,0.3424072265625,0.96466064453125,8.770294189453125,-6.20574951171875,6.063690185546875,1,1.0,4.0,1.0,1.0,100.00
2021-03-28 17:08:09.237,0.60264456,0.0,0.67568636,0.6465166,0.573287,0.0,0.13572496,0.52521145,0.8984046,0.0,0.41347608,0.7973447,1.0556136,0.0,0.21400477,1.1958287,0.75066835,0.0,-0.22109786,0.81221265,806.26373,470.6227,778.46155,789.7436,799.81683,0.09271240234375,0.258056640625,0.94354248046875,-2.220611572265625,-6.74407958984375,-15.77606201171875,1,1.0,4.0,1.0,1.0,100.00
2021-03-28 17:08:09.663,,,,,,,,,,,,,,,,,,,,,,,,,,,,,,,,,,,,,,/muse/elements/blink
2021-03-28 17:08:09.746,0.5497777,0.0,0.8574017,0.6465166,0.5110984,0.0,0.43268272,0.52521145,0.6626694,0.0,0.31386074,0.7973447,1.1121595,0.0,0.15611586,1.1958287,0.6599285,0.0,-0.20688955,0.81221265,790.54944,5.6410255,792.5641,823.9927,984.7619,0.091064453125,0.31695556640625,0.971435546875,7.73101806640625,-8.65814208984375,4.553375244140625,1,1.0,4.0,1.0,1.0,100.00
2021-03-28 17:08:10.289,0.5323681,0.0,0.8155385,0.6465166,0.477999,0.0,0.44464806,0.52521145,0.6617033,0.0,0.26301578,0.7973447,1.1006678,0.0,0.10918451,1.1958287,0.63832915,0.0,-0.20528567,0.81221265,715.6044,516.55676,805.8608,734.5421,639.0476,0.05792236328125,0.30303955078125,0.952880859375,4.089813232421875,-4.149627685546875,-0.11962890625,1,1.0,4.0,1.0,1.0,100.00
2021-03-28 17:08:10.792,0.97453636,0.0,0.74915797,0.6465166,0.35408577,0.0,0.44706294,0.52521145,0.47814417,0.0,0.32720217,0.7973447,0.898796,0.0,0.2470323,1.1958287,0.7294132,0.0,-0.19925398,0.81221265,990.80585,479.8901,779.67035,999.2674,776.8498,0.04534912109375,0.306640625,0.9554443359375,3.013153076171875,0.95703125,6.44500732421875,1,1.0,4.0,1.0,1.0,100.00
2021-03-28 17:08:10.849,,,,,,,,,,,,,,,,,,,,,,,,,,,,,,,,,,,,,,/muse/elements/blink
2021-03-28 17:08:11.319,0.97453636,0.0,0.41171503,0.6465166,0.35408577,0.0,0.09891356,0.52521145,0.47814417,0.0,0.24609151,0.7973447,0.898796,0.0,0.2948484,1.1958287,0.7294132,0.0,-0.22222513,0.81221265,823.9927,520.18317,811.0989,823.1868,817.1429,0.05560302734375,0.1942138671875,0.9793701171875,14.774169921875,0.725250244140625,29.129638671875,1,1.0,4.0,1.0,1.0,100.00
2021-03-28 17:08:11.863,0.97453636,0.0,0.5484895,0.6465166,0.35408577,0.0,0.19616282,0.52521145,0.47814417,0.0,0.29991713,0.7973447,0.898796,0.0,0.39841935,1.1958287,0.7294132,0.0,-0.24811712,0.81221265,764.35895,802.23444,807.47253,737.3626,618.0952,0.06817626953125,0.18804931640625,0.97125244140625,0.2691650390625,-4.119720458984375,-2.67669677734375,1,1.0,4.0,1.0,1.0,100.00
2021-03-28 17:08:12.373,0.97453636,0.0,0.47967985,0.6465166,0.35408577,0.0,0.19557635,0.52521145,0.47814417,0.0,0.28632483,0.7973447,0.898796,0.0,0.06353452,1.1958287,0.7294132,0.0,-0.26280802,0.81221265,787.326,606.4103,801.02563,786.9231,844.5421,0.0673828125,0.23480224609375,0.969970703125,4.80010986328125,-4.56085205078125,-0.216827392578125,1,1.0,4.0,1.0,1.0,100.00
2021-03-28 17:08:12.907,0.25608817,0.0,0.32559028,-0.042093612,0.40965074,0.0,0.16737212,0.3417099,0.5425345,0.0,0.29053,0.64733785,1.1774812,0.0,0.11327701,1.3641642,0.43114105,0.0,-0.34659046,0.5142714,738.1685,733.3333,801.8315,720.84247,665.64105,0.07012939453125,0.2274169921875,0.97454833984375,3.70849609375,-6.83380126953125,-0.680389404296875,1,1.0,4.0,1.0,1.0,100.00
2021-03-28 17:08:13.451,0.3113822,0.0,0.052003525,0.194564,0.28851297,0.0,0.016361542,0.22548561,0.5943951,0.0,0.12028645,0.7041113,1.0881034,0.0,0.14489822,1.2677917,0.6462435,0.0,-0.32428306,0.71712434,779.67035,351.75824,801.4286,789.34064,797.3993,0.07623291015625,0.24603271484375,0.97271728515625,7.19268798828125,-3.70849609375,2.01873779296875,1,1.0,4.0,1.0,1.0,100.00
2021-03-28 17:08:13.968,0.3794479,0.0,0.061731268,0.31907254,0.2435696,0.0,0.048473503,0.2226518,0.6340041,0.0,-0.004895351,0.65270615,1.0418022,0.0,0.1481665,1.1364423,0.8027316,0.0,-0.2517001,0.8796236,731.7216,562.49084,770.0,712.381,619.707,0.07427978515625,0.2281494140625,0.9613037109375,6.4599609375,-7.64129638671875,3.21502685546875,1,1.0,4.0,1.0,1.0,100.00
2021-03-28 17:08:14.526,0.47644725,0.0,0.5295527,0.47765014,0.5466164,0.0,0.17477432,0.30719018,0.7813863,0.0,0.25969273,0.61181647,1.0183817,0.0,0.20490284,0.96887726,0.80832577,0.0,-0.230672,0.9139673,770.80585,470.2198,792.5641,772.01465,736.55676,0.09014892578125,0.24261474609375,0.94781494140625,3.372039794921875,-2.49725341796875,-3.611297607421875,1,1.0,4.0,1.0,1.0,100.00
2021-03-28 17:08:15.032,0.5625861,0.0,0.72067964,0.50156826,0.70623326,0.0,0.33462363,0.424962,0.8180879,0.0,0.54429454,0.52857435,1.0707432,0.0,0.24726316,0.93425053,0.73488915,0.0,-0.24264881,0.8778675,812.71063,659.19415,833.2601,850.989,777.6557,0.1358642578125,0.2283935546875,0.96392822265625,-6.83380126953125,-8.74786376953125,39.185943603515625,1,1.0,4.0,1.0,1.0,100.00
2021-03-28 17:08:15.536,0.7694367,0.0,0.9770381,0.5251492,0.8332664,0.0,0.5952271,0.53272754,0.9477511,0.0,0.5788999,0.4473246,1.05674,0.0,0.3031095,1.004842,0.5799515,0.0,-0.2569033,0.65864545,774.0293,744.61536,798.20514,760.32965,689.81683,0.1826171875,0.089599609375,1.00091552734375,5.585174560546875,-3.8580322265625,-4.0673828125,1,1.0,4.0,1.0,1.0,100.00
2021-03-28 17:08:16.085,0.9467242,0.0,1.0348539,0.5251492,0.79219335,0.0,0.60282534,0.53272754,0.89439136,0.0,0.5206513,0.4473246,1.0360196,0.0,0.31158394,1.004842,0.60404617,0.0,-0.28193408,0.65864545,779.2674,450.4762,794.17584,747.8388,707.9487,0.196533203125,0.0870361328125,0.9727783203125,3.596343994140625,-5.562744140625,-0.179443359375,1,1.0,4.0,1.0,1.0,100.00
2021-03-28 17:08:16.600,0.9467242,0.0,0.9840285,0.5251492,0.79219335,0.0,0.52962464,0.53272754,0.89439136,0.0,0.4797958,0.4473246,1.0360196,0.0,0.27375618,1.004842,0.60404617,0.0,-0.28977603,0.65864545,738.5714,691.8315,817.1429,739.7802,636.63007,0.130126953125,0.23992919921875,0.99249267578125,15.858306884765625,7.200164794921875,-43.42529296875,1,1.0,4.0,1.0,1.0,100.00
2021-03-28 17:08:17.141,0.9467242,0.0,0.96965915,0.5251492,0.79219335,0.0,0.33644676,0.53272754,0.89439136,0.0,0.17698732,0.4473246,1.0360196,0.0,0.23826295,1.004842,0.60404617,0.0,-0.31261733,0.65864545,765.16486,544.35895,787.326,758.315,667.6557,0.00128173828125,0.26849365234375,0.9739990234375,6.841278076171875,-6.362762451171875,-4.0374755859375,1,1.0,4.0,1.0,1.0,100.00
2021-03-28 17:08:17.518,,,,,,,,,,,,,,,,,,,,,,,,,,,,,,,,,,,,,,/muse/elements/blink
2021-03-28 17:08:17.660,0.9467242,0.0,0.9128026,0.5251492,0.79219335,0.0,0.32414198,0.53272754,0.89439136,0.0,0.48211488,0.4473246,1.0360196,0.0,0.20623454,1.004842,0.60404617,0.0,-0.39478165,0.65864545,753.47986,545.56775,793.36993,758.71796,696.26373,-0.03924560546875,0.2718505859375,0.96502685546875,8.00018310546875,-3.641204833984375,-9.921722412109375,1,2.0,4.0,1.0,2.0,100.00
2021-03-28 17:08:18.125,,,,,,,,,,,,,,,,,,,,,,,,,,,,,,,,,,,,,,/muse/elements/blink
2021-03-28 17:08:18.175,0.9467242,0.0,0.8455104,0.5251492,0.79219335,0.0,0.35055298,0.53272754,0.89439136,0.0,0.5593917,0.4473246,1.0360196,0.0,0.28737417,1.004842,0.60404617,0.0,-0.49185956,0.65864545,808.68134,776.4469,804.2491,797.8022,745.0183,-0.0048828125,0.25067138671875,0.95953369140625,0.276641845703125,-7.10296630859375,5.869293212890625,1,2.0,4.0,1.0,2.0,100.00
2021-03-28 17:08:18.717,0.9467242,0.0,0.6959146,0.5251492,0.79219335,0.0,0.3012859,0.53272754,0.89439136,0.0,0.5586798,0.4473246,1.0360196,0.0,0.2241004,1.004842,0.60404617,0.0,-0.45259658,0.65864545,821.978,825.2015,801.8315,824.7985,858.6447,0.0330810546875,0.171142578125,0.9691162109375,1.951446533203125,-6.153411865234375,7.8656005859375,1,2.0,4.0,1.0,2.0,100.00
2021-03-28 17:08:19.252,0.9467242,0.0,0.66843224,0.5251492,0.79219335,0.0,0.35220364,0.53272754,0.89439136,0.0,0.56609386,0.4473246,1.0360196,0.0,0.21903144,1.004842,0.60404617,0.0,-0.3046782,0.65864545,756.30035,811.0989,797.3993,736.1539,678.5348,0.13458251953125,0.06719970703125,0.9805908203125,-3.372039794921875,-8.800201416015625,15.29754638671875,1,2.0,4.0,1.0,2.0,100.00
2021-03-28 17:08:19.798,0.9467242,0.0,0.91244566,0.5251492,0.79219335,0.0,0.6673527,0.53272754,0.89439136,0.0,0.5250033,0.4473246,1.0360196,0.0,0.17553923,1.004842,0.60404617,0.0,-0.26807722,0.65864545,778.86444,371.0989,801.02563,767.5824,633.00366,0.11529541015625,0.09912109375,0.985595703125,14.004058837890625,-1.1962890625,-21.869659423828125,1,2.0,4.0,1.0,2.0,100.00
2021-03-28 17:08:20.333,1.3040441,0.0,0.9278538,0.5251492,1.2999954,0.0,0.71255386,0.53272754,0.79551655,0.0,0.5850166,0.4473246,0.9578107,0.0,0.1566754,1.004842,0.7780059,0.0,-0.23795742,0.65864545,798.20514,983.95605,802.23444,825.6044,756.30035,0.19171142578125,-4.8828125E-4,0.93280029296875,-8.65814208984375,-22.228546142578125,20.942535400390625,1,1.0,4.0,1.0,1.0,100.00
2021-03-28 17:08:20.578,,,,,,,,,,,,,,,,,,,,,,,,,,,,,,,,,,,,,,/muse/elements/blink
2021-03-28 17:08:20.835,1.2356799,0.0,1.0478821,0.5251492,1.2741797,0.0,0.7578782,0.53272754,0.7308015,0.0,0.58560896,0.4473246,0.95259315,0.0,0.10668677,1.004842,0.8089948,0.0,-0.32736582,0.65864545,769.59705,781.28204,806.6667,740.989,652.3443,0.2342529296875,0.05126953125,0.97308349609375,6.6094970703125,-3.416900634765625,-4.882354736328125,1,1.0,4.0,1.0,1.0,100.00
2021-03-28 17:08:20.878,,,,,,,,,,,,,,,,,,,,,,,,,,,,,,,,,,,,,,/muse/elements/blink
2021-03-28 17:08:21.371,1.2356799,0.0,1.0143834,0.5251492,1.2741797,0.0,0.5725069,0.53272754,0.7308015,0.0,0.5404851,0.4473246,0.95259315,0.0,0.015526563,1.004842,0.8089948,0.0,-0.37789267,0.65864545,762.74725,519.7802,796.99634,736.55676,675.7143,0.2730712890625,-0.00103759765625,0.959716796875,3.24493408203125,-2.773895263671875,3.22998046875,1,1.0,4.0,1.0,1.0,100.00
2021-03-28 17:08:21.911,1.2356799,0.0,0.9568192,0.5251492,1.2741797,0.0,0.4345217,0.53272754,0.7308015,0.0,0.29384455,0.4473246,0.95259315,0.0,0.021184424,1.004842,0.8089948,0.0,-0.40982637,0.65864545,775.64105,803.8461,805.05493,799.81683,761.13556,0.16815185546875,0.00140380859375,1.00433349609375,1.233673095703125,7.678680419921875,-2.1533203125,1,1.0,4.0,1.0,1.0,100.00
2021-03-28 17:08:22.215,,,,,,,,,,,,,,,,,,,,,,,,,,,,,,,,,,,,,,/muse/elements/blink
2021-03-28 17:08:22.427,1.2356799,0.0,0.73804146,0.5251492,1.2741797,0.0,0.36371365,0.53272754,0.7308015,0.0,0.22347945,0.4473246,0.95259315,0.0,0.014610055,1.004842,0.8089948,0.0,-0.2396986,0.65864545,844.1392,504.8718,805.4579,832.0513,801.8315,0.12054443359375,0.131591796875,1.00531005859375,9.174041748046875,3.521575927734375,-8.73291015625,1,2.0,4.0,1.0,2.0,100.00
2021-03-28 17:08:22.947,1.2356799,0.0,0.7540147,0.5251492,1.2741797,0.0,0.6043844,0.53272754,0.7308015,0.0,0.20072019,0.4473246,0.95259315,0.0,0.0724915,1.004842,0.8089948,0.0,-0.17566116,0.65864545,756.7033,476.26373,813.1135,778.46155,762.3443,-0.0068359375,0.14068603515625,0.99139404296875,7.125396728515625,-3.970184326171875,-6.781463623046875,1,2.0,4.0,1.0,2.0,100.00
2021-03-28 17:08:23.333,,,,,,,,,,,,,,,,,,,,,,,,,,,,,,,,,,,,,,/muse/elements/blink
2021-03-28 17:08:23.455,1.2356799,0.0,0.8801559,0.5251492,1.2741797,0.0,0.81103706,0.53272754,0.7308015,0.0,0.123209134,0.4473246,0.95259315,0.0,0.09002733,1.004842,0.8089948,0.0,-0.07697028,0.65864545,783.69965,855.42126,802.23444,801.4286,726.8865,0.17999267578125,0.03607177734375,0.970947265625,1.233673095703125,-10.30303955078125,6.878662109375,1,2.0,4.0,1.0,2.0,100.00
2021-03-28 17:08:23.528,,,,,,,,,,,,,,,,,,,,,,,,,,,,,,,,,,,,,,/muse/elements/blink
2021-03-28 17:08:23.985,1.2356799,0.0,1.0291157,0.5251492,1.2741797,0.0,0.9666622,0.53272754,0.7308015,0.0,0.05258766,0.4473246,0.95259315,0.0,0.065074965,1.004842,0.8089948,0.0,-0.12493846,0.65864545,759.12085,263.51648,788.1319,735.7509,826.0073,0.18939208984375,0.05316162109375,0.98663330078125,6.47491455078125,-5.031890869140625,4.673004150390625,1,2.0,4.0,1.0,2.0,100.00
2021-03-28 17:08:24.490,1.2356799,0.0,0.48905334,0.5251492,1.2741797,0.0,0.059374075,0.53272754,0.7308015,0.0,0.21792234,0.4473246,0.95259315,0.0,0.11839345,1.004842,0.8089948,0.0,-0.1957436,0.65864545,811.0989,791.75824,797.8022,832.0513,860.65936,0.18524169921875,0.0509033203125,0.9888916015625,5.3533935546875,-4.762725830078125,1.517791748046875,1,2.0,4.0,1.0,2.0,100.00
2021-03-28 17:08:24.832,,,,,,,,,,,,,,,,,,,,,,,,,,,,,,,,,,,,,,/muse/elements/blink
2021-03-28 17:08:25.038,-0.39644974,0.0,0.30475232,0.19952095,0.23560865,0.0,0.17352708,0.42783988,0.5801987,0.0,0.22927432,0.5778544,1.1012628,0.0,0.19169478,1.2349385,0.51797825,0.0,-0.19744276,0.59059113,807.8755,816.7399,808.2784,859.0476,862.674,0.19586181640625,0.04266357421875,0.98480224609375,5.136566162109375,-4.77020263671875,-0.16448974609375,1,1.0,4.0,1.0,1.0,100.00
2021-03-28 17:08:25.158,,,,,,,,,,,,,,,,,,,,,,,,,,,,,,,,,,,,,,/muse/elements/blink
2021-03-28 17:08:25.577,-0.036041792,0.0,0.074539736,0.11004289,0.37933037,0.0,0.16226518,0.36462405,0.8954953,0.0,0.2536572,0.6616863,1.1233277,0.0,0.15647532,1.2050543,0.4184066,0.0,-0.15781735,0.4900779,747.03296,510.51282,795.78754,721.6484,709.15753,0.1875,0.05181884765625,0.982666015625,6.5496826171875,-4.583282470703125,1.30096435546875,1,1.0,4.0,1.0,1.0,100.00
2021-03-28 17:08:26.088,0.24890651,0.0,0.11421812,0.2142288,0.2830206,0.0,0.11627494,0.24378914,0.91656727,0.0,0.14639798,0.6588371,1.106397,0.0,0.20226768,1.1297396,0.44553512,0.0,-0.18832156,0.5001218,726.4835,550.0,803.44324,709.5604,624.94507,0.18865966796875,0.04534912109375,0.98211669921875,4.11224365234375,-4.972076416015625,-0.904693603515625,1,1.0,2.0,1.0,1.0,100.00
2021-03-28 17:08:26.627,0.35435867,0.0,0.12360707,0.22242701,0.23653533,0.0,-0.10156764,0.14729428,0.91656727,0.0,0.17371556,0.64315903,1.0745277,0.0,0.19498964,1.0318627,0.49064758,0.0,-0.25367227,0.5528081,788.1319,495.6044,799.41394,784.5055,820.7692,0.18377685546875,0.0526123046875,0.989501953125,5.330963134765625,-5.106658935546875,1.757049560546875,1,1.0,4.0,1.0,1.0,100.00
2021-03-28 17:08:27.141,0.387328,0.0,-0.0090630865,0.22582406,-0.16594893,0.0,-0.2604063,0.06847339,0.60892814,0.0,0.16530941,0.38712266,1.0238268,0.0,0.2039365,0.9688646,0.5847958,0.0,-0.3179961,0.63302135,727.6923,321.13553,798.20514,703.1135,724.87177,0.1959228515625,0.05548095703125,0.9871826171875,7.215118408203125,-5.046844482421875,0.171966552734375,1,1.0,4.0,1.0,1.0,100.00
2021-03-28 17:08:27.671,0.4197207,0.0,-0.021847427,0.27339336,0.09615018,0.0,-0.21915902,0.054671913,0.40983438,0.0,0.22943984,0.53180045,1.0619775,0.0,0.19447443,1.0097862,0.55404925,0.0,-0.35944316,0.6601877,786.1172,228.86447,800.2198,766.77655,741.39197,0.17535400390625,0.0810546875,0.98394775390625,7.334747314453125,-4.0972900390625,3.9776611328125,1,1.0,4.0,1.0,1.0,100.00
2021-03-28 17:08:28.210,0.48131216,0.0,-0.050135806,0.291369,0.23055926,0.0,-0.21309866,0.07932015,0.5850768,0.0,0.24335237,0.55043125,1.0555842,0.0,0.15581249,1.0223987,0.49071833,0.0,-0.28567585,0.62182045,763.1502,730.9158,802.23444,786.52014,674.10254,0.2030029296875,0.0736083984375,0.978515625,4.957122802734375,-5.585174560546875,-1.86920166015625,1,1.0,4.0,1.0,1.0,100.00
2021-03-28 17:08:28.754,0.46485975,0.0,-0.094158985,0.33763713,0.4567195,0.0,-0.2943967,0.14164567,0.64773655,0.0,0.34720328,0.56193507,1.0348605,0.0,0.14166856,1.0783173,0.5407248,0.0,-0.27023977,0.66449565,799.41394,679.7436,803.0403,807.47253,817.9487,0.193359375,0.0738525390625,0.98291015625,4.4561767578125,-6.018829345703125,0.179443359375,1,1.0,4.0,1.0,1.0,100.00
2021-03-28 17:08:29.288,0.37757164,0.0,-0.11007773,0.23746896,0.4706627,0.0,-0.388577,0.19029917,0.6565012,0.0,0.30794892,0.44291052,0.99749225,0.0,0.15011437,1.0881253,0.55023295,0.0,-0.2568987,0.62253726,819.15753,898.5348,803.8461,852.6007,795.78754,0.18280029296875,0.08392333984375,0.9852294921875,5.480499267578125,-4.18701171875,1.86920166015625,1,1.0,4.0,1.0,1.0,100.00
2021-03-28 17:08:29.833,0.3358791,0.0,0.038632713,0.2605145,0.401628,0.0,-0.5019489,0.10453655,0.59586835,0.0,0.28566742,0.34501925,0.9668133,0.0,0.22510812,1.0907038,0.6531293,0.0,-0.2947486,0.70744073,797.8022,919.4872,811.0989,831.6484,776.8498,0.18621826171875,0.0889892578125,0.9837646484375,4.38140869140625,-3.18511962890625,1.45050048828125,1,1.0,2.0,1.0,1.0,100.00
2021-03-28 17:08:30.347,0.4466045,0.0,0.008573064,0.16852239,0.29787314,0.0,-0.6227962,0.07899592,0.6682909,0.0,0.053516127,0.30714735,0.940136,0.0,0.23804694,1.0452095,0.6267966,0.0,-0.17377423,0.6767139,788.93774,769.59705,803.0403,825.2015,792.96704,0.18048095703125,0.0823974609375,0.983642578125,4.47113037109375,-3.775787353515625,-0.575714111328125,1,1.0,4.0,1.0,1.0,100.00
2021-03-28 17:08:30.866,0.43026343,0.0,-0.18072568,-0.0385009,0.23908351,0.0,-0.60570675,-0.034817576,0.6391534,0.0,0.21381295,0.4175951,0.9711921,0.0,0.20091718,1.0501533,0.61341673,0.0,-0.15049061,0.68754685,730.9158,475.8608,803.0403,721.6484,688.20514,0.16448974609375,0.089599609375,0.9896240234375,4.605712890625,-4.20196533203125,0.3887939453125,1,1.0,4.0,1.0,1.0,100.00
2021-03-28 17:08:31.408,0.55221784,0.0,-0.44138956,0.020393943,0.33056122,0.0,-0.2890861,-0.010353892,0.63387215,0.0,0.25197053,0.48372862,1.0187978,0.0,0.15512438,1.0581975,0.5211331,0.0,-0.17497107,0.60512155,788.1319,498.4249,795.38464,764.35895,694.65204,0.187744140625,0.0860595703125,0.991943359375,5.8319091796875,-6.0113525390625,2.086029052734375,1,1.0,4.0,1.0,1.0,100.00
2021-03-28 17:08:31.952,0.53106046,0.0,-0.53429055,0.11267633,0.2712466,0.0,-0.20801112,0.11878948,0.5399414,0.0,0.32950297,0.5260026,1.0897574,0.0,0.16375412,1.0990183,0.5653584,0.0,-0.25060463,0.7125266,739.3773,605.6044,800.2198,720.0366,645.09155,0.18218994140625,0.0826416015625,0.98419189453125,4.844970703125,-4.77020263671875,0.530853271484375,1,1.0,4.0,1.0,1.0,100.00
2021-03-28 17:08:32.481,0.3458301,0.0,-0.31611523,0.2626516,0.30547366,0.0,-0.10608567,0.12722138,0.57338905,0.0,0.2818695,0.66543454,1.0418857,0.0,0.18387078,1.112393,0.658779,0.0,-0.34328374,0.76584446,752.674,499.6337,785.7143,740.58606,705.9341,0.17242431640625,0.0740966796875,0.99169921875,5.256195068359375,-4.62066650390625,0.70281982421875,1,1.0,4.0,1.0,1.0,100.00
2021-03-28 17:08:33.041,0.19491771,0.0,-0.27825126,0.181543,0.25979286,0.0,-0.2439456,0.090787515,0.6088211,0.0,0.2660755,0.73261774,1.0269345,0.0,0.19107102,1.0810566,0.64971733,0.0,-0.28850836,0.8024916,763.5531,509.70697,792.1612,751.06226,678.93774,0.1593017578125,0.07818603515625,0.9886474609375,3.887939453125,-3.3197021484375,-0.059814453125,1,1.0,4.0,1.0,1.0,100.00
2021-03-28 17:08:33.579,-0.014531187,0.0,-0.14592333,0.10259009,0.15336071,0.0,-0.20927097,-0.07868549,0.61206174,0.0,0.111551985,0.72783464,0.9919821,0.0,0.17155275,1.0365535,0.63474613,0.0,-0.2730892,0.7457627,736.9597,566.52014,809.89014,703.91943,577.3993,0.1748046875,0.0855712890625,0.98516845703125,5.14404296875,-4.77020263671875,1.637420654296875,1,1.0,4.0,1.0,1.0,100.00
2021-03-28 17:08:34.129,0.07304728,0.0,-0.06935825,-0.25155768,0.13005151,0.0,-0.3071514,-0.083638854,0.8702854,0.0,0.10344804,0.67420316,0.9576396,0.0,0.23423365,1.0163084,0.62986636,0.0,-0.163879,0.7574539,799.81683,441.61172,798.60803,808.68134,738.5714,0.17138671875,0.077880859375,0.98724365234375,4.702911376953125,-4.5758056640625,0.680389404296875,1,1.0,4.0,1.0,1.0,100.00
2021-03-28 17:08:34.671,0.11884628,0.0,0.011787719,-0.072611414,0.09157204,0.0,-0.17193566,-0.06500849,0.8559104,0.0,0.09635983,0.5587048,0.93750614,0.0,0.2777854,0.99758023,0.6171786,0.0,-0.14235242,0.7517051,730.5128,598.7546,803.44324,722.0513,638.24176,0.1778564453125,0.0799560546875,0.98638916015625,4.02252197265625,-6.83380126953125,-0.800018310546875,1,1.0,4.0,1.0,1.0,100.00
2021-03-28 17:08:35.187,0.25509942,0.0,-0.019963143,0.00959664,0.18449162,0.0,-0.12631032,0.050031174,0.8462784,0.0,0.22911638,0.4232679,1.0030107,0.0,0.30694404,1.0128071,0.5095097,0.0,-0.1391746,0.6523954,769.59705,340.07327,786.52014,740.58606,654.35895,0.160888671875,0.07568359375,0.98004150390625,3.96270751953125,-4.358978271484375,0.37384033203125,1,1.0,4.0,1.0,1.0,100.00
2021-03-28 17:08:35.726,0.3882805,0.0,-0.12862478,0.20142089,0.44137266,0.0,-0.24013668,0.09966438,0.7086501,0.0,0.20102888,0.62558085,1.0101062,0.0,0.23361313,1.0350653,0.42575592,0.0,-0.200844,0.44473875,742.1978,606.8132,794.57874,788.1319,767.1795,0.17364501953125,0.0919189453125,0.98638916015625,5.15899658203125,-5.824432373046875,2.444915771484375,1,1.0,4.0,1.0,1.0,100.00
2021-03-28 17:08:36.239,0.5155292,0.0,-0.33776736,0.20022331,0.56738365,0.0,-0.3340392,0.05771238,0.58721644,0.0,0.08807794,0.6320034,1.0400535,0.0,0.15646364,1.1285394,0.43398035,0.0,-0.2917276,0.42025846,796.5934,941.2454,806.6667,839.304,849.7802,0.15960693359375,0.0858154296875,0.98651123046875,4.269256591796875,-5.203857421875,-0.1495361328125,1,1.0,4.0,1.0,1.0,100.00
2021-03-28 17:08:36.759,0.5366278,0.0,-0.15089665,0.27106237,0.7126833,0.0,-0.3179443,0.12443641,0.58721644,0.0,0.13909316,0.7396888,0.978162,0.0,0.16008696,1.1077605,0.5504973,0.0,-0.38231763,0.4772998,771.6117,709.9634,807.47253,789.34064,712.7839,0.17425537109375,0.08135986328125,0.9915771484375,5.1141357421875,-5.084228515625,0.755157470703125,1,1.0,4.0,1.0,1.0,100.00
2021-03-28 17:08:37.285,0.4096239,0.0,-0.20497286,0.143997,0.18620259,0.0,-0.17352568,0.1408838,0.52261853,0.0,0.24863476,0.6833067,1.0567118,0.0,0.1743422,1.1151946,0.49473336,0.0,-0.3033713,0.48418498,769.19415,977.50916,805.8608,803.8461,704.7253,0.174072265625,0.0845947265625,0.9886474609375,5.301055908203125,-4.74029541015625,1.218719482421875,1,1.0,4.0,1.0,1.0,100.00
2021-03-28 17:08:37.829,0.39075792,0.0,-0.03345077,0.19223684,0.34941792,0.0,0.03298583,0.38162428,0.4396839,0.0,0.45175904,0.5764292,0.96722585,0.0,0.18585862,1.0464212,0.506148,0.0,-0.2101557,0.57715964,784.90845,517.76556,798.60803,785.7143,751.4652,0.1617431640625,0.0826416015625,0.9820556640625,5.06927490234375,-4.269256591796875,1.502838134765625,1,1.0,4.0,1.0,1.0,100.00
2021-03-28 17:08:38.338,0.51490104,0.0,0.10345149,0.37162164,0.6569024,0.0,0.087476544,0.71094215,0.91518205,0.0,0.5330883,0.4732781,0.9158586,0.0,0.17028505,1.0169097,0.6186641,0.0,-0.11035114,0.72231627,753.0769,669.67035,797.3993,740.989,663.6264,0.17291259765625,0.08642578125,0.98956298828125,5.38330078125,-6.093597412109375,0.16448974609375,1,1.0,4.0,1.0,1.0,100.00
2021-03-28 17:08:38.802,,,,,,,,,,,,,,,,,,,,,,,,,,,,,,,,,,,,,,/muse/elements/jaw_clench
2021-03-28 17:08:38.883,0.43575945,0.0,0.07994086,0.4282981,0.66240555,0.0,0.04118017,0.71091837,0.99731535,0.0,0.56740844,0.7241733,0.92757326,0.0,0.1678843,1.0885329,0.60590446,0.0,-0.15893883,0.7059123,806.6667,773.22345,796.5934,824.3956,809.89014,0.16766357421875,0.083251953125,0.98614501953125,5.061798095703125,-4.80010986328125,0.85235595703125,1,1.0,4.0,1.0,1.0,100.00
2021-03-28 17:08:39.401,0.42583933,0.0,-0.07025878,0.32842615,0.5383899,0.0,-0.13661364,0.7033204,0.99731535,0.0,0.5498534,0.7538937,0.9682984,0.0,0.12712732,1.1153392,0.49895188,0.0,-0.29607987,0.5353115,849.3773,130.14651,801.8315,882.8205,1116.9231,0.1634521484375,0.08563232421875,0.98797607421875,3.805694580078125,-4.927215576171875,-0.478515625,1,1.0,4.0,1.0,1.0,100.00
2021-03-28 17:08:39.911,0.26556456,0.0,-0.19156677,0.05834957,0.30435976,0.0,-0.17052756,0.4500024,0.88875914,0.0,0.44799846,0.74634516,0.96205884,0.0,0.07649291,1.1167924,0.41666073,0.0,-0.3594146,0.45576134,750.2564,823.5897,810.696,741.39197,682.5641,0.1785888671875,0.083984375,0.98614501953125,5.06927490234375,-5.81695556640625,1.2860107421875,1,1.0,4.0,1.0,1.0,100.00
2021-03-28 17:08:40.448,0.3619138,0.0,-0.08449606,-0.06810746,0.3541549,0.0,-0.09641525,0.49894184,0.7986233,0.0,-0.039130643,0.5152641,0.8640505,0.0,0.13403687,1.0203165,0.44884598,0.0,-0.25990632,0.5248297,775.64105,300.5861,793.36993,744.61536,672.0879,0.173828125,0.0819091796875,0.98822021484375,5.27862548828125,-4.68048095703125,0.76263427734375,1,1.0,4.0,1.0,1.0,100.00
2021-03-28 17:08:40.957,0.51576996,0.0,0.024267994,0.33319658,0.34878197,0.0,0.0503723,0.34538767,0.8522468,0.0,-0.14968833,0.67278326,0.87711006,0.0,0.21812066,0.9507125,0.6162794,0.0,-0.21431649,0.861627,742.1978,560.4762,792.96704,715.6044,634.21246,0.17010498046875,0.08843994140625,0.9930419921875,4.9945068359375,-4.26177978515625,0.366363525390625,1,1.0,4.0,1.0,1.0,100.00
2021-03-28 17:08:41.474,0.5192064,0.0,0.048242144,0.33850178,0.20522928,0.0,-0.009467043,0.23254618,0.8505528,0.0,-0.13678266,0.6709096,0.86358577,0.0,0.18080702,0.9790514,0.66774267,0.0,-0.21839926,0.9159713,772.4176,615.6777,791.3553,766.77655,674.5055,0.172607421875,0.07928466796875,0.98602294921875,4.508514404296875,-5.540313720703125,1.435546875,1,1.0,4.0,1.0,1.0,100.00
2021-03-28 17:08:42.000,0.433523,0.0,0.042823225,0.18328556,0.090365626,0.0,0.0029881333,0.17854744,0.7247328,0.0,-0.034194782,0.6709096,0.87542886,0.0,0.07273116,0.99825084,0.69270074,0.0,-0.3307769,0.8447499,830.0366,747.4359,800.6227,854.61536,821.978,0.1778564453125,0.0865478515625,0.98779296875,4.5458984375,-5.375823974609375,0.530853271484375,1,1.0,4.0,1.0,1.0,100.00
2021-03-28 17:08:42.482,,,,,,,,,,,,,,,,,,,,,,,,,,,,,,,,,,,,,,/muse/elements/jaw_clench
2021-03-28 17:08:42.537,0.34150943,0.0,-0.085302494,-0.09944617,0.095427774,0.0,-0.06492254,-0.0730501,0.6743453,0.0,0.009148126,0.5343599,0.8856472,0.0,0.012846825,1.0162829,0.5937846,0.0,-0.2928999,0.6598082,795.38464,772.8205,798.60803,814.3223,812.3077,0.166259765625,0.07843017578125,0.98529052734375,4.314117431640625,-6.0711669921875,0.231781005859375,1,1.0,4.0,1.0,1.0,100.00
2021-03-28 17:08:43.065,0.32876617,0.0,-0.09789833,-0.07903357,0.16943987,0.0,-0.0017051592,0.021771425,0.65435475,0.0,0.057340298,0.5559556,0.9466035,0.0,0.076989956,1.0349276,0.5474335,0.0,-0.18802889,0.6239044,807.47253,871.53845,809.89014,856.63007,855.82416,0.2178955078125,0.0577392578125,0.982421875,8.381500244140625,-10.5572509765625,3.768310546875,1,1.0,4.0,1.0,1.0,100.00
2021-03-28 17:08:43.584,0.41743448,0.0,-0.014543417,-0.014035993,0.40881124,0.0,-0.10486639,-0.06817644,0.66186094,0.0,0.119191684,0.57999533,0.97130483,0.0,0.15935382,1.0444326,0.47713488,0.0,-0.18418173,0.59875953,780.87915,726.4835,803.8461,778.46155,740.18317,0.23828125,0.10333251953125,0.97857666015625,7.394561767578125,-5.27862548828125,2.5421142578125,1,1.0,4.0,1.0,1.0,100.00
2021-03-28 17:08:44.126,0.34153756,0.0,-0.024657777,-0.011075701,0.43385828,0.0,-0.06812185,-0.0868011,0.45397502,0.0,0.15845735,0.6296921,0.9125695,0.0,0.2426243,1.0303292,0.44143033,0.0,-0.2643957,0.5784104,768.7912,873.95605,805.05493,801.8315,761.53845,0.23193359375,0.11572265625,0.974609375,4.17205810546875,-4.553375244140625,-0.575714111328125,1,1.0,4.0,1.0,1.0,100.00
2021-03-28 17:08:44.326,,,,,,,,,,,,,,,,,,,,,,,,,,,,,,,,,,,,,,/muse/elements/jaw_clench
2021-03-28 17:08:44.667,0.3302966,0.0,-0.10127928,0.035823826,0.41460955,0.0,-0.15612598,0.07873301,0.38564336,0.0,0.13709553,0.632067,0.9460025,0.0,0.22280566,1.0668795,0.375731,0.0,-0.36420798,0.5187121,753.47986,617.6923,803.0403,738.1685,668.46155,0.23394775390625,0.12078857421875,0.97601318359375,5.084228515625,-4.239349365234375,0.179443359375,1,1.0,4.0,1.0,1.0,100.00
2021-03-28 17:08:45.195,0.12695336,0.0,-0.07004885,0.15016985,0.2954195,0.0,-0.18100356,0.09772613,0.5055978,0.0,0.1470194,0.62337196,0.95336455,0.0,0.17022175,1.0805242,0.36051878,0.0,-0.24526289,0.49812806,992.01465,537.1062,749.0476,969.85345,712.381,0.2110595703125,0.12255859375,0.97198486328125,4.029998779296875,-3.536529541015625,-0.04486083984375,1,1.0,4.0,1.0,1.0,100.00
2021-03-28 17:08:45.233,,,,,,,,,,,,,,,,,,,,,,,,,,,,,,,,,,,,,,/muse/elements/blink
2021-03-28 17:08:45.723,-0.0035922544,0.0,0.039220292,0.13752033,0.29333434,0.0,-0.3401233,0.15398555,0.49633846,0.0,0.06911608,0.5282614,0.9717545,0.0,0.06920862,1.1151841,0.34521654,0.0,-0.19236962,0.50655925,763.5531,430.32968,791.75824,740.58606,671.685,0.19952392578125,0.10791015625,0.97515869140625,4.9346923828125,-4.47113037109375,-0.142059326171875,1,1.0,4.0,1.0,1.0,100.00
2021-03-28 17:08:46.073,,,,,,,,,,,,,,,,,,,,,,,,,,,,,,,,,,,,,,/muse/elements/jaw_clench
2021-03-28 17:08:46.252,,,,,,,,,,,,,,,,,,,,,,,,,,,,,,,,,,,,,,/muse/elements/jaw_clench
2021-03-28 17:08:46.258,-0.40216985,0.0,0.09211572,0.25738925,0.19746223,0.0,-0.37153333,-0.07477501,0.4780782,0.0,-0.018350294,0.37738872,0.91536343,0.0,-0.005466299,1.0634404,0.29995117,0.0,-0.13016497,0.46580288,784.5055,583.8461,799.011,799.81683,800.2198,0.21331787109375,0.11199951171875,0.96746826171875,4.65057373046875,-5.016937255859375,0.844879150390625,1,1.0,4.0,1.0,1.0,100.00
2021-03-28 17:08:46.496,,,,,,,,,,,,,,,,,,,,,,,,,,,,,,,,,,,,,,/muse/elements/jaw_clench
2021-03-28 17:08:46.767,-0.40216985,0.0,-0.46352082,0.25738925,0.19746223,0.0,-0.37355,-0.07477501,0.4780782,0.0,0.044988096,0.37738872,0.91536343,0.0,0.24812262,1.0634404,0.29995117,0.0,-0.20672104,0.46580288,827.619,550.80585,800.6227,863.8828,935.2015,0.20849609375,0.11962890625,0.9818115234375,4.613189697265625,-4.314117431640625,3.372039794921875,1,1.0,4.0,1.0,1.0,100.00
2021-03-28 17:08:47.277,0.29086587,0.0,-0.1427045,0.58092016,-0.06581438,0.0,-0.103736825,0.19983086,0.46861088,0.0,0.048327167,0.34577456,0.9883752,0.0,0.18376489,1.014169,0.42174864,0.0,-0.2406931,0.46030632,769.59705,398.9011,800.6227,752.674,692.23444,0.2471923828125,0.09588623046875,0.97039794921875,3.102874755859375,-7.140350341796875,-1.2860107421875,1,1.0,4.0,1.0,1.0,100.00
2021-03-28 17:08:47.631,,,,,,,,,,,,,,,,,,,,,,,,,,,,,,,,,,,,,,/muse/elements/jaw_clench
2021-03-28 17:08:47.794,0.41303983,0.0,-0.19283874,0.4803428,-0.0714572,0.0,-0.17346117,0.2282536,0.5377645,0.0,0.10274783,0.41057643,0.9355686,0.0,0.15377986,0.9686758,0.38079554,0.0,-0.2704137,0.46999058,730.5128,630.989,802.6374,705.12823,566.9231,0.2342529296875,0.115234375,0.97247314453125,4.71038818359375,-6.639404296875,0.441131591796875,1,1.0,4.0,1.0,1.0,100.00
2021-03-28 17:08:48.313,0.37839442,0.0,-0.20295157,0.33622947,-0.15028265,0.0,-0.09909911,0.31913766,0.5623958,0.0,0.16840734,0.59947515,0.93118536,0.0,0.08777032,0.96549743,0.47041196,0.0,-0.2572932,0.5878329,771.2088,481.0989,790.54944,790.54944,697.47253,0.217529296875,0.10205078125,0.9666748046875,1.86920166015625,-4.66552734375,-2.175750732421875,1,1.0,4.0,1.0,1.0,100.00
2021-03-28 17:08:48.844,0.27720875,0.0,-0.54119503,0.1651417,-0.12847693,0.0,-0.1402242,0.36518094,0.503673,0.0,0.15160893,0.6471332,0.951594,0.0,0.123635374,1.0035747,0.44074422,0.0,-0.25546977,0.56871545,812.3077,547.1795,807.8755,844.1392,919.0842,0.2373046875,0.101806640625,0.95794677734375,6.228179931640625,-1.60003662109375,3.45428466796875,1,1.0,4.0,1.0,1.0,100.00
2021-03-28 17:08:49.224,,,,,,,,,,,,,,,,,,,,,,,,,,,,,,,,,,,,,,/muse/elements/jaw_clench
2021-03-28 17:08:49.351,0.14370772,0.0,-0.42572823,0.121434644,-0.10544627,0.0,-0.10828221,0.31111532,0.36790118,0.0,0.17347872,0.67404735,0.95917,0.0,0.13368018,1.0338339,0.39858577,0.0,-0.2645772,0.5502255,776.04395,926.337,809.89014,799.41394,707.5458,0.23590087890625,0.111572265625,0.97210693359375,5.031890869140625,-5.585174560546875,0.889739990234375,1,1.0,4.0,1.0,1.0,100.00
2021-03-28 17:08:49.537,,,,,,,,,,,,,,,,,,,,,,,,,,,,,,,,,,,,,,/muse/elements/jaw_clench
2021-03-28 17:08:49.856,0.14370985,0.0,-0.27247432,0.1174136,0.04087129,0.0,-0.12556586,0.09545215,0.296403,0.0,0.040273994,0.61797875,0.9238444,0.0,0.17231876,0.9930619,0.28714758,0.0,-0.303292,0.5032016,791.3553,576.1905,801.02563,810.696,747.4359,0.23455810546875,0.1104736328125,0.968017578125,4.8748779296875,-4.538421630859375,0.949554443359375,1,1.0,4.0,1.0,1.0,100.00
2021-03-28 17:08:50.372,0.24137484,0.0,-0.18403327,0.14122519,0.27795023,0.0,-0.20703253,0.02738123,0.31205755,0.0,-0.046066124,0.59782803,0.8932027,0.0,0.15549086,0.9358803,0.45192432,0.0,-0.24802507,0.6403276,632.6007,632.6007,778.46155,616.8865,682.1612,0.0865478515625,0.13104248046875,0.95526123046875,19.806060791015625,0.770111083984375,-53.406829833984375,1,1.0,4.0,1.0,1.0,100.00
2021-03-28 17:08:50.694,,,,,,,,,,,,,,,,,,,,,,,,,,,,,,,,,,,,,,/muse/elements/blink
2021-03-28 17:08:50.916,0.2550318,0.0,0.37874126,0.14691804,0.3771851,0.0,0.068961844,0.0081873685,0.23228829,0.0,-0.034674846,0.53488827,0.88930637,0.0,0.18534186,0.89934605,0.5592778,0.0,-0.1894276,0.72156715,846.9597,738.97437,801.8315,838.49817,813.91943,0.024169921875,0.36578369140625,0.933837890625,6.347808837890625,-4.329071044921875,7.364654541015625,1,1.0,4.0,1.0,1.0,100.00
2021-03-28 17:08:51.430,0.3696672,0.0,0.51714665,0.23702976,0.53194726,0.0,0.15536723,0.08789795,0.11116774,0.0,-0.03514763,0.42124757,0.9023728,0.0,0.18292302,0.9417557,0.6954479,0.0,-0.14850031,0.8091859,803.0403,936.0073,788.93774,817.5458,772.8205,0.1446533203125,0.1435546875,0.9478759765625,2.818756103515625,-0.127105712890625,16.07513427734375,1,1.0,4.0,1.0,1.0,100.00
2021-03-28 17:08:51.541,,,,,,,,,,,,,,,,,,,,,,,,,,,,,,,,,,,,,,/muse/elements/jaw_clench
2021-03-28 17:08:51.936,0.44321185,0.0,0.82845694,0.2898242,0.5450333,0.0,0.4081662,0.10521236,0.1111176,0.0,-0.17911778,0.41317093,0.9317008,0.0,0.25690284,0.9614113,0.67184854,0.0,-0.13514271,0.77473944,753.47986,786.52014,805.05493,730.9158,632.1978,0.2119140625,0.1690673828125,0.96685791015625,4.725341796875,-5.63751220703125,-0.40374755859375,1,1.0,4.0,1.0,1.0,100.00
2021-03-28 17:08:52.461,0.44321185,0.0,0.82845694,0.2898242,0.5450333,0.0,0.4081662,0.10521236,0.1111176,0.0,-0.17911778,0.41317093,0.9317008,0.0,0.25690284,0.9614113,0.67184854,0.0,-0.13514271,0.77473944,763.5531,481.90475,788.93774,758.315,654.35895,0.21075439453125,0.159423828125,0.97283935546875,5.03936767578125,-4.2767333984375,0.844879150390625,1,1.0,4.0,1.0,1.0,100.00
2021-03-28 17:08:52.954,,,,,,,,,,,,,,,,,,,,,,,,,,,,,,,,,,,,,,/muse/elements/jaw_clench
2021-03-28 17:08:52.995,0.23186602,0.0,0.043783415,-0.05972336,-0.0542112,0.0,0.054183498,0.3776772,0.4066547,0.0,-0.0562784,0.440339,0.9669473,0.0,0.1886349,1.0086734,0.30957332,0.0,-0.37542042,0.3081907,747.8388,700.293,799.41394,723.2601,682.5641,0.21368408203125,0.15679931640625,0.9703369140625,4.792633056640625,-5.360870361328125,0.785064697265625,1,1.0,4.0,1.0,1.0,100.00
2021-03-28 17:08:53.198,,,,,,,,,,,,,,,,,,,,,,,,,,,,,,,,,,,,,,/muse/elements/jaw_clench
2021-03-28 17:08:53.499,0.20433189,0.0,0.039760336,-0.062083285,0.0881419,0.0,0.024896866,0.2670993,0.4427042,0.0,0.016022706,0.45541033,0.9392838,0.0,0.14714572,1.0010868,0.35432938,0.0,-0.3686363,0.39653477,819.9634,774.0293,803.0403,846.1539,847.76556,0.2100830078125,0.1475830078125,0.97564697265625,2.325286865234375,-4.77020263671875,2.026214599609375,1,1.0,4.0,1.0,1.0,100.00
2021-03-28 17:08:53.853,,,,,,,,,,,,,,,,,,,,,,,,,,,,,,,,,,,,,,/muse/elements/jaw_clench
2021-03-28 17:08:54.022,0.10406929,0.0,-0.05006804,-0.1408456,0.054804463,0.0,-0.019587303,0.24068573,0.47852477,0.0,0.06941487,0.47079468,0.9670767,0.0,0.11036611,1.0064844,0.3592456,0.0,-0.35776132,0.4032018,784.10254,432.74725,798.60803,783.2967,809.89014,0.20220947265625,0.1199951171875,0.9764404296875,4.463653564453125,-4.964599609375,2.01873779296875,1,1.0,4.0,1.0,1.0,100.00
2021-03-28 17:08:54.318,,,,,,,,,,,,,,,,,,,,,,,,,,,,,,,,,,,,,,/muse/elements/jaw_clench
2021-03-28 17:08:54.519,,,,,,,,,,,,,,,,,,,,,,,,,,,,,,,,,,,,,,/muse/elements/jaw_clench
2021-03-28 17:08:54.525,0.052900907,0.0,-0.10515803,-0.25751135,0.06555124,0.0,-0.11693163,0.09005832,0.4656409,0.0,0.20441878,0.39450845,0.95943415,0.0,0.059028268,0.99471587,0.3534886,0.0,-0.34400123,0.42236963,738.5714,529.85345,800.6227,711.5751,596.7399,0.19891357421875,0.12548828125,0.97650146484375,5.256195068359375,-4.47113037109375,1.966400146484375,1,1.0,4.0,1.0,1.0,100.00
2021-03-28 17:08:54.920,,,,,,,,,,,,,,,,,,,,,,,,,,,,,,,,,,,,,,/muse/elements/jaw_clench
2021-03-28 17:08:55.066,0.52040225,0.0,-0.17771237,-0.268822,0.4113043,0.0,0.004007653,0.22580013,0.5664414,0.0,0.35339528,0.39682272,0.98192847,0.0,0.06411792,1.0051501,0.35964516,0.0,-0.28858086,0.4356315,798.20514,188.57143,799.81683,755.4945,628.97437,0.18841552734375,0.11016845703125,0.97119140625,5.86181640625,-2.87109375,2.115936279296875,1,1.0,4.0,1.0,1.0,100.00
2021-03-28 17:08:55.297,,,,,,,,,,,,,,,,,,,,,,,,,,,,,,,,,,,,,,/muse/elements/jaw_clench
2021-03-28 17:08:55.569,0.66896194,0.0,-0.0011998228,0.07598257,0.53025824,0.0,0.036976416,0.21981622,0.55852604,0.0,0.35423067,0.3962961,0.9627963,0.0,0.10163514,0.99483746,0.3549354,0.0,-0.29501304,0.5149748,774.0293,360.2198,791.75824,753.8828,683.7729,0.1953125,0.11236572265625,0.982421875,4.972076416015625,-4.792633056640625,1.323394775390625,1,1.0,4.0,1.0,1.0,100.00
2021-03-28 17:08:56.082,0.85711366,0.0,0.023185814,0.27766606,0.694423,0.0,0.020828562,0.26719403,0.54633474,0.0,0.2528009,0.49621004,0.98088115,0.0,0.11529116,1.0138063,0.38873306,0.0,-0.278306,0.5398749,805.4579,875.56775,804.65204,809.4872,786.52014,0.19140625,0.10498046875,0.97802734375,4.942169189453125,-5.585174560546875,1.06170654296875,1,1.0,4.0,1.0,1.0,100.00
2021-03-28 17:08:56.611,0.3863426,0.0,0.113665074,0.27051538,0.2768078,0.0,-0.09706008,0.04410097,0.45314363,0.0,-0.1738287,0.5667622,1.0170858,0.0,0.16533783,0.96591824,0.3186192,0.0,-0.31333223,0.51650333,816.337,787.326,815.9341,842.1245,853.8095,0.19256591796875,0.10479736328125,0.9825439453125,4.673004150390625,-4.83001708984375,0.067291259765625,1,1.0,4.0,1.0,1.0,100.00
2021-03-28 17:08:56.931,,,,,,,,,,,,,,,,,,,,,,,,,,,,,,,,,,,,,,/muse/elements/jaw_clench
2021-03-28 17:08:57.153,0.26554012,0.0,-0.012721568,0.055449396,0.21654163,0.0,-0.08580659,-0.044139482,0.5396058,0.0,-0.12185246,0.55395675,1.0090697,0.0,0.16657738,0.9986818,0.38782543,0.0,-0.24720515,0.49086115,764.7619,700.696,800.6227,738.5714,724.0659,0.19061279296875,0.1041259765625,0.983154296875,4.673004150390625,-4.23187255859375,0.306549072265625,1,1.0,4.0,1.0,1.0,100.00
2021-03-28 17:08:57.683,0.17396848,0.0,-0.07980431,0.017664982,0.32352877,0.0,-0.16373284,0.09752536,0.6026517,0.0,0.31282458,0.72189105,0.9677883,0.0,0.15956536,0.94871426,0.37968776,0.0,-0.2623831,0.5228049,775.2381,527.4359,807.47253,749.85345,623.73627,0.1968994140625,0.108642578125,0.9813232421875,5.615081787109375,-4.837493896484375,0.994415283203125,1,1.0,4.0,1.0,1.0,100.00
2021-03-28 17:08:58.201,0.009097479,0.0,-0.2666442,0.16044945,0.3446577,0.0,-0.25002882,0.33353847,0.721379,0.0,0.3058153,0.84836876,0.87069094,0.0,0.08501984,0.96148634,0.39400187,0.0,-0.29418144,0.5122877,810.696,647.1062,798.20514,807.47253,784.90845,0.188232421875,0.11065673828125,0.98138427734375,5.09918212890625,-4.673004150390625,1.42059326171875,1,1.0,4.0,1.0,1.0,100.00
2021-03-28 17:08:58.329,,,,,,,,,,,,,,,,,,,,,,,,,,,,,,,,,,,,,,/muse/elements/jaw_clench
2021-03-28 17:08:58.622,,,,,,,,,,,,,,,,,,,,,,,,,,,,,,,,,,,,,,/muse/elements/jaw_clench
2021-03-28 17:08:58.745,0.14223948,0.0,-0.27803427,0.30926564,0.58248067,0.0,-0.36690077,0.58770144,1.0354563,0.0,0.32925746,0.9559858,0.8184078,0.0,0.10453322,0.94443583,0.44882345,0.0,-0.31665674,0.6040251,805.4579,1023.8461,810.696,846.1539,767.5824,0.194091796875,0.1048583984375,0.98602294921875,5.15899658203125,-4.486083984375,0.904693603515625,1,1.0,4.0,1.0,1.0,100.00
2021-03-28 17:08:59.261,0.3150534,0.0,-0.44245943,0.3709848,0.6995515,0.0,-0.36041686,0.6405732,1.0188273,0.0,0.1648821,0.9432283,0.80983764,0.0,0.15385085,0.9436605,0.42453465,0.0,-0.36510402,0.5979642,822.381,801.02563,801.8315,840.9158,908.20514,0.19342041015625,0.10784912109375,0.9805908203125,4.7552490234375,-4.687957763671875,1.383209228515625,1,1.0,4.0,1.0,1.0,100.00
2021-03-28 17:08:59.818,0.31778535,0.0,-0.14079976,0.32494384,0.74834126,0.0,-0.34116971,0.58597314,0.99819285,0.0,0.062198427,0.96757805,0.86603147,0.0,0.28048235,0.9236492,0.3211141,0.0,-0.39505965,0.5444341,786.9231,630.58606,805.8608,795.78754,776.8498,0.19476318359375,0.09747314453125,0.9835205078125,4.50103759765625,-4.747772216796875,0.979461669921875,1,1.0,4.0,1.0,1.0,100.00
2021-03-28 17:09:00.125,,,,,,,,,,,,,,,,,,,,,,,,,,,,,,,,,,,,,,/muse/elements/jaw_clench
2021-03-28 17:09:00.358,0.23479368,0.0,-0.055713236,0.17259036,0.6650345,0.0,-0.039063934,0.40072206,1.0139138,0.0,0.32286528,0.82962304,0.8943003,0.0,0.30354333,0.9317343,0.13510631,0.0,-0.47864124,0.3631507,822.381,888.46155,805.8608,856.2271,828.022,0.20184326171875,0.09051513671875,0.9771728515625,2.340240478515625,-5.36834716796875,-0.7177734375,1,1.0,4.0,1.0,1.0,100.00
2021-03-28 17:09:00.395,,,,,,,,,,,,,,,,,,,,,,,,,,,,,,,,,,,,,,/muse/elements/jaw_clench
2021-03-28 17:09:00.852,,,,,,,,,,,,,,,,,,,,,,,,,,,,,,,,,,,,,,/muse/elements/jaw_clench
2021-03-28 17:09:00.906,0.07961715,0.0,-0.022351785,-0.09096169,0.5003723,0.0,0.102069125,0.2831297,0.8168805,0.0,0.41357478,0.7497699,0.9090061,0.0,0.2787262,0.9705981,0.108113624,0.0,-0.3817771,0.30706775,806.6667,551.6117,806.26373,835.6777,934.7985,0.2137451171875,0.06591796875,0.979248046875,3.2598876953125,-5.301055908203125,-0.575714111328125,1,1.0,4.0,1.0,1.0,100.00
2021-03-28 17:09:01.431,0.17233427,0.0,-0.08539043,0.2664458,0.3097893,0.0,0.06389162,0.07500904,0.7102812,0.0,0.41960564,0.6815664,0.87871814,0.0,0.20686588,0.9686224,0.094953634,0.0,-0.29712754,0.3618489,813.91943,924.3223,808.2784,821.1722,695.4579,0.20977783203125,0.07196044921875,0.9849853515625,6.317901611328125,-5.286102294921875,1.353302001953125,1,1.0,4.0,1.0,1.0,100.00
2021-03-28 17:09:01.707,,,,,,,,,,,,,,,,,,,,,,,,,,,,,,,,,,,,,,/muse/elements/jaw_clench
2021-03-28 17:09:01.937,0.18414024,0.0,-0.092984706,0.38953868,0.3551791,0.0,0.08173335,0.118536174,0.45273012,0.0,0.4175956,0.42235357,0.8504325,0.0,0.1441707,0.9365034,0.14303507,0.0,-0.24745323,0.4561822,815.9341,819.9634,807.0696,832.8571,847.3626,0.20025634765625,0.082763671875,0.98236083984375,5.031890869140625,-4.972076416015625,1.009368896484375,1,1.0,4.0,1.0,1.0,100.00
2021-03-28 17:09:02.079,,,,,,,,,,,,,,,,,,,,,,,,,,,,,,,,,,,,,,/muse/elements/jaw_clench
2021-03-28 17:09:02.481,0.23014252,0.0,-0.091760196,0.4378588,0.37940457,0.0,0.100304104,0.11200967,0.43571833,0.0,0.18628749,0.6969336,0.7642443,0.0,0.052979574,0.87373453,0.25181082,0.0,-0.26253954,0.56151056,773.6264,643.47986,799.81683,754.2857,620.9158,0.2115478515625,0.0802001953125,0.98284912109375,5.4132080078125,-5.061798095703125,1.31591796875,1,1.0,4.0,1.0,1.0,100.00
2021-03-28 17:09:02.558,,,,,,,,,,,,,,,,,,,,,,,,,,,,,,,,,,,,,,/muse/elements/jaw_clench
2021-03-28 17:09:02.711,,,,,,,,,,,,,,,,,,,,,,,,,,,,,,,,,,,,,,/muse/elements/jaw_clench
2021-03-28 17:09:03.026,0.24319251,0.0,0.15133335,0.17231157,0.37230617,0.0,0.20613055,0.17718956,0.4064836,0.0,0.4827244,0.85188997,0.7572632,0.0,-0.045228552,0.91629297,0.33784187,0.0,-0.15792985,0.5889319,823.5897,717.2161,801.02563,833.2601,815.9341,0.1966552734375,0.07373046875,0.9755859375,4.269256591796875,-5.682373046875,1.00189208984375,1,1.0,4.0,1.0,1.0,100.00
2021-03-28 17:09:03.550,,,,,,,,,,,,,,,,,,,,,,,,,,,,,,,,,,,,,,/muse/elements/jaw_clench
2021-03-28 17:09:03.554,0.40761444,0.0,0.15010242,0.09278781,0.17429473,0.0,0.03406258,0.09685108,0.38963294,0.0,0.47965333,0.85574454,0.7582482,0.0,-0.004789347,0.9709287,0.35388157,0.0,-0.1939446,0.49817672,748.6447,764.7619,803.8461,722.4542,642.674,0.200927734375,0.072998046875,0.97247314453125,4.284210205078125,-3.66363525390625,0.874786376953125,1,1.0,4.0,1.0,1.0,100.00
2021-03-28 17:09:04.096,0.48686808,0.0,0.18210612,0.19298327,0.2554759,0.0,0.020828076,0.19018286,0.87478477,0.0,0.49351707,0.8607022,0.83419603,0.0,0.014886923,1.0290707,0.3292529,0.0,-0.210441,0.4039406,825.6044,768.7912,803.44324,869.5238,832.4542,0.208984375,0.073486328125,0.97735595703125,5.263671875,-5.2337646484375,0.3289794921875,1,1.0,4.0,1.0,1.0,100.00
2021-03-28 17:09:04.621,0.48761168,0.0,0.028631764,0.3359227,0.36009264,0.0,-0.10010167,0.26960364,0.95721585,0.0,0.25013253,0.65337247,0.9060114,0.0,0.06764651,1.053757,0.30723602,0.0,-0.33353862,0.4143681,808.68134,783.2967,801.4286,823.9927,796.5934,0.21478271484375,0.07684326171875,0.974853515625,5.570220947265625,-5.7720947265625,1.9439697265625,1,1.0,4.0,1.0,1.0,100.00
2021-03-28 17:09:04.815,,,,,,,,,,,,,,,,,,,,,,,,,,,,,,,,,,,,,,/muse/elements/jaw_clench
2021-03-28 17:09:05.049,,,,,,,,,,,,,,,,,,,,,,,,,,,,,,,,,,,,,,/muse/elements/jaw_clench
2021-03-28 17:09:05.166,0.5105475,0.0,0.08567188,0.37937528,0.3967745,0.0,0.017776709,0.4330803,0.96664804,0.0,0.30474615,0.6674733,0.90759736,0.0,0.04251712,1.0077271,0.34877083,0.0,-0.24976894,0.5174445,787.326,751.06226,806.6667,801.8315,751.06226,0.21624755859375,0.0889892578125,0.9844970703125,6.44500732421875,-4.44122314453125,1.966400146484375,1,1.0,4.0,1.0,1.0,100.00
2021-03-28 17:09:05.466,,,,,,,,,,,,,,,,,,,,,,,,,,,,,,,,,,,,,,/muse/elements/jaw_clench
2021-03-28 17:09:05.684,,,,,,,,,,,,,,,,,,,,,,,,,,,,,,,,,,,,,,/muse/elements/jaw_clench
2021-03-28 17:09:05.688,0.5336678,0.0,-0.009206068,0.44389242,0.44527,0.0,-0.030132229,0.4358668,0.7621898,0.0,0.32582122,0.6502996,0.8454729,0.0,0.07349838,0.90668905,0.34401932,0.0,-0.2922643,0.51503193,815.12823,722.4542,808.2784,852.1978,847.3626,0.25128173828125,0.1014404296875,0.96844482421875,11.6339111328125,-8.067474365234375,7.125396728515625,1,1.0,4.0,1.0,1.0,100.00
2021-03-28 17:09:06.189,,,,,,,,,,,,,,,,,,,,,,,,,,,,,,,,,,,,,,/muse/elements/jaw_clench
2021-03-28 17:09:06.194,0.56139034,0.0,-0.048409704,0.4621106,0.53975916,0.0,0.029818999,0.41511896,0.7336126,0.0,0.3280559,0.64209276,0.83253604,0.0,0.12777229,0.84706736,0.35260928,0.0,-0.2883999,0.4700011,801.02563,960.58606,805.8608,795.78754,709.9634,0.25537109375,0.082275390625,0.9783935546875,7.0281982421875,-8.366546630859375,-0.28411865234375,1,1.0,4.0,1.0,1.0,100.00
2021-03-28 17:09:06.522,,,,,,,,,,,,,,,,,,,,,,,,,,,,,,,,,,,,,,/muse/elements/jaw_clench
2021-03-28 17:09:06.665,,,,,,,,,,,,,,,,,,,,,,,,,,,,,,,,,,,,,,/muse/elements/blink
2021-03-28 17:09:06.701,0.4787387,0.0,-0.034103505,0.49444836,0.60783404,0.0,-0.04265781,0.35846168,0.79586154,0.0,0.2771412,0.66539526,0.8310124,0.0,0.14641692,0.828732,0.28616238,0.0,-0.31820172,0.37566298,821.5751,799.81683,815.9341,846.9597,806.6667,0.2161865234375,0.156982421875,0.9637451171875,10.72174072265625,-4.246826171875,-43.42529296875,1,1.0,4.0,1.0,1.0,100.00
2021-03-28 17:09:06.774,,,,,,,,,,,,,,,,,,,,,,,,,,,,,,,,,,,,,,/muse/elements/jaw_clench
2021-03-28 17:09:07.068,,,,,,,,,,,,,,,,,,,,,,,,,,,,,,,,,,,,,,/muse/elements/jaw_clench
2021-03-28 17:09:07.240,0.46391094,0.0,0.56694055,0.51728207,0.6041272,0.0,0.12477698,0.36377323,0.78285635,0.0,0.22830154,0.6285691,0.8968169,0.0,0.1989225,0.8779683,0.2098659,0.0,-0.32039124,0.26349646,761.9414,589.89014,797.8022,743.4066,742.6007,0.28143310546875,0.2196044921875,0.93231201171875,6.856231689453125,-11.60400390625,3.768310546875,1,1.0,4.0,1.0,1.0,100.00
2021-03-28 17:09:07.525,,,,,,,,,,,,,,,,,,,,,,,,,,,,,,,,,,,,,,/muse/elements/blink
2021-03-28 17:09:07.753,0.49566758,0.0,0.7259368,0.56942785,0.5506668,0.0,0.13603114,0.4070396,0.7742429,0.0,0.3594145,0.5029231,0.9117238,0.0,0.31614506,0.8613187,0.009855003,0.0,-0.36070356,0.047743067,788.5348,766.77655,798.60803,755.89746,695.4579,0.23291015625,0.1612548828125,0.95782470703125,-7.22259521484375,3.3795166015625,-3.96270751953125,1,1.0,4.0,1.0,1.0,100.00
2021-03-28 17:09:08.104,,,,,,,,,,,,,,,,,,,,,,,,,,,,,,,,,,,,,,/muse/elements/jaw_clench
2021-03-28 17:09:08.292,0.49566758,0.0,0.7769467,0.56942785,0.5506668,0.0,0.2163222,0.4070396,0.7742429,0.0,0.4457732,0.5029231,0.9117238,0.0,0.353222,0.8613187,0.009855003,0.0,-0.43494672,0.047743067,791.3553,529.0476,802.6374,791.3553,778.86444,0.19036865234375,0.13916015625,0.97802734375,4.403839111328125,-0.6280517578125,2.52716064453125,1,1.0,4.0,1.0,1.0,100.00
2021-03-28 17:09:08.426,,,,,,,,,,,,,,,,,,,,,,,,,,,,,,,,,,,,,,/muse/elements/jaw_clench
2021-03-28 17:09:08.622,,,,,,,,,,,,,,,,,,,,,,,,,,,,,,,,,,,,,,/muse/elements/jaw_clench
2021-03-28 17:09:08.822,0.49566758,0.0,0.52155566,0.56942785,0.5506668,0.0,0.07952488,0.4070396,0.7742429,0.0,0.43379974,0.5029231,0.9117238,0.0,0.27535018,0.8613187,0.009855003,0.0,-0.39576802,0.047743067,799.011,931.5751,810.293,832.0513,785.7143,0.18133544921875,0.11376953125,0.96942138671875,7.230072021484375,3.476715087890625,-11.94793701171875,1,1.0,4.0,1.0,1.0,100.00
2021-03-28 17:09:09.361,0.72916836,0.0,0.39084548,0.9033777,0.51379,0.0,0.011127229,0.22708744,0.6659257,0.0,0.46668127,0.5356184,0.8303607,0.0,0.11126419,0.8543415,0.2644937,0.0,-0.36368752,0.4930952,781.685,804.65204,807.0696,798.20514,733.73627,0.0765380859375,0.156005859375,0.9859619140625,7.065582275390625,-5.562744140625,0.919647216796875,1,1.0,4.0,1.0,1.0,100.00
2021-03-28 17:09:09.566,,,,,,,,,,,,,,,,,,,,,,,,,,,,,,,,,,,,,,/muse/elements/blink
2021-03-28 17:09:09.884,0.8584166,0.0,0.28393924,0.9033777,0.7938444,0.0,0.026864408,0.22708744,0.89633507,0.0,0.42960665,0.5356184,0.9450331,0.0,0.067128524,0.8543415,0.26586813,0.0,-0.37052166,0.4930952,825.6044,941.6484,806.6667,825.6044,730.10986,0.02032470703125,0.15435791015625,0.99444580078125,-4.50103759765625,5.14404296875,-4.05242919921875,1,1.0,4.0,1.0,1.0,100.00
2021-03-28 17:09:10.427,0.8992751,0.0,0.1846743,0.7821145,0.9012925,0.0,0.093642935,0.5084925,0.9201471,0.0,0.50533056,0.77117354,1.004706,0.0,0.14331666,0.868317,0.415163,0.0,-0.375847,0.43173698,760.7326,547.5824,797.3993,755.89746,696.6667,0.01336669921875,0.0869140625,0.98883056640625,4.6356201171875,-1.547698974609375,8.082427978515625,1,1.0,4.0,1.0,1.0,100.00
2021-03-28 17:09:10.770,,,,,,,,,,,,,,,,,,,,,,,,,,,,,,,,,,,,,,/muse/elements/jaw_clench
2021-03-28 17:09:10.943,1.0534948,0.0,0.4150553,0.7821145,1.054697,0.0,0.23934485,0.5084925,0.87799275,0.0,0.62643856,0.77117354,1.0572531,0.0,0.23093288,0.868317,0.51722175,0.0,-0.43914002,0.43173698,781.685,814.7253,804.2491,799.011,747.8388,-0.02789306640625,0.10357666015625,0.9974365234375,9.517974853515625,-12.359161376953125,-1.5850830078125,1,1.0,4.0,1.0,1.0,100.00
2021-03-28 17:09:11.456,0.9610874,0.0,0.40594316,0.7821145,0.87543917,0.0,0.25302744,0.5084925,0.63452643,0.0,0.6430709,0.77117354,0.9867418,0.0,0.26393396,0.868317,0.6513798,0.0,-0.43521369,0.43173698,729.707,779.2674,801.8315,745.0183,678.1319,0.0189208984375,0.17498779296875,1.00018310546875,6.50482177734375,-8.276824951171875,5.18890380859375,1,1.0,4.0,1.0,1.0,100.00
2021-03-28 17:09:11.911,,,,,,,,,,,,,,,,,,,,,,,,,,,,,,,,,,,,,,/muse/elements/blink
2021-03-28 17:09:11.998,0.9610874,0.0,0.63853407,0.7821145,0.87543917,0.0,0.37160015,0.5084925,0.63452643,0.0,0.64048225,0.77117354,0.9867418,0.0,0.24607603,0.868317,0.6513798,0.0,-0.42702922,0.43173698,793.7729,349.34067,788.93774,790.14655,705.9341,0.03570556640625,0.2518310546875,1.0076904296875,11.76849365234375,1.801910400390625,43.245849609375,1,1.0,4.0,1.0,1.0,100.00
2021-03-28 17:09:12.174,,,,,,,,,,,,,,,,,,,,,,,,,,,,,,,,,,,,,,/muse/elements/jaw_clench
2021-03-28 17:09:12.322,,,,,,,,,,,,,,,,,,,,,,,,,,,,,,,,,,,,,,/muse/elements/jaw_clench
2021-03-28 17:09:12.534,0.9610874,0.0,0.8432416,0.7821145,0.87543917,0.0,0.48009685,0.5084925,0.63452643,0.0,0.4368657,0.77117354,0.9867418,0.0,0.21916932,0.868317,0.6513798,0.0,-0.2696351,0.43173698,806.6667,645.89746,803.0403,814.7253,871.9414,0.109375,0.18804931640625,0.97515869140625,7.10296630859375,-9.7796630859375,0.456085205078125,1,1.0,4.0,1.0,1.0,100.00
2021-03-28 17:09:12.887,,,,,,,,,,,,,,,,,,,,,,,,,,,,,,,,,,,,,,/muse/elements/jaw_clench
2021-03-28 17:09:13.078,0.9610874,0.0,0.86558336,0.7821145,0.87543917,0.0,0.42681453,0.5084925,0.63452643,0.0,0.3703708,0.77117354,0.9867418,0.0,0.18401591,0.868317,0.6513798,0.0,-0.22604108,0.43173698,791.75824,916.26373,808.68134,780.07324,696.26373,0.1263427734375,0.319580078125,0.99200439453125,16.770477294921875,-3.57391357421875,-0.4486083984375,1,1.0,4.0,1.0,1.0,100.00
2021-03-28 17:09:13.095,,,,,,,,,,,,,,,,,,,,,,,,,,,,,,,,,,,,,,/muse/elements/jaw_clench
2021-03-28 17:09:13.600,0.36119807,0.0,0.71135247,0.7100351,0.57910407,0.0,0.29457784,0.7993563,0.6180927,0.0,0.2869666,0.13645925,0.93263584,0.0,0.1086755,1.0399549,0.16659376,0.0,-0.2457234,0.09106333,798.60803,605.2015,797.8022,823.9927,857.4359,0.1295166015625,0.3740234375,0.92877197265625,11.192779541015625,-7.469329833984375,-0.755157470703125,1,1.0,4.0,1.0,1.0,100.00
2021-03-28 17:09:13.678,,,,,,,,,,,,,,,,,,,,,,,,,,,,,,,,,,,,,,/muse/elements/jaw_clench
2021-03-28 17:09:13.922,,,,,,,,,,,,,,,,,,,,,,,,,,,,,,,,,,,,,,/muse/elements/jaw_clench
2021-03-28 17:09:14.114,0.663916,0.0,0.347785,0.73682666,0.8260964,0.0,0.058838453,0.6901808,0.702945,0.0,0.38983417,0.55091536,0.94887257,0.0,0.17740408,0.94939524,0.28564948,0.0,-0.3323191,0.15979663,842.52747,674.10254,797.8022,820.3663,776.04395,0.1593017578125,0.3546142578125,0.937255859375,3.48419189453125,-6.400146484375,-2.572021484375,1,1.0,4.0,1.0,1.0,100.00
2021-03-28 17:09:14.640,0.76254904,0.0,0.2591636,0.59487695,0.86082727,0.0,0.02018465,0.60326135,0.70253474,0.0,0.43313605,0.55091536,0.9582091,0.0,0.2102936,0.89975744,0.28418458,0.0,-0.33453202,0.28502235,835.2747,435.16483,799.011,834.4689,965.0183,0.16357421875,0.30731201171875,0.96197509765625,-2.19818115234375,-3.96270751953125,-2.564544677734375,1,1.0,4.0,1.0,1.0,100.00
2021-03-28 17:09:15.187,0.9417169,0.0,0.26253775,0.45907444,1.0198317,0.0,0.011423462,0.4068678,0.6773151,0.0,0.34489504,0.556069,0.9599181,0.0,0.19147561,0.83580357,0.38396776,0.0,-0.32634503,0.33928546,780.07324,477.47253,790.9524,778.46155,697.47253,0.12567138671875,0.27215576171875,0.93951416015625,4.3963623046875,-3.24493408203125,4.418792724609375,1,1.0,4.0,1.0,1.0,100.00
2021-03-28 17:09:15.681,,,,,,,,,,,,,,,,,,,,,,,,,,,,,,,,,,,,,,/muse/elements/jaw_clench
2021-03-28 17:09:15.703,0.97338915,0.0,0.52117026,0.6864027,0.5358154,0.0,0.31073675,0.51380587,0.22842522,0.0,0.3205887,0.6055577,0.8203231,0.0,0.109127775,0.8799826,0.32313198,0.0,-0.33446774,0.41578218,773.22345,549.19415,805.4579,775.2381,701.0989,0.115966796875,0.2127685546875,0.95660400390625,-2.624359130859375,-2.310333251953125,-4.418792724609375,1,1.0,4.0,1.0,1.0,100.00
2021-03-28 17:09:15.831,,,,,,,,,,,,,,,,,,,,,,,,,,,,,,,,,,,,,,/muse/elements/jaw_clench
2021-03-28 17:09:16.119,,,,,,,,,,,,,,,,,,,,,,,,,,,,,,,,,,,,,,/muse/elements/jaw_clench
2021-03-28 17:09:16.244,0.64495575,0.0,0.5182762,0.7717085,0.2265986,0.0,0.2836083,0.47085235,0.24284726,0.0,0.16562146,0.7567509,0.7905514,0.0,0.07352574,0.88100296,0.4295679,0.0,-0.2921983,0.56399816,800.6227,383.1868,800.2198,813.1135,837.28937,0.111572265625,0.21185302734375,0.97015380859375,2.115936279296875,-5.644989013671875,-2.6019287109375,1,1.0,4.0,1.0,1.0,100.00
2021-03-28 17:09:16.626,,,,,,,,,,,,,,,,,,,,,,,,,,,,,,,,,,,,,,/muse/elements/jaw_clench
2021-03-28 17:09:16.748,0.5790427,0.0,0.47507516,0.77549714,0.25867203,0.0,0.13976628,0.47686356,0.3843917,0.0,0.09150854,0.7569045,0.78120565,0.0,0.08381789,0.83995813,0.41586044,0.0,-0.31410408,0.6881647,801.02563,790.14655,796.5934,805.05493,721.6484,0.10662841796875,0.279052734375,0.98553466796875,9.52545166015625,-11.925506591796875,7.835693359375,1,1.0,4.0,1.0,1.0,100.00
2021-03-28 17:09:17.283,0.37218717,0.0,0.3343956,0.6366878,0.292144,0.0,-0.3068822,0.26074016,0.43797502,0.0,0.10324958,0.7572171,0.767181,0.0,0.090555504,0.7405199,0.34472522,0.0,-0.32591885,0.6399244,809.0842,439.19415,786.1172,803.44324,882.01465,0.15679931640625,0.29949951171875,0.94879150390625,3.33465576171875,-9.592742919921875,0.186920166015625,1,1.0,4.0,1.0,1.0,100.00
2021-03-28 17:09:17.789,0.56497496,0.0,0.36595514,0.6993693,0.4398858,0.0,-0.17499919,0.3500396,0.7060153,0.0,0.18673548,0.63740647,0.813257,0.0,0.08231467,0.7740055,0.22797324,0.0,-0.31092346,0.44172665,753.47986,737.76556,801.4286,761.13556,711.5751,0.17706298828125,0.27301025390625,0.94775390625,6.108551025390625,1.79443359375,-5.779571533203125,1,1.0,4.0,1.0,1.0,100.00
2021-03-28 17:09:18.271,,,,,,,,,,,,,,,,,,,,,,,,,,,,,,,,,,,,,,/muse/elements/jaw_clench
2021-03-28 17:09:18.318,0.5990622,0.0,0.27590638,0.7372574,0.6285745,0.0,-0.077799484,0.3861533,0.7666658,0.0,0.24470074,0.5748044,0.8785717,0.0,0.039798897,0.78498256,0.22026722,0.0,-0.32319376,0.20795071,783.69965,722.8571,802.6374,769.59705,645.4945,0.17822265625,0.28607177734375,0.94952392578125,7.514190673828125,-1.577606201171875,-0.1495361328125,1,1.0,4.0,1.0,1.0,100.00
2021-03-28 17:09:18.476,,,,,,,,,,,,,,,,,,,,,,,,,,,,,,,,,,,,,,/muse/elements/jaw_clench
2021-03-28 17:09:18.794,,,,,,,,,,,,,,,,,,,,,,,,,,,,,,,,,,,,,,/muse/elements/jaw_clench
2021-03-28 17:09:18.861,0.700206,0.0,0.18281774,0.7299897,0.71007997,0.0,-0.03976185,0.43015537,0.86069393,0.0,0.23332945,0.5238928,0.93404055,0.0,0.035880115,0.8681611,0.33054382,0.0,-0.31859824,0.27394316,861.06226,522.1978,803.0403,871.9414,837.28937,0.15216064453125,0.2313232421875,0.94427490234375,-6.512298583984375,-4.9346923828125,25.458526611328125,1,1.0,4.0,1.0,1.0,100.00
2021-03-28 17:09:19.396,,,,,,,,,,,,,,,,,,,,,,,,,,,,,,,,,,,,,,/muse/elements/blink
2021-03-28 17:09:19.396,,,,,,,,,,,,,,,,,,,,,,,,,,,,,,,,,,,,,,/muse/elements/jaw_clench
2021-03-28 17:09:19.403,0.69830745,0.0,0.6777556,0.7299897,0.68790805,0.0,0.10081311,0.43015537,0.81242174,0.0,0.31562376,0.5238928,0.97008246,0.0,0.0066535156,0.8681611,0.41714305,0.0,-0.37480953,0.27394316,735.7509,734.5421,803.0403,715.6044,580.6227,0.14654541015625,0.19659423828125,0.9764404296875,4.867401123046875,-5.689849853515625,-1.1663818359375,1,1.0,4.0,1.0,1.0,100.00
2021-03-28 17:09:19.934,0.69830745,0.0,0.906438,0.7299897,0.68790805,0.0,0.24661797,0.43015537,0.81242174,0.0,0.24639568,0.5238928,0.97008246,0.0,0.08303891,0.8681611,0.41714305,0.0,-0.2863937,0.27394316,772.4176,482.71063,777.6557,770.0,766.77655,0.1240234375,0.186279296875,0.9808349609375,6.930999755859375,-7.858123779296875,-0.904693603515625,1,1.0,4.0,1.0,1.0,100.00
2021-03-28 17:09:20.359,,,,,,,,,,,,,,,,,,,,,,,,,,,,,,,,,,,,,,/muse/elements/jaw_clench
2021-03-28 17:09:20.471,0.69830745,0.0,1.0667619,0.7299897,0.68790805,0.0,0.34788853,0.43015537,0.81242174,0.0,0.23818572,0.5238928,0.97008246,0.0,0.11324751,0.8681611,0.41714305,0.0,-0.26336792,0.27394316,808.2784,853.4066,803.0403,811.0989,798.60803,0.135009765625,0.19659423828125,0.97296142578125,4.089813232421875,-4.269256591796875,-2.1533203125,1,1.0,4.0,1.0,1.0,100.00
2021-03-28 17:09:20.984,0.69830745,0.0,0.38430464,0.16081308,0.68790805,0.0,-0.19312514,-0.03551955,0.81242174,0.0,-0.1294365,0.31149635,0.97008246,0.0,0.3095746,0.9344783,0.41714305,0.0,-0.13967295,0.2538408,792.5641,563.2967,797.3993,796.5934,763.95605,0.1475830078125,0.18658447265625,0.97735595703125,6.497344970703125,-6.2506103515625,0.725250244140625,1,2.0,4.0,1.0,2.0,100.00
2021-03-28 17:09:21.501,0.3954488,0.0,0.32980004,0.43134624,0.3986895,0.0,-0.064975224,0.29031685,0.6251303,0.0,0.17199922,0.8764617,0.8769875,0.0,0.37544885,0.98822194,0.22007698,0.0,-0.33685675,0.23734455,796.1905,809.89014,804.65204,814.3223,818.7546,0.19122314453125,0.2022705078125,0.995849609375,1.03179931640625,-10.923614501953125,-3.0206298828125,1,1.0,4.0,1.0,1.0,100.00
2021-03-28 17:09:22.038,0.68095946,0.0,0.35932747,0.5825468,0.34873563,0.0,0.035738274,0.3296232,0.6327686,0.0,0.5009709,0.8881866,0.8220424,0.0,0.40221655,1.0200368,0.2108874,0.0,-0.4047607,0.34227863,794.9817,1067.3627,805.05493,794.57874,735.7509,0.1917724609375,0.19110107421875,0.962890625,5.749664306640625,-6.77398681640625,4.927215576171875,1,1.0,4.0,1.0,1.0,100.00
2021-03-28 17:09:22.362,,,,,,,,,,,,,,,,,,,,,,,,,,,,,,,,,,,,,,/muse/elements/jaw_clench
2021-03-28 17:09:22.545,,,,,,,,,,,,,,,,,,,,,,,,,,,,,,,,,,,,,,/muse/elements/blink
2021-03-28 17:09:22.551,0.70958644,0.0,0.76998407,0.7000377,0.21954519,0.0,0.2822237,0.43829352,0.6327686,0.0,0.5881318,0.8881866,0.79970855,0.0,0.3677798,1.057227,0.18678086,0.0,-0.5484516,0.38054907,767.1795,644.68866,804.65204,754.2857,718.8278,0.1961669921875,0.23907470703125,0.963134765625,6.886138916015625,-5.86181640625,-15.798492431640625,1,1.0,4.0,1.0,1.0,100.00
2021-03-28 17:09:23.093,0.9740167,0.0,0.98445123,0.8621451,0.22737318,0.0,0.46371794,0.52133644,0.50010157,0.0,0.61999375,0.8728885,0.68552303,0.0,0.28738198,1.1180707,0.19190347,0.0,-0.44079795,0.5066755,764.7619,637.8388,794.9817,758.71796,690.6227,0.0899658203125,0.20489501953125,0.97607421875,5.869293212890625,-2.743988037109375,-3.69354248046875,1,1.0,4.0,1.0,1.0,100.00
2021-03-28 17:09:23.430,,,,,,,,,,,,,,,,,,,,,,,,,,,,,,,,,,,,,,/muse/elements/blink
2021-03-28 17:09:23.622,0.9740167,0.0,0.9650477,0.8621451,0.22737318,0.0,0.44093493,0.52133644,0.50010157,0.0,0.5243781,0.8728885,0.68552303,0.0,0.19660707,1.1180707,0.19190347,0.0,-0.411288,0.5066755,743.00366,553.22345,792.96704,760.7326,662.8205,4.2724609375E-4,0.2237548828125,0.97894287109375,2.76641845703125,-3.2598876953125,-3.865509033203125,1,1.0,4.0,1.0,1.0,100.00
2021-03-28 17:09:24.164,0.9740167,0.0,0.90593576,0.8621451,0.22737318,0.0,0.34435508,0.52133644,0.50010157,0.0,0.38648883,0.8728885,0.68552303,0.0,0.20695256,1.1180707,0.19190347,0.0,-0.37543407,0.5066755,699.0842,610.4396,840.9158,724.0659,707.9487,0.0364990234375,0.23486328125,0.97491455078125,0.097198486328125,-10.66192626953125,3.349609375,1,1.0,4.0,1.0,1.0,100.00
2021-03-28 17:09:24.691,0.9740167,0.0,0.762419,0.8621451,0.22737318,0.0,0.11661338,0.52133644,0.50010157,0.0,0.12762985,0.8728885,0.68552303,0.0,0.21548751,1.1180707,0.19190347,0.0,-0.36804578,0.5066755,758.71796,590.293,801.02563,772.01465,740.58606,0.081298828125,0.2447509765625,0.959228515625,6.138458251953125,-8.276824951171875,2.6318359375,1,2.0,4.0,1.0,2.0,100.00
2021-03-28 17:09:25.059,,,,,,,,,,,,,,,,,,,,,,,,,,,,,,,,,,,,,,/muse/elements/jaw_clench
2021-03-28 17:09:25.220,0.9740167,0.0,1.049708,0.8621451,0.22737318,0.0,0.15346688,0.52133644,0.50010157,0.0,0.07779194,0.8728885,0.68552303,0.0,0.20072173,1.1180707,0.19190347,0.0,-0.26723745,0.5066755,816.337,369.08426,799.81683,809.89014,887.25275,0.14447021484375,0.24658203125,0.97039794921875,-1.712188720703125,-10.63201904296875,2.265472412109375,1,2.0,4.0,1.0,2.0,100.00
2021-03-28 17:09:25.249,,,,,,,,,,,,,,,,,,,,,,,,,,,,,,,,,,,,,,/muse/elements/jaw_clench
2021-03-28 17:09:25.723,0.9740167,0.0,1.049708,0.8621451,0.22737318,0.0,0.15346688,0.52133644,0.50010157,0.0,0.07779194,0.8728885,0.68552303,0.0,0.20072173,1.1180707,0.19190347,0.0,-0.26723745,0.5066755,764.35895,855.82416,804.2491,764.7619,694.65204,0.11962890625,0.23028564453125,0.95855712890625,2.930908203125,-5.62255859375,-2.056121826171875,1,2.0,4.0,1.0,2.0,100.00
2021-03-28 17:09:25.768,,,,,,,,,,,,,,,,,,,,,,,,,,,,,,,,,,,,,,/muse/elements/jaw_clench
2021-03-28 17:09:26.082,,,,,,,,,,,,,,,,,,,,,,,,,,,,,,,,,,,,,,/muse/elements/jaw_clench
2021-03-28 17:09:26.240,0.5500948,0.0,0.20398606,0.56271195,0.3277681,0.0,1.830809E-5,0.041176293,0.7279262,0.0,-0.05453989,0.20577663,0.7218114,0.0,0.21565913,0.71383125,0.48573467,0.0,-0.3609747,0.7213171,819.9634,709.9634,813.5165,820.3663,886.04395,0.1124267578125,0.2811279296875,0.9599609375,6.11602783203125,-2.340240478515625,1.652374267578125,1,1.0,4.0,1.0,1.0,100.00
2021-03-28 17:09:26.745,0.5975244,0.0,0.32968712,0.6414695,0.40816948,0.0,0.06865574,0.52223915,0.76435137,0.0,0.059957463,0.3871092,0.7033538,0.0,0.1848086,0.7141248,0.52891815,0.0,-0.36083323,0.7329217,825.2015,591.9048,788.1319,829.2308,904.57874,0.11260986328125,0.24853515625,0.9722900390625,4.0673828125,-5.809478759765625,3.671112060546875,1,1.0,4.0,1.0,1.0,100.00
2021-03-28 17:09:27.246,0.56192255,0.0,0.30006593,0.6289729,0.36638144,0.0,-0.07273357,0.56454307,0.7683812,0.0,0.04522747,0.43988183,0.75928694,0.0,0.14943703,0.76714915,0.436595,0.0,-0.33657852,0.6448435,770.80585,422.67398,795.38464,761.13556,687.8022,0.10595703125,0.24737548828125,0.95947265625,2.758941650390625,-4.388885498046875,-0.8673095703125,1,1.0,4.0,1.0,1.0,100.00
2021-03-28 17:09:27.500,,,,,,,,,,,,,,,,,,,,,,,,,,,,,,,,,,,,,,/muse/elements/blink
2021-03-28 17:09:27.789,0.55916846,0.0,0.39155987,0.66277695,0.35842866,0.0,0.21042141,0.6624639,0.62351406,0.0,0.34552515,0.45397526,0.7853347,0.0,0.07988298,0.807008,0.36837298,0.0,-0.28185692,0.55801547,772.01465,917.0696,804.2491,763.1502,703.5165,0.158935546875,0.2598876953125,0.9693603515625,4.957122802734375,-5.87677001953125,1.502838134765625,1,1.0,4.0,1.0,1.0,100.00
2021-03-28 17:09:28.332,0.46767625,0.0,0.5720965,0.6082386,0.20929694,0.0,0.52609473,0.5346557,0.58666325,0.0,0.4053356,0.42469984,0.85695857,0.0,0.060396884,0.8714327,0.05883883,0.0,-0.2713418,0.29623857,819.15753,788.93774,808.2784,831.2454,788.93774,0.14971923828125,0.2525634765625,0.96002197265625,5.495452880859375,-3.46923828125,4.478607177734375,1,1.0,4.0,1.0,1.0,100.00
2021-03-28 17:09:28.857,0.4441495,0.0,0.5454981,0.60773546,0.03301148,0.0,0.5339738,0.38077492,0.46950614,0.0,0.44540733,0.26338297,0.8524755,0.0,0.13810916,0.8667376,-0.010882966,0.0,-0.28571254,0.21156918,811.9048,590.696,808.2784,816.337,897.326,0.14453125,0.2574462890625,0.96246337890625,4.91973876953125,-4.85992431640625,2.97576904296875,1,1.0,4.0,1.0,1.0,100.00
2021-03-28 17:09:29.365,-0.06678487,0.0,0.43761852,0.4018684,0.21973926,0.0,0.289287,0.048300046,0.50644374,0.0,0.41342908,0.26943907,0.6642784,0.0,0.15485302,0.7586041,0.3526964,0.0,-0.2606731,0.52078617,877.1795,819.15753,779.2674,879.19415,805.8608,0.13397216796875,0.24908447265625,0.95880126953125,3.028106689453125,-4.90478515625,1.03179931640625,1,1.0,4.0,1.0,1.0,100.00
2021-03-28 17:09:29.422,,,,,,,,,,,,,,,,,,,,,,,,,,,,,,,,,,,,,,/muse/elements/blink
2021-03-28 17:09:29.889,-0.06678487,0.0,0.27500856,0.4018684,0.21973926,0.0,-0.01373878,0.048300046,0.50644374,0.0,0.14548428,0.26943907,0.6642784,0.0,0.16862214,0.7586041,0.3526964,0.0,-0.2485316,0.52078617,882.01465,777.25275,772.01465,871.9414,728.9011,0.16790771484375,0.248291015625,0.94000244140625,5.196380615234375,-4.964599609375,2.25799560546875,1,1.0,4.0,1.0,1.0,100.00
2021-03-28 17:09:29.961,,,,,,,,,,,,,,,,,,,,,,,,,,,,,,,,,,,,,,/muse/elements/blink
2021-03-28 17:09:30.409,-0.15770894,0.0,0.3745059,0.4018684,0.14591137,0.0,0.11268999,0.048300046,0.4537798,0.0,-0.014141424,0.26943907,0.66636515,0.0,0.0058807945,0.7586041,0.35289228,0.0,-0.19442281,0.52078617,765.56775,807.47253,803.0403,751.4652,687.3993,0.1397705078125,0.2293701171875,0.96142578125,5.78704833984375,-5.03936767578125,1.15142822265625,1,1.0,4.0,1.0,1.0,100.00
