TimeStamp,Delta_TP9,Delta_AF7,Delta_AF8,Delta_TP10,Theta_TP9,Theta_AF7,Theta_AF8,Theta_TP10,Alpha_TP9,Alpha_AF7,Alpha_AF8,Alpha_TP10,Beta_TP9,Beta_AF7,Beta_AF8,Beta_TP10,Gamma_TP9,Gamma_AF7,Gamma_AF8,Gamma_TP10,RAW_TP9,RAW_AF7,RAW_AF8,RAW_TP10,AUX_RIGHT,Accelerometer_X,Accelerometer_Y,Accelerometer_Z,Gyro_X,Gyro_Y,Gyro_Z,HeadBandOn,HSI_TP9,HSI_AF7,HSI_AF8,HSI_TP10,Battery,Elements
2021-04-05 17:40:53.249,0.7789662,0.72163385,0.52868855,0.96032536,0.6147947,0.45398277,0.5851579,1.0054003,0.56921804,0.72913903,0.7326501,0.88171697,0.84643716,0.71726376,0.82648283,1.111363,0.6216949,0.38412505,0.49114987,1.0395367,781.685,775.64105,761.9414,784.90845,683.7729,-0.00421142578125,0.08367919921875,0.995849609375,6.34033203125,-6.639404296875,0.605621337890625,1,1.0,1.0,1.0,1.0,100.00
2021-04-05 17:40:53.481,,,,,,,,,,,,,,,,,,,,,,,,,,,,,,,,,,,,,,/muse/elements/jaw_clench
2021-04-05 17:40:53.752,0.72833717,0.7651968,0.5030965,0.9042485,0.5845439,0.39181784,0.59396106,0.89972854,0.6918024,0.7304073,0.7368376,0.88980037,1.1584216,0.8229335,0.8941712,1.1624718,0.6959526,0.4201169,0.56910384,1.122476,814.7253,807.0696,792.5641,734.1392,763.1502,0.0526123046875,0.05682373046875,0.99932861328125,3.409423828125,-5.682373046875,1.92901611328125,1,1.0,1.0,1.0,1.0,100.00
2021-04-05 17:40:54.254,0.9100975,0.80304676,0.5829922,0.9400557,0.588056,0.36239785,0.49820015,0.75682247,0.6918024,0.4575907,0.6397613,0.7363113,1.1398858,0.8283043,0.8807984,1.1940385,0.71242654,0.41641667,0.59289527,1.1137556,615.6777,798.20514,743.8095,524.21246,783.2967,-0.002685546875,0.11083984375,1.0191650390625,3.686065673828125,-15.491943359375,-68.82400512695312,1,1.0,1.0,1.0,1.0,100.00
2021-04-05 17:40:54.445,,,,,,,,,,,,,,,,,,,,,,,,,,,,,,,,,,,,,,/muse/elements/blink
2021-04-05 17:40:54.511,,,,,,,,,,,,,,,,,,,,,,,,,,,,,,,,,,,,,,/muse/elements/jaw_clench
2021-04-05 17:40:54.758,0.88851005,0.78316176,0.56070626,0.83747494,0.59183985,0.24879302,0.2698795,0.54102236,0.6770621,0.39623505,0.6105431,0.6807087,1.1866243,0.92558223,0.9415871,1.2626286,0.73963106,0.45234197,0.63146514,1.1080918,821.978,888.0586,815.5311,797.8022,284.8718,-0.1085205078125,0.01055908203125,1.04241943359375,5.24871826171875,4.284210205078125,-3.297271728515625,1,1.0,1.0,1.0,1.0,100.00
2021-04-05 17:40:54.842,,,,,,,,,,,,,,,,,,,,,,,,,,,,,,,,,,,,,,/muse/elements/blink
2021-04-05 17:40:55.265,1.1138002,0.77746904,0.7359046,0.87632996,0.5941348,0.25974202,0.10842909,0.4213816,0.4568655,0.36494574,0.41829127,0.63530415,1.1054131,0.91825897,0.809237,1.2797487,0.73983276,0.42134416,0.6373474,1.0760504,873.1502,1625.4213,819.5604,1098.7913,732.9304,-0.09869384765625,0.087890625,0.9869384765625,5.839385986328125,-3.5589599609375,-4.18701171875,1,1.0,1.0,1.0,1.0,100.00
2021-04-05 17:40:55.651,,,,,,,,,,,,,,,,,,,,,,,,,,,,,,,,,,,,,,/muse/elements/jaw_clench
2021-04-05 17:40:55.751,,,,,,,,,,,,,,,,,,,,,,,,,,,,,,,,,,,,,,/muse/elements/blink
2021-04-05 17:40:55.780,1.1138002,0.77746904,0.76724386,0.87632996,0.5941348,0.25974202,0.11985985,0.4213816,0.4568655,0.36494574,0.38197938,0.63530415,1.1054131,0.91825897,0.7822257,1.2797487,0.73983276,0.42134416,0.64173967,1.0760504,245.78755,588.2784,312.27106,171.24542,756.7033,-0.1256103515625,0.085205078125,0.96759033203125,4.254302978515625,-1.33087158203125,-3.33465576171875,1,1.0,4.0,1.0,4.0,100.00
2021-04-05 17:40:56.311,1.1138002,0.77746904,0.76724386,0.87632996,0.5941348,0.25974202,0.11985985,0.4213816,0.4568655,0.36494574,0.38197938,0.63530415,1.1054131,0.91825897,0.7822257,1.2797487,0.73983276,0.42134416,0.64173967,1.0760504,1008.5348,1147.5458,1037.9487,1111.6849,876.77655,-0.15057373046875,0.06182861328125,0.98822021484375,6.766510009765625,-1.973876953125,-0.112152099609375,1,4.0,4.0,1.0,4.0,100.00
2021-04-05 17:40:56.340,,,,,,,,,,,,,,,,,,,,,,,,,,,,,,,,,,,,,,/muse/elements/blink
2021-04-05 17:40:56.538,,,,,,,,,,,,,,,,,,,,,,,,,,,,,,,,,,,,,,/muse/elements/blink
2021-04-05 17:40:56.818,1.1138002,0.77746904,0.76724386,0.87632996,0.5941348,0.25974202,0.11985985,0.4213816,0.4568655,0.36494574,0.38197938,0.63530415,1.1054131,0.91825897,0.7822257,1.2797487,0.73983276,0.42134416,0.64173967,1.0760504,693.0403,1196.3004,674.5055,759.92676,832.0513,-0.164794921875,0.07073974609375,0.9840087890625,4.0374755859375,-5.899200439453125,-0.478515625,1,4.0,4.0,4.0,4.0,100.00
2021-04-05 17:40:56.884,,,,,,,,,,,,,,,,,,,,,,,,,,,,,,,,,,,,,,/muse/elements/blink
2021-04-05 17:40:56.950,,,,,,,,,,,,,,,,,,,,,,,,,,,,,,,,,,,,,,/muse/elements/jaw_clench
2021-04-05 17:40:57.278,,,,,,,,,,,,,,,,,,,,,,,,,,,,,,,,,,,,,,/muse/elements/blink
2021-04-05 17:40:57.344,1.1138002,0.77746904,0.76724386,0.87632996,0.5941348,0.25974202,0.11985985,0.4213816,0.4568655,0.36494574,0.38197938,0.63530415,1.1054131,0.91825897,0.7822257,1.2797487,0.73983276,0.42134416,0.64173967,1.0760504,944.4689,510.91574,815.5311,837.6923,1625.4213,-0.17498779296875,0.03021240234375,0.99188232421875,2.7215576171875,1.158905029296875,-1.9140625,1,4.0,4.0,2.0,2.0,100.00
2021-04-05 17:40:57.574,,,,,,,,,,,,,,,,,,,,,,,,,,,,,,,,,,,,,,/muse/elements/blink
2021-04-05 17:40:57.871,1.1138002,0.77746904,0.76724386,0.87632996,0.5941348,0.25974202,0.11985985,0.4213816,0.4568655,0.36494574,0.38197938,0.63530415,1.1054131,0.91825897,0.7822257,1.2797487,0.73983276,0.42134416,0.64173967,1.0760504,933.5897,747.8388,871.53845,916.26373,608.022,-0.2752685546875,0.08978271484375,0.9853515625,-15.619049072265625,-5.87677001953125,78.656005859375,1,2.0,2.0,1.0,2.0,100.00
2021-04-05 17:40:58.390,1.1138002,0.77746904,0.76724386,0.87632996,0.5941348,0.25974202,0.11985985,0.4213816,0.4568655,0.36494574,0.38197938,0.63530415,1.1054131,0.91825897,0.7822257,1.2797487,0.73983276,0.42134416,0.64173967,1.0760504,842.52747,721.2454,782.8938,800.2198,815.9341,-0.162109375,0.00482177734375,0.98504638671875,3.491668701171875,-8.1048583984375,10.3179931640625,1,2.0,1.0,1.0,2.0,100.00
2021-04-05 17:40:58.898,1.1138002,0.77746904,0.76724386,0.87632996,0.5941348,0.25974202,0.11985985,0.4213816,0.4568655,0.36494574,0.38197938,0.63530415,1.1054131,0.91825897,0.7822257,1.2797487,0.73983276,0.42134416,0.64173967,1.0760504,845.7509,724.0659,799.41394,847.76556,773.22345,-0.152587890625,0.01763916015625,0.997314453125,4.508514404296875,-4.029998779296875,0.70281982421875,1,2.0,1.0,1.0,2.0,100.00
2021-04-05 17:40:59.117,,,,,,,,,,,,,,,,,,,,,,,,,,,,,,,,,,,,,,/muse/elements/jaw_clench
2021-04-05 17:40:59.408,0.5463702,0.77746904,0.76724386,0.87632996,0.28118426,0.25974202,0.11985985,0.4213816,0.032721706,0.36494574,0.38197938,0.63530415,0.97650856,0.91825897,0.7822257,1.2797487,0.74061227,0.42134416,0.64173967,1.0760504,811.9048,711.1722,778.46155,848.5714,842.9304,-0.148193359375,0.02581787109375,1.00421142578125,1.31591796875,2.332763671875,3.521575927734375,1,2.0,1.0,1.0,2.0,100.00
2021-04-05 17:40:59.917,0.5463702,0.77746904,0.76724386,0.87632996,0.28118426,0.25974202,0.11985985,0.4213816,0.032721706,0.36494574,0.38197938,0.63530415,0.97650856,0.91825897,0.7822257,1.2797487,0.74061227,0.42134416,0.64173967,1.0760504,845.7509,725.6777,763.5531,865.89746,849.7802,-0.11944580078125,-0.00128173828125,0.88336181640625,20.553741455078125,-3.0804443359375,-53.227386474609375,1,1.0,1.0,1.0,1.0,100.00
2021-04-05 17:40:59.985,,,,,,,,,,,,,,,,,,,,,,,,,,,,,,,,,,,,,,/muse/elements/blink
2021-04-05 17:41:00.428,0.5463702,0.77746904,0.76724386,0.87632996,0.28118426,0.25974202,0.11985985,0.4213816,0.032721706,0.36494574,0.38197938,0.63530415,0.97650856,0.91825897,0.7822257,1.2797487,0.74061227,0.42134416,0.64173967,1.0760504,869.5238,759.92676,841.31866,856.2271,574.9817,-0.38543701171875,0.04315185546875,0.9591064453125,-10.370330810546875,-1.757049560546875,69.06326293945312,1,1.0,1.0,1.0,1.0,100.00
2021-04-05 17:41:00.691,,,,,,,,,,,,,,,,,,,,,,,,,,,,,,,,,,,,,,/muse/elements/jaw_clench
2021-04-05 17:41:00.937,,,,,,,,,,,,,,,,,,,,,,,,,,,,,,,,,,,,,,/muse/elements/jaw_clench
2021-04-05 17:41:00.941,0.5463702,0.77746904,0.76724386,0.87632996,0.28118426,0.25974202,0.11985985,0.4213816,0.032721706,0.36494574,0.38197938,0.63530415,0.97650856,0.91825897,0.7822257,1.2797487,0.74061227,0.42134416,0.64173967,1.0760504,824.7985,763.95605,766.3736,768.7912,939.2308,-0.13311767578125,0.02886962890625,0.95196533203125,-2.213134765625,-23.37249755859375,6.44500732421875,1,1.0,1.0,1.0,1.0,100.00
2021-04-05 17:41:01.118,,,,,,,,,,,,,,,,,,,,,,,,,,,,,,,,,,,,,,/muse/elements/jaw_clench
2021-04-05 17:41:01.452,0.5463702,0.77746904,0.76724386,0.87632996,0.28118426,0.25974202,0.11985985,0.4213816,0.032721706,0.36494574,0.38197938,0.63530415,0.97650856,0.91825897,0.7822257,1.2797487,0.74061227,0.42134416,0.64173967,1.0760504,801.02563,658.3883,751.06226,808.2784,744.61536,-0.06622314453125,0.02825927734375,0.994873046875,5.779571533203125,-4.964599609375,-0.396270751953125,1,1.0,1.0,1.0,1.0,100.00
2021-04-05 17:41:01.954,0.5463702,0.77746904,0.76724386,0.87632996,0.28118426,0.25974202,0.11985985,0.4213816,0.032721706,0.36494574,0.38197938,0.63530415,0.97650856,0.91825897,0.7822257,1.2797487,0.74061227,0.42134416,0.64173967,1.0760504,823.5897,790.14655,805.05493,781.28204,658.7912,-0.0528564453125,0.0499267578125,0.989990234375,6.901092529296875,-4.6356201171875,0.7177734375,1,1.0,1.0,1.0,1.0,100.00
2021-04-05 17:41:02.462,0.15161824,0.77746904,0.76724386,0.16074045,0.31997147,0.25974202,0.11985985,0.40139213,0.72352684,0.36494574,0.38197938,0.7192603,1.0582484,0.91825897,0.7822257,1.2145633,0.6951192,0.42134416,0.64173967,1.1043305,854.61536,787.326,809.4872,798.60803,768.7912,-0.0323486328125,0.09515380859375,1.018798828125,2.310333251953125,9.04693603515625,-4.478607177734375,1,1.0,1.0,1.0,1.0,100.00
2021-04-05 17:41:02.975,0.48377594,0.77746904,0.48830062,0.36226344,0.35643667,0.25974202,0.1613717,0.40234414,0.76109236,0.36494574,0.1548618,0.750599,0.97461134,0.91825897,0.68951404,1.1706835,0.6995603,0.42134416,0.49863464,0.98545253,802.6374,748.6447,759.92676,831.2454,735.7509,-0.32916259765625,-0.0487060546875,0.92047119140625,9.562835693359375,0.61309814453125,-2.5421142578125,1,1.0,1.0,1.0,1.0,100.00
2021-04-05 17:41:03.452,,,,,,,,,,,,,,,,,,,,,,,,,,,,,,,,,,,,,,/muse/elements/blink
2021-04-05 17:41:03.480,0.5513501,0.77746904,0.48203433,0.53475523,0.3695257,0.25974202,0.16944654,0.41486344,0.76109236,0.36494574,0.27081916,0.7572894,0.93156797,0.91825897,0.6793275,1.1526009,0.6836851,0.42134416,0.4771679,0.9742378,856.2271,774.83514,784.90845,907.8022,946.8865,-0.2572021484375,0.0228271484375,0.9952392578125,17.1966552734375,-7.992706298828125,-33.54095458984375,1,1.0,1.0,1.0,1.0,100.00
2021-04-05 17:41:03.992,0.7209404,0.77746904,0.40942857,0.6585781,0.429266,0.25974202,0.026366996,0.42237777,0.59271175,0.36494574,0.27081916,0.5931716,0.84682167,0.91825897,0.6626213,1.1127717,0.6646712,0.42134416,0.53812265,0.87756,805.4579,791.3553,796.1905,793.7729,778.46155,-0.2835693359375,0.037109375,0.9483642578125,5.510406494140625,-3.162689208984375,-3.671112060546875,1,1.0,1.0,1.0,1.0,100.00
2021-04-05 17:41:04.499,0.7994824,0.77746904,0.40942857,0.79990906,0.47285548,0.25974202,0.026366996,0.47826695,0.37160885,0.36494574,0.27081916,0.5189203,0.86748976,0.91825897,0.6626213,1.1077534,0.5879729,0.42134416,0.53812265,0.9027314,794.17584,792.1612,788.5348,753.0769,782.8938,-0.2684326171875,0.0401611328125,0.97222900390625,4.65057373046875,-5.62255859375,-10.3778076171875,1,1.0,1.0,1.0,1.0,100.00
2021-04-05 17:41:04.982,,,,,,,,,,,,,,,,,,,,,,,,,,,,,,,,,,,,,,/muse/elements/jaw_clench
2021-04-05 17:41:05.012,0.7994824,0.4033593,0.40942857,0.79990906,0.47285548,0.11038901,0.026366996,0.47826695,0.37160885,0.17057343,0.27081916,0.5189203,0.86748976,0.58100486,0.6626213,1.1077534,0.5879729,0.30192453,0.53812265,0.9027314,813.91943,783.2967,789.34064,837.6923,774.83514,-0.29058837890625,0.0255126953125,0.9610595703125,6.80389404296875,-4.044952392578125,-3.21502685546875,1,1.0,1.0,1.0,1.0,100.00
2021-04-05 17:41:05.211,,,,,,,,,,,,,,,,,,,,,,,,,,,,,,,,,,,,,,/muse/elements/jaw_clench
2021-04-05 17:41:05.491,,,,,,,,,,,,,,,,,,,,,,,,,,,,,,,,,,,,,,/muse/elements/jaw_clench
2021-04-05 17:41:05.520,0.7260554,0.39339077,0.40942857,0.6921067,0.7482287,0.05870079,0.026366996,0.94193447,0.83770937,0.1903129,0.27081916,1.0886183,0.8993588,0.55712,0.6626213,0.7773651,0.56814593,0.33994833,0.53812265,0.71201456,777.6557,773.6264,793.36993,757.50916,760.32965,-0.28094482421875,0.03033447265625,0.95928955078125,3.192596435546875,-3.880462646484375,8.8824462890625,1,1.0,1.0,1.0,1.0,100.00
2021-04-05 17:41:05.804,,,,,,,,,,,,,,,,,,,,,,,,,,,,,,,,,,,,,,/muse/elements/jaw_clench
2021-04-05 17:41:06.031,0.66778624,0.60349494,0.7388819,0.93155026,0.6884664,0.35289198,0.7316775,0.95541614,0.8691224,0.5784816,0.68792903,1.0886183,0.92627275,0.5777544,0.7571824,0.8767656,0.5016784,0.33029786,0.36075646,0.67279905,770.40295,743.4066,778.86444,717.2161,674.90845,-0.2801513671875,0.0518798828125,0.96453857421875,4.68048095703125,-6.32537841796875,8.276824951171875,1,1.0,1.0,1.0,1.0,100.00
2021-04-05 17:41:06.546,0.5218443,0.7482741,0.6926917,0.9231255,0.51505333,0.50117785,0.7015487,0.8300254,0.7589099,0.50766885,0.69150543,0.5183765,0.9496367,0.55296665,0.80830455,0.94139665,0.4353865,0.39789516,0.33022323,0.6266447,845.7509,829.2308,839.304,791.75824,1073.0037,-0.2554931640625,0.04302978515625,0.96136474609375,9.891815185546875,-4.94964599609375,-15.43212890625,1,1.0,1.0,1.0,1.0,100.00
2021-04-05 17:41:06.890,,,,,,,,,,,,,,,,,,,,,,,,,,,,,,,,,,,,,,/muse/elements/jaw_clench
2021-04-05 17:41:07.050,0.5255358,0.7482741,0.6926917,1.1783001,0.4945438,0.50117785,0.7015487,0.97659725,0.74528986,0.50766885,0.69150543,0.2886476,0.9567342,0.55296665,0.80830455,1.0585784,0.33213168,0.39789516,0.33022323,0.6026541,801.02563,765.56775,751.06226,840.5128,783.69965,-0.26055908203125,0.050048828125,0.96258544921875,4.867401123046875,-4.284210205078125,-0.650482177734375,1,1.0,1.0,1.0,1.0,100.00
2021-04-05 17:41:07.152,,,,,,,,,,,,,,,,,,,,,,,,,,,,,,,,,,,,,,/muse/elements/jaw_clench
2021-04-05 17:41:07.557,0.45484406,0.7482741,0.59574723,1.1783001,0.35897025,0.50117785,0.57250386,0.97659725,0.49901447,0.50766885,0.5247331,0.2886476,0.9269164,0.55296665,0.78995824,1.0585784,0.26533362,0.39789516,0.2562488,0.6026541,791.3553,778.0586,782.8938,782.49084,721.6484,-0.2728271484375,0.05096435546875,0.9658203125,4.897308349609375,-5.973968505859375,1.9140625,1,1.0,1.0,1.0,1.0,100.00
2021-04-05 17:41:07.642,,,,,,,,,,,,,,,,,,,,,,,,,,,,,,,,,,,,,,/muse/elements/jaw_clench
2021-04-05 17:41:07.833,,,,,,,,,,,,,,,,,,,,,,,,,,,,,,,,,,,,,,/muse/elements/jaw_clench
2021-04-05 17:41:08.070,1.1502492,0.646058,0.59574723,1.1783001,0.40464884,0.124432795,0.57250386,0.97659725,0.7114641,0.408359,0.5247331,0.2886476,0.7855092,0.74591506,0.78995824,1.0585784,0.81125146,0.6608284,0.2562488,0.6026541,791.3553,799.81683,798.20514,753.0769,732.9304,-0.2669677734375,0.0555419921875,0.96661376953125,4.687957763671875,-5.084228515625,1.89910888671875,1,1.0,1.0,1.0,1.0,100.00
2021-04-05 17:41:08.105,,,,,,,,,,,,,,,,,,,,,,,,,,,,,,,,,,,,,,/muse/elements/jaw_clench
2021-04-05 17:41:08.601,0.91961235,0.54186803,0.59574723,0.79588014,0.30299148,0.07067333,0.57250386,0.60664165,0.7114641,0.43128613,0.5247331,0.72697335,0.72390276,0.65839505,0.78995824,0.8707373,0.687404,0.54071593,0.2562488,0.6620852,789.34064,786.9231,771.2088,787.72894,759.92676,-0.26416015625,0.05218505859375,0.96087646484375,5.001983642578125,-4.77020263671875,0.605621337890625,1,1.0,1.0,1.0,1.0,100.00
2021-04-05 17:41:09.102,0.7872567,0.4757837,0.59574723,0.6815531,0.2612075,0.04908007,0.57250386,0.63063073,0.81092393,0.43236125,0.5247331,0.8597349,0.7438946,0.66435635,0.78995824,0.8696237,0.55451804,0.45243233,0.2562488,0.44635686,828.8278,792.5641,795.38464,871.9414,907.8022,-0.26995849609375,0.0540771484375,0.96099853515625,4.687957763671875,-4.35150146484375,-0.201873779296875,1,1.0,1.0,1.0,1.0,100.00
2021-04-05 17:41:09.242,,,,,,,,,,,,,,,,,,,,,,,,,,,,,,,,,,,,,,/muse/elements/jaw_clench
2021-04-05 17:41:09.612,0.48848605,0.32086506,0.59574723,0.7151311,0.19249734,-0.0056569367,0.57250386,0.6928683,0.8175734,-0.056146972,0.5247331,0.8685467,0.6911961,0.6043162,0.78995824,0.8666888,0.42136064,0.24138178,0.2562488,0.5134066,791.3553,745.0183,781.28204,812.3077,776.4469,-0.274658203125,0.04986572265625,0.960693359375,4.583282470703125,-4.344024658203125,-0.201873779296875,1,1.0,1.0,1.0,1.0,100.00
2021-04-05 17:41:09.749,,,,,,,,,,,,,,,,,,,,,,,,,,,,,,,,,,,,,,/muse/elements/jaw_clench
2021-04-05 17:41:10.130,0.60455966,0.09573524,0.59574723,0.64859265,0.12935756,0.008454347,0.57250386,0.6768856,0.83327246,-0.2322474,0.5247331,0.83248544,0.7073744,0.6722634,0.78995824,0.84627926,0.38650167,-0.1060341,0.2562488,0.4886741,793.36993,765.56775,769.59705,781.685,796.99634,-0.275146484375,0.0550537109375,0.9658203125,5.316009521484375,-6.08612060546875,-0.85235595703125,1,1.0,1.0,1.0,1.0,100.00
2021-04-05 17:41:10.439,,,,,,,,,,,,,,,,,,,,,,,,,,,,,,,,,,,,,,/muse/elements/jaw_clench
2021-04-05 17:41:10.659,0.678316,0.09573524,0.59574723,0.6767989,0.18548924,0.008454347,0.57250386,0.6159677,0.83327246,-0.2322474,0.5247331,0.86008626,0.691938,0.6722634,0.78995824,0.8223544,0.45007432,-0.1060341,0.2562488,0.5315528,818.3516,818.3516,791.3553,766.3736,857.03296,-0.2757568359375,0.05462646484375,0.962646484375,5.263671875,-3.2598876953125,-2.145843505859375,1,1.0,1.0,1.0,1.0,100.00
2021-04-05 17:41:11.180,0.6081253,0.09573524,0.6740183,0.5852368,0.3465914,0.008454347,0.37873974,0.51480687,0.7573753,-0.2322474,0.44978896,0.83484364,0.65536755,0.6722634,0.64193296,0.7875679,0.39795116,-0.1060341,0.2774546,0.39072427,792.1612,786.1172,763.95605,800.6227,844.94507,-0.28729248046875,0.04644775390625,0.95849609375,4.71038818359375,-4.8748779296875,-0.052337646484375,1,1.0,1.0,1.0,1.0,100.00
2021-04-05 17:41:11.580,,,,,,,,,,,,,,,,,,,,,,,,,,,,,,,,,,,,,,/muse/elements/jaw_clench
2021-04-05 17:41:11.706,0.5289913,0.09573524,0.6588959,0.9793034,0.46516415,0.008454347,0.22469415,0.838624,0.754498,-0.2322474,0.46077114,0.96039945,0.6604672,0.6722634,0.6766456,0.85448086,0.42293656,-0.1060341,0.24049164,0.30470875,806.6667,777.6557,787.326,840.10986,803.0403,-0.2777099609375,0.0413818359375,0.9588623046875,4.673004150390625,-4.53094482421875,1.114044189453125,1,1.0,1.0,1.0,1.0,100.00
2021-04-05 17:41:11.942,,,,,,,,,,,,,,,,,,,,,,,,,,,,,,,,,,,,,,/muse/elements/jaw_clench
2021-04-05 17:41:12.211,0.4864542,0.09573524,0.6608002,0.9770488,0.49088678,0.008454347,0.12412432,0.95603126,0.7136486,-0.2322474,0.3980233,0.9560134,0.6625991,0.6722634,0.6935567,0.9016334,0.46128654,-0.1060341,0.24750136,0.3011672,782.0879,798.60803,782.0879,764.7619,741.79486,-0.2822265625,0.04266357421875,0.95526123046875,4.88983154296875,-4.246826171875,1.4654541015625,1,1.0,1.0,1.0,1.0,100.00
2021-04-05 17:41:12.373,,,,,,,,,,,,,,,,,,,,,,,,,,,,,,,,,,,,,,/muse/elements/jaw_clench
2021-04-05 17:41:12.695,,,,,,,,,,,,,,,,,,,,,,,,,,,,,,,,,,,,,,/muse/elements/jaw_clench
2021-04-05 17:41:12.719,0.781901,0.15513605,0.6608002,1.0137733,0.65431345,0.13250408,0.12412432,0.9911276,0.7610203,0.21649966,0.3980233,0.9645006,0.75165004,0.63756096,0.6935567,0.9081186,0.48734865,0.21702546,0.24750136,0.38939348,640.2564,743.8095,840.10986,610.0366,635.42126,-0.30029296875,0.01824951171875,0.9501953125,1.158905029296875,-5.81695556640625,7.334747314453125,1,1.0,1.0,1.0,1.0,100.00
2021-04-05 17:41:12.895,,,,,,,,,,,,,,,,,,,,,,,,,,,,,,,,,,,,,,/muse/elements/blink
2021-04-05 17:41:12.895,,,,,,,,,,,,,,,,,,,,,,,,,,,,,,,,,,,,,,/muse/elements/jaw_clench
2021-04-05 17:41:13.243,0.855267,0.15513605,0.6608002,0.6745744,0.765483,0.13250408,0.12412432,0.87523955,0.7563009,0.21649966,0.3980233,0.9099136,0.75788516,0.63756096,0.6935567,0.86719626,0.45652932,0.21702546,0.24750136,0.43921462,834.87177,808.2784,800.6227,853.00366,821.1722,-0.1995849609375,0.03948974609375,0.97613525390625,-0.95703125,-12.30682373046875,30.4754638671875,1,1.0,1.0,1.0,1.0,100.00
2021-04-05 17:41:13.750,0.92107624,0.15513605,0.6608002,0.5821686,0.80770004,0.13250408,0.12412432,0.681154,0.74562424,0.21649966,0.3980233,0.61096996,0.74808973,0.63756096,0.6935567,0.7474117,0.42553726,0.21702546,0.24750136,0.48987296,802.23444,779.67035,809.0842,827.2161,741.79486,-0.1778564453125,0.052734375,0.9739990234375,3.267364501953125,-7.439422607421875,12.57598876953125,1,1.0,1.0,1.0,1.0,100.00
2021-04-05 17:41:14.276,0.92107624,0.33333436,0.6608002,0.5821686,0.80770004,0.17839745,0.12412432,0.681154,0.74562424,0.38041362,0.3980233,0.61096996,0.74808973,0.6905413,0.6935567,0.7474117,0.42553726,0.43312538,0.24750136,0.48987296,786.1172,788.93774,785.31134,757.1062,642.674,-0.1683349609375,0.04302978515625,0.98455810546875,3.087921142578125,-5.764617919921875,6.4300537109375,1,1.0,1.0,1.0,1.0,100.00
2021-04-05 17:41:14.800,0.2650674,0.20249423,0.6608002,-0.070119336,0.07901358,0.06487291,0.12412432,0.5530301,0.50854677,0.3967643,0.3980233,0.10723416,0.704589,0.60411423,0.6935567,0.8806558,0.19365184,0.27274263,0.24750136,0.5274311,799.81683,808.2784,804.65204,739.7802,676.52014,-0.14703369140625,0.04241943359375,0.985595703125,6.38519287109375,-6.6693115234375,-4.942169189453125,1,1.0,1.0,1.0,1.0,100.00
2021-04-05 17:41:15.137,,,,,,,,,,,,,,,,,,,,,,,,,,,,,,,,,,,,,,/muse/elements/blink
2021-04-05 17:41:15.327,0.2695412,0.18022135,0.6608002,0.045195933,0.067243755,0.016233658,0.12412432,0.50820935,0.51206356,0.3967643,0.3980233,0.11082659,0.69849426,0.5885834,0.6935567,0.8595065,0.16465048,0.25007522,0.24750136,0.48744,768.7912,781.685,761.9414,787.326,774.43225,-0.15771484375,0.03851318359375,0.98779296875,6.168365478515625,-2.04864501953125,-15.970458984375,1,1.0,1.0,1.0,1.0,100.00
2021-04-05 17:41:15.330,,,,,,,,,,,,,,,,,,,,,,,,,,,,,,,,,,,,,,/muse/elements/jaw_clench
2021-04-05 17:41:15.850,0.2695412,0.060152728,0.6608002,0.045195933,0.067243755,-0.113750376,0.12412432,0.50820935,0.51206356,-0.050107166,0.3980233,0.11082659,0.69849426,0.51738477,0.6935567,0.8595065,0.16465048,0.0954466,0.24750136,0.48744,805.8608,792.1612,786.52014,799.41394,655.56775,-0.1724853515625,0.0181884765625,0.98504638671875,4.553375244140625,-6.587066650390625,-3.0804443359375,1,1.0,1.0,1.0,1.0,100.00
2021-04-05 17:41:16.357,0.30791247,0.7302066,0.6608002,0.10400935,0.057455033,0.5337347,0.12412432,0.48691556,0.4957875,0.47290877,0.3980233,0.0609727,0.66106594,0.5992374,0.6935567,0.8538599,0.027336426,0.27743316,0.24750136,0.43637824,793.36993,765.56775,751.4652,814.3223,690.2198,-0.124267578125,0.02374267578125,1.0086669921875,7.454376220703125,-18.34808349609375,-27.058563232421875,1,1.0,1.0,1.0,1.0,100.00
2021-04-05 17:41:16.460,,,,,,,,,,,,,,,,,,,,,,,,,,,,,,,,,,,,,,/muse/elements/jaw_clench
2021-04-05 17:41:16.628,,,,,,,,,,,,,,,,,,,,,,,,,,,,,,,,,,,,,,/muse/elements/blink
2021-04-05 17:41:16.890,0.30791247,0.8542929,0.6608002,0.10400935,0.057455033,0.94956094,0.12412432,0.48691556,0.4957875,0.8124769,0.3980233,0.0609727,0.66106594,0.5505029,0.6935567,0.8538599,0.027336426,0.35697976,0.24750136,0.43637824,797.3993,780.4762,779.67035,760.7326,719.6337,-0.02789306640625,0.072265625,1.01361083984375,3.84307861328125,-3.3197021484375,-2.1533203125,1,1.0,1.0,1.0,1.0,100.00
2021-04-05 17:41:17.410,0.30791247,0.9028527,0.6608002,0.10400935,0.057455033,0.98857075,0.12412432,0.48691556,0.4957875,0.8142021,0.3980233,0.0609727,0.66106594,0.5438056,0.6935567,0.8538599,0.027336426,0.37769735,0.24750136,0.43637824,534.2857,762.74725,839.707,525.82416,776.04395,-0.07989501953125,0.028564453125,0.9981689453125,1.8243408203125,-4.568328857421875,-0.471038818359375,1,1.0,1.0,1.0,1.0,100.00
2021-04-05 17:41:17.578,,,,,,,,,,,,,,,,,,,,,,,,,,,,,,,,,,,,,,/muse/elements/blink
2021-04-05 17:41:17.940,0.30791247,0.94147927,0.6608002,0.10400935,0.057455033,1.1119418,0.12412432,0.48691556,0.4957875,0.7875201,0.3980233,0.0609727,0.66106594,0.48367742,0.6935567,0.8538599,0.027336426,0.41591007,0.24750136,0.43637824,813.1135,796.5934,804.2491,751.8681,753.0769,-0.05810546875,0.0029296875,0.99383544921875,-2.714080810546875,-4.23187255859375,10.7965087890625,1,2.0,1.0,1.0,2.0,100.00
2021-04-05 17:41:18.466,0.30791247,0.9659378,0.6608002,0.10400935,0.057455033,1.1556427,0.12412432,0.48691556,0.4957875,0.7867702,0.3980233,0.0609727,0.66106594,0.45903262,0.6935567,0.8538599,0.027336426,0.4440176,0.24750136,0.43637824,882.8205,802.23444,758.315,865.89746,762.3443,-0.0452880859375,-0.02545166015625,0.99578857421875,4.05242919921875,-3.805694580078125,5.794525146484375,1,2.0,1.0,1.0,2.0,100.00
2021-04-05 17:41:18.469,,,,,,,,,,,,,,,,,,,,,,,,,,,,,,,,,,,,,,/muse/elements/blink
2021-04-05 17:41:18.598,,,,,,,,,,,,,,,,,,,,,,,,,,,,,,,,,,,,,,/muse/elements/jaw_clench
2021-04-05 17:41:18.991,0.30791247,0.9659378,0.6608002,0.10400935,0.057455033,1.1556427,0.12412432,0.48691556,0.4957875,0.7867702,0.3980233,0.0609727,0.66106594,0.45903262,0.6935567,0.8538599,0.027336426,0.4440176,0.24750136,0.43637824,808.68134,804.2491,784.10254,835.2747,838.49817,-0.0943603515625,-0.0057373046875,0.99957275390625,6.377716064453125,-0.70281982421875,3.192596435546875,1,2.0,1.0,1.0,2.0,100.00
2021-04-05 17:41:19.421,,,,,,,,,,,,,,,,,,,,,,,,,,,,,,,,,,,,,,/muse/elements/blink
2021-04-05 17:41:19.517,0.30791247,0.9659378,0.6608002,0.10400935,0.057455033,1.1556427,0.12412432,0.48691556,0.4957875,0.7867702,0.3980233,0.0609727,0.66106594,0.45903262,0.6935567,0.8538599,0.027336426,0.4440176,0.24750136,0.43637824,818.7546,774.43225,769.59705,832.0513,662.4176,-0.07666015625,-0.03582763671875,0.98968505859375,2.1832275390625,-1.9439697265625,1.51031494140625,1,2.0,1.0,1.0,2.0,100.00
2021-04-05 17:41:20.029,0.30791247,0.9659378,0.6608002,0.10400935,0.057455033,1.1556427,0.12412432,0.48691556,0.4957875,0.7867702,0.3980233,0.0609727,0.66106594,0.45903262,0.6935567,0.8538599,0.027336426,0.4440176,0.24750136,0.43637824,650.7326,826.4103,798.20514,662.8205,857.8388,-0.266357421875,-0.00738525390625,0.94940185546875,9.054412841796875,6.587066650390625,7.58148193359375,1,2.0,1.0,1.0,2.0,100.00
2021-04-05 17:41:20.227,,,,,,,,,,,,,,,,,,,,,,,,,,,,,,,,,,,,,,/muse/elements/blink
2021-04-05 17:41:20.554,0.30791247,0.9659378,0.7501306,0.10400935,0.057455033,1.1556427,0.27240384,0.48691556,0.4957875,0.7867702,0.27760288,0.0609727,0.66106594,0.45903262,0.5208151,0.8538599,0.027336426,0.4440176,0.12662826,0.43637824,799.41394,790.54944,768.7912,778.46155,807.0696,-0.28765869140625,0.09808349609375,0.9588623046875,6.92352294921875,-4.97955322265625,2.504730224609375,1,2.0,1.0,1.0,2.0,100.00
2021-04-05 17:41:20.897,,,,,,,,,,,,,,,,,,,,,,,,,,,,,,,,,,,,,,/muse/elements/jaw_clench
2021-04-05 17:41:21.066,0.30791247,0.9659378,0.7501306,0.10400935,0.057455033,1.1556427,0.27240384,0.48691556,0.4957875,0.7867702,0.27760288,0.0609727,0.66106594,0.45903262,0.5208151,0.8538599,0.027336426,0.4440176,0.12662826,0.43637824,785.7143,782.0879,759.5238,743.8095,707.9487,-0.28778076171875,0.08941650390625,0.94976806640625,6.23565673828125,-6.62445068359375,-0.456085205078125,1,2.0,1.0,1.0,2.0,100.00
2021-04-05 17:41:21.572,0.30791247,0.9659378,0.6722894,0.10400935,0.057455033,1.1556427,0.28242317,0.48691556,0.4957875,0.7867702,0.22438158,0.0609727,0.66106594,0.45903262,0.49733657,0.8538599,0.027336426,0.4440176,0.14986546,0.43637824,830.84247,799.81683,774.0293,823.1868,875.16486,-0.2806396484375,0.12481689453125,0.95440673828125,7.230072021484375,-5.75714111328125,0.216827392578125,1,2.0,1.0,1.0,2.0,100.00
2021-04-05 17:41:22.097,0.30791247,0.9659378,0.7772253,0.10400935,0.057455033,1.1556427,0.25864643,0.48691556,0.4957875,0.7867702,0.40238792,0.0609727,0.66106594,0.45903262,0.67652017,0.8538599,0.027336426,0.4440176,0.3466178,0.43637824,792.1612,762.3443,758.315,810.696,784.90845,-0.29046630859375,0.13543701171875,0.94622802734375,8.56842041015625,-3.3795166015625,-1.07666015625,1,2.0,1.0,1.0,2.0,100.00
2021-04-05 17:41:22.461,,,,,,,,,,,,,,,,,,,,,,,,,,,,,,,,,,,,,,/muse/elements/blink
2021-04-05 17:41:22.602,0.30791247,0.8253259,0.7569179,0.10400935,0.057455033,0.39360884,0.28851768,0.48691556,0.4957875,0.34262156,0.40238792,0.0609727,0.66106594,0.5475185,0.6777805,0.8538599,0.027336426,0.35282308,0.3511912,0.43637824,821.5751,809.4872,761.13556,806.26373,718.022,-0.25726318359375,0.13275146484375,0.9539794921875,3.289794921875,-5.091705322265625,1.375732421875,1,2.0,1.0,1.0,2.0,100.00
2021-04-05 17:41:23.135,0.30791247,0.8253259,0.79852897,0.10400935,0.057455033,0.39360884,0.48075578,0.48691556,0.4957875,0.34262156,0.5222749,0.0609727,0.66106594,0.5475185,0.66424465,0.8538599,0.027336426,0.35282308,0.2872139,0.43637824,851.39197,805.4579,796.99634,800.2198,672.0879,-0.2467041015625,0.14019775390625,0.95843505859375,1.697235107421875,-6.646881103515625,2.61688232421875,1,2.0,1.0,1.0,2.0,100.00
2021-04-05 17:41:23.642,0.30791247,0.77546024,0.84500366,0.10400935,0.057455033,0.39828992,0.46453908,0.48691556,0.4957875,0.22795667,0.51248074,0.0609727,0.66106594,0.53218865,0.6644636,0.8538599,0.027336426,0.32791924,0.17207584,0.43637824,834.87177,785.31134,776.4469,786.52014,549.59705,-0.1837158203125,0.0625,0.9676513671875,-3.33465576171875,-14.95361328125,6.759033203125,1,2.0,1.0,1.0,2.0,100.00
2021-04-05 17:41:24.148,1.6392564,0.8285192,0.8328513,0.10400935,1.5105141,0.6068062,0.41639116,0.48691556,0.9068265,0.4918862,0.53760505,0.0609727,0.8765802,0.62580615,0.647484,0.8538599,0.525231,0.24573326,0.22423841,0.43637824,830.84247,802.6374,799.011,856.2271,908.60803,0.0048828125,0.07427978515625,1.00531005859375,5.719757080078125,0.58319091796875,0.67291259765625,1,1.0,1.0,1.0,1.0,100.00
2021-04-05 17:41:24.484,,,,,,,,,,,,,,,,,,,,,,,,,,,,,,,,,,,,,,/muse/elements/blink
2021-04-05 17:41:24.657,1.6392564,0.8285192,0.84656066,0.10400935,1.5105141,0.6068062,0.1818229,0.48691556,0.9068265,0.4918862,0.48821834,0.0609727,0.8765802,0.62580615,0.6367238,0.8538599,0.525231,0.24573326,0.22872229,0.43637824,821.978,792.1612,794.17584,773.22345,745.42126,-0.12103271484375,0.06689453125,0.98858642578125,0.186920166015625,-3.78326416015625,-0.76263427734375,1,1.0,1.0,1.0,1.0,100.00
2021-04-05 17:41:24.893,,,,,,,,,,,,,,,,,,,,,,,,,,,,,,,,,,,,,,/muse/elements/blink
2021-04-05 17:41:25.165,1.6392564,0.8285192,0.7197503,0.10400935,1.5105141,0.6068062,0.16565393,0.48691556,0.9068265,0.4918862,0.09463252,0.0609727,0.8765802,0.62580615,0.60442895,0.8538599,0.525231,0.24573326,0.38331932,0.43637824,790.54944,772.4176,780.07324,764.35895,769.59705,-0.08953857421875,0.02984619140625,0.99029541015625,4.14215087890625,-4.777679443359375,1.27105712890625,1,1.0,1.0,1.0,1.0,100.00
2021-04-05 17:41:25.584,,,,,,,,,,,,,,,,,,,,,,,,,,,,,,,,,,,,,,/muse/elements/blink
2021-04-05 17:41:25.681,1.6392564,0.7546287,0.7197503,0.10400935,1.5105141,0.17021917,0.16565393,0.48691556,0.9068265,0.10034195,0.09463252,0.0609727,0.8765802,0.36247477,0.60442895,0.8538599,0.525231,-0.0059731263,0.38331932,0.43637824,830.4396,787.326,786.52014,883.6264,1073.8096,-0.22625732421875,0.0885009765625,0.965576171875,20.359344482421875,10.504913330078125,6.05621337890625,1,1.0,1.0,1.0,1.0,100.00
2021-04-05 17:41:26.195,1.6392564,0.7933624,0.5563138,0.10400935,1.5105141,0.12668838,0.15564747,0.48691556,0.9068265,0.16810983,0.1247849,0.0609727,0.8765802,0.38835067,0.51286614,0.8538599,0.525231,0.080811985,0.23912154,0.43637824,793.7729,782.0879,759.5238,815.9341,857.4359,-0.28057861328125,0.1131591796875,0.9683837890625,12.56103515625,5.802001953125,1.36077880859375,1,1.0,1.0,1.0,1.0,100.00
2021-04-05 17:41:26.697,1.6392564,0.7933624,0.5520155,0.10400935,1.5105141,0.12668838,0.11812199,0.48691556,0.9068265,0.16810983,0.19802526,0.0609727,0.8765802,0.38835067,0.48097402,0.8538599,0.525231,0.080811985,0.27087766,0.43637824,757.1062,751.8681,744.21246,734.1392,660.40295,-0.3292236328125,0.16888427734375,0.94097900390625,4.725341796875,-6.048736572265625,2.400054931640625,1,2.0,1.0,1.0,2.0,100.00
2021-04-05 17:41:27.204,1.6392564,0.85561585,0.5548776,0.10400935,1.5105141,0.10682452,0.059776448,0.48691556,0.9068265,0.11721313,0.15803978,0.0609727,0.8765802,0.39550114,0.46883032,0.8538599,0.525231,0.08361813,0.28667176,0.43637824,794.17584,749.0476,780.87915,749.45056,792.5641,-0.28857421875,0.15325927734375,0.93865966796875,1.9439697265625,-9.473114013671875,1.48040771484375,1,2.0,1.0,1.0,2.0,100.00
2021-04-05 17:41:27.724,1.6392564,0.85561585,0.5207227,0.10400935,1.5105141,0.10682452,-0.006225812,0.48691556,0.9068265,0.11721313,0.104002595,0.0609727,0.8765802,0.39550114,0.4020899,0.8538599,0.525231,0.08361813,0.3469951,0.43637824,804.2491,779.2674,787.326,815.9341,933.5897,-0.27978515625,0.1329345703125,0.95745849609375,7.01324462890625,-5.7421875,3.790740966796875,1,2.0,1.0,1.0,2.0,100.00
2021-04-05 17:41:28.239,1.6392564,0.85561585,0.5207227,1.030691,1.5105141,0.10682452,-0.006225812,0.25545186,0.9068265,0.11721313,0.104002595,0.2814431,0.8765802,0.39550114,0.4020899,0.93647826,0.525231,0.08361813,0.3469951,0.4400917,773.22345,780.4762,784.5055,738.1685,640.65936,-0.2569580078125,0.15740966796875,0.95965576171875,4.658050537109375,-6.945953369140625,15.2227783203125,1,1.0,1.0,1.0,1.0,100.00
2021-04-05 17:41:28.747,0.56017214,0.85561585,0.5207227,1.030691,0.21140955,0.10682452,-0.006225812,0.25545186,0.6214557,0.11721313,0.104002595,0.2814431,0.8908189,0.39550114,0.4020899,0.93647826,0.4593781,0.08361813,0.3469951,0.4400917,795.78754,805.4579,774.0293,799.41394,594.7253,-0.15533447265625,0.13177490234375,0.96636962890625,-8.6431884765625,-11.484375,22.049102783203125,1,1.0,1.0,1.0,1.0,100.00
2021-04-05 17:41:29.254,0.43350253,0.85561585,0.5207227,1.030691,0.2262301,0.10682452,-0.006225812,0.25545186,0.643582,0.11721313,0.104002595,0.2814431,0.87726307,0.39550114,0.4020899,0.93647826,0.60140955,0.08361813,0.3469951,0.4400917,784.5055,802.6374,792.5641,761.53845,669.2674,-0.14776611328125,0.0623779296875,0.99224853515625,-0.231781005859375,-4.044952392578125,2.1533203125,1,1.0,1.0,1.0,1.0,100.00
2021-04-05 17:41:29.773,0.42522156,0.85561585,0.5207227,1.030691,0.18564631,0.10682452,-0.006225812,0.25545186,0.7435829,0.11721313,0.104002595,0.2814431,0.8431411,0.39550114,0.4020899,0.93647826,0.5527495,0.08361813,0.3469951,0.4400917,818.7546,808.68134,786.9231,853.00366,880.40295,-0.1650390625,0.04193115234375,0.99334716796875,5.495452880859375,-3.2598876953125,-4.80010986328125,1,1.0,1.0,1.0,1.0,100.00
2021-04-05 17:41:30.181,,,,,,,,,,,,,,,,,,,,,,,,,,,,,,,,,,,,,,/muse/elements/blink
2021-04-05 17:41:30.285,0.39022234,0.85561585,0.5207227,1.030691,0.30992466,0.10682452,-0.006225812,0.25545186,0.6842605,0.11721313,0.104002595,0.2814431,0.7910567,0.39550114,0.4020899,0.93647826,0.5787034,0.08361813,0.3469951,0.4400917,844.94507,778.0586,780.07324,869.5238,761.9414,-0.11859130859375,0.040283203125,0.99310302734375,9.0020751953125,-2.400054931640625,-31.783905029296875,1,1.0,1.0,1.0,1.0,100.00
2021-04-05 17:41:30.661,,,,,,,,,,,,,,,,,,,,,,,,,,,,,,,,,,,,,,/muse/elements/blink
2021-04-05 17:41:30.810,0.4499421,0.85561585,0.5207227,1.030691,0.31012157,0.10682452,-0.006225812,0.25545186,0.6151418,0.11721313,0.104002595,0.2814431,0.73121184,0.39550114,0.4020899,0.93647826,0.4584569,0.08361813,0.3469951,0.4400917,784.90845,749.45056,788.1319,753.0769,806.6667,0.01641845703125,0.0556640625,0.99798583984375,15.6414794921875,-26.2884521484375,-64.12857055664062,1,1.0,1.0,1.0,1.0,100.00
2021-04-05 17:41:31.316,0.5703337,0.85561585,0.5207227,1.030691,0.51830333,0.10682452,-0.006225812,0.25545186,0.5916445,0.11721313,0.104002595,0.2814431,0.7501146,0.39550114,0.4020899,0.93647826,0.45175654,0.08361813,0.3469951,0.4400917,801.4286,843.73627,840.9158,757.1062,853.4066,0.091064453125,0.0804443359375,1.032470703125,4.224395751953125,-15.275115966796875,6.841278076171875,1,1.0,1.0,1.0,1.0,100.00
2021-04-05 17:41:31.829,0.5703337,0.85561585,0.5207227,1.030691,0.51830333,0.10682452,-0.006225812,0.25545186,0.5916445,0.11721313,0.104002595,0.2814431,0.7501146,0.39550114,0.4020899,0.93647826,0.45175654,0.08361813,0.3469951,0.4400917,799.011,728.49817,794.17584,845.34796,798.60803,0.060791015625,0.062744140625,1.009765625,-0.037384033203125,0.059814453125,3.327178955078125,1,1.0,1.0,1.0,1.0,100.00
2021-04-05 17:41:32.353,0.6938287,0.85561585,0.5207227,1.030691,0.5808602,0.10682452,-0.006225812,0.25545186,1.0325007,0.11721313,0.104002595,0.2814431,0.9731608,0.39550114,0.4020899,0.93647826,0.58692795,0.08361813,0.3469951,0.4400917,838.9011,759.12085,797.3993,872.74725,831.2454,0.0946044921875,0.01385498046875,0.98431396484375,2.64678955078125,-4.964599609375,4.5159912109375,1,1.0,1.0,1.0,1.0,100.00
2021-04-05 17:41:32.862,0.5725159,0.85561585,0.5207227,1.030691,0.6450708,0.10682452,-0.006225812,0.25545186,1.0570453,0.11721313,0.104002595,0.2814431,1.0274118,0.39550114,0.4020899,0.93647826,0.68847334,0.08361813,0.3469951,0.4400917,799.011,778.86444,794.57874,829.2308,768.3883,0.1610107421875,0.0247802734375,1.01708984375,-0.530853271484375,-4.18701171875,-4.044952392578125,1,1.0,1.0,1.0,1.0,100.00
2021-04-05 17:41:32.895,,,,,,,,,,,,,,,,,,,,,,,,,,,,,,,,,,,,,,/muse/elements/blink
2021-04-05 17:41:33.392,0.5725159,0.85561585,0.6372449,1.030691,0.6450708,0.10682452,0.48042852,0.25545186,1.0570453,0.11721313,0.42660758,0.2814431,1.0274118,0.39550114,0.45164654,0.93647826,0.68847334,0.08361813,0.25858903,0.4400917,750.65936,793.7729,786.52014,712.7839,778.46155,0.11590576171875,0.00506591796875,1.00616455078125,2.34771728515625,-8.673095703125,-2.22808837890625,1,1.0,1.0,1.0,1.0,100.00
2021-04-05 17:41:33.896,0.335668,0.85561585,0.67369056,1.030691,0.71885884,0.10682452,0.376636,0.25545186,0.9373107,0.11721313,0.43177152,0.2814431,1.0394949,0.39550114,0.4236642,0.93647826,0.7373948,0.08361813,0.2615833,0.4400917,813.1135,820.3663,803.8461,764.7619,729.707,0.12176513671875,-0.00946044921875,0.987060546875,5.211334228515625,-7.349700927734375,-0.7177734375,1,1.0,1.0,1.0,1.0,100.00
2021-04-05 17:41:34.405,0.335668,0.85561585,0.52453494,1.030691,0.71885884,0.10682452,0.28151888,0.25545186,0.9373107,0.11721313,0.4754584,0.2814431,1.0394949,0.39550114,0.43637368,0.93647826,0.7373948,0.08361813,0.21468058,0.4400917,729.707,840.5128,797.3993,741.79486,831.2454,0.13055419921875,3.0517578125E-4,0.980224609375,0.95703125,-0.83740234375,-0.381317138671875,1,1.0,1.0,1.0,1.0,100.00
2021-04-05 17:41:34.630,,,,,,,,,,,,,,,,,,,,,,,,,,,,,,,,,,,,,,/muse/elements/blink
2021-04-05 17:41:34.915,0.335668,0.85561585,0.5587252,1.030691,0.71885884,0.10682452,0.13634153,0.25545186,0.9373107,0.11721313,0.31644577,0.2814431,1.0394949,0.39550114,0.45627227,0.93647826,0.7373948,0.08361813,0.16568461,0.4400917,797.3993,739.3773,792.1612,753.47986,608.022,0.119140625,-0.01885986328125,0.99420166015625,1.495361328125,-0.59814453125,-1.016845703125,1,1.0,1.0,1.0,1.0,100.00
2021-04-05 17:41:35.427,0.335668,0.85561585,0.5865207,1.030691,0.71885884,0.10682452,0.05980062,0.25545186,0.9373107,0.11721313,0.32320377,0.2814431,1.0394949,0.39550114,0.4906631,0.93647826,0.7373948,0.08361813,0.018227244,0.4400917,840.9158,764.7619,823.5897,825.2015,863.0769,0.1778564453125,0.02423095703125,1.00567626953125,5.86181640625,-5.18890380859375,1.009368896484375,1,2.0,1.0,1.0,2.0,100.00
2021-04-05 17:41:35.945,0.335668,0.85561585,0.6495711,1.030691,0.71885884,0.10682452,0.095625214,0.25545186,0.9373107,0.11721313,0.31921464,0.2814431,1.0394949,0.39550114,0.5311331,0.93647826,0.7373948,0.08361813,0.1316803,0.4400917,804.2491,742.6007,780.07324,842.1245,971.8681,0.1278076171875,-9.765625E-4,0.972900390625,8.73291015625,-8.635711669921875,0.515899658203125,1,2.0,1.0,1.0,2.0,100.00
2021-04-05 17:41:36.463,0.335668,0.85561585,0.5719915,1.030691,0.71885884,0.10682452,0.106793255,0.25545186,0.9373107,0.11721313,0.35429138,0.2814431,1.0394949,0.39550114,0.48233095,0.93647826,0.7373948,0.08361813,0.16929987,0.4400917,782.8938,771.6117,790.14655,729.707,758.315,0.16107177734375,0.019775390625,1.0015869140625,7.05810546875,-11.147918701171875,3.2000732421875,1,2.0,1.0,1.0,2.0,100.00
2021-04-05 17:41:36.973,0.335668,0.85561585,0.3871385,1.030691,0.71885884,0.10682452,-0.032094773,0.25545186,0.9373107,0.11721313,0.35195157,0.2814431,1.0394949,0.39550114,0.53347296,0.93647826,0.7373948,0.08361813,0.26393175,0.4400917,817.5458,776.8498,811.0989,795.78754,860.65936,0.16595458984375,-6.103515625E-4,1.01190185546875,-0.082244873046875,-7.9852294921875,-0.710296630859375,1,2.0,1.0,1.0,2.0,100.00
2021-04-05 17:41:37.486,0.37708327,0.85561585,0.29754508,0.49962488,0.37803727,0.10682452,-0.06994391,0.40766913,0.7879821,0.11721313,0.40772483,0.73136294,0.7487836,0.39550114,0.45938042,0.9551276,0.8618868,0.08361813,0.23392485,0.42323217,806.6667,652.74725,804.65204,743.4066,689.011,0.137939453125,-0.02947998046875,1.0186767578125,-7.91046142578125,-1.60003662109375,9.951629638671875,1,1.0,1.0,1.0,1.0,100.00
2021-04-05 17:41:37.989,1.0048137,0.85561585,0.32625324,1.0991182,0.9267846,0.10682452,-0.04095492,0.93384755,1.1721675,0.11721313,0.42549556,1.0711697,0.86241853,0.39550114,0.45427513,0.89503485,0.8336882,0.08361813,0.2643683,0.47309715,884.83514,871.9414,792.5641,923.5165,803.0403,0.13568115234375,0.02008056640625,0.99798583984375,11.043243408203125,-4.29168701171875,4.7552490234375,1,1.0,1.0,1.0,1.0,100.00
2021-04-05 17:41:38.091,,,,,,,,,,,,,,,,,,,,,,,,,,,,,,,,,,,,,,/muse/elements/blink
2021-04-05 17:41:38.498,1.1206628,0.85561585,0.58941114,1.2203208,1.04386,0.10682452,0.21695283,1.0575528,1.1460617,0.11721313,0.40464038,1.0711697,0.8684153,0.39550114,0.33496198,0.7962593,0.8198876,0.08361813,0.2364202,0.5217285,927.1429,664.83514,825.6044,996.8498,1079.0476,0.1455078125,0.02264404296875,0.97540283203125,7.6263427734375,-0.710296630859375,-1.577606201171875,1,1.0,1.0,1.0,1.0,100.00
2021-04-05 17:41:39.007,1.3735858,0.85561585,0.6702107,1.4627128,1.2800001,0.10682452,0.30851537,1.2819525,1.1401966,0.11721313,0.2083385,1.0711697,1.0094421,0.39550114,0.31613952,0.76444376,0.7794537,0.08361813,0.22706494,0.5485806,789.7436,819.5604,792.96704,771.2088,751.8681,0.10467529296875,0.0511474609375,0.957763671875,1.114044189453125,1.981353759765625,7.588958740234375,1,1.0,1.0,1.0,1.0,100.00
2021-04-05 17:41:39.529,1.3735858,0.85561585,0.6823032,1.4627128,1.2800001,0.10682452,0.28711012,1.2819525,1.1401966,0.11721313,0.50119364,1.0711697,1.0094421,0.39550114,0.3191058,0.76444376,0.7794537,0.08361813,0.25427744,0.5485806,780.07324,773.22345,801.8315,724.4689,723.663,0.1668701171875,0.05322265625,1.01385498046875,-0.16448974609375,-6.9683837890625,9.43572998046875,1,1.0,1.0,1.0,1.0,100.00
2021-04-05 17:41:40.036,1.3735858,0.85561585,0.59164375,1.4627128,1.2800001,0.10682452,0.1671797,1.2819525,1.1401966,0.11721313,0.50119364,1.0711697,1.0094421,0.39550114,0.36128703,0.76444376,0.7794537,0.08361813,0.24225648,0.5485806,811.0989,726.08057,813.1135,795.78754,846.55676,0.2989501953125,0.0469970703125,1.02008056640625,3.81317138671875,-5.42816162109375,34.684906005859375,1,1.0,1.0,1.0,1.0,100.00
2021-04-05 17:41:40.540,1.0002859,0.85561585,0.5405178,1.4627128,0.86062866,0.10682452,0.04142881,1.2819525,0.9920928,0.11721313,0.50119364,1.0711697,1.0960597,0.39550114,0.42805305,0.76444376,0.5544451,0.08361813,0.21881634,0.5485806,782.8938,716.8132,782.0879,739.7802,701.50183,0.17059326171875,-0.01409912109375,0.97900390625,6.68426513671875,-2.6019287109375,-20.927581787109375,1,1.0,1.0,1.0,1.0,100.00
2021-04-05 17:41:40.643,,,,,,,,,,,,,,,,,,,,,,,,,,,,,,,,,,,,,,/muse/elements/blink
2021-04-05 17:41:40.962,,,,,,,,,,,,,,,,,,,,,,,,,,,,,,,,,,,,,,/muse/elements/blink
2021-04-05 17:41:41.047,1.0138559,0.85561585,0.5448256,1.4627128,0.9159088,0.10682452,-0.009158593,1.2819525,1.2227882,0.11721313,-0.0970416,1.0711697,1.0455542,0.39550114,0.47698364,0.76444376,0.5095494,0.08361813,-0.041358843,0.5485806,877.5824,814.7253,834.4689,867.1062,777.25275,0.11749267578125,-0.11419677734375,0.9891357421875,5.00946044921875,-2.400054931640625,6.287994384765625,1,1.0,1.0,1.0,1.0,100.00
2021-04-05 17:41:41.558,1.0225812,0.85561585,0.5448256,1.4627128,0.92714494,0.10682452,-0.009158593,1.2819525,1.2109945,0.11721313,-0.0970416,1.0711697,0.98248065,0.39550114,0.47698364,0.76444376,0.4590905,0.08361813,-0.041358843,0.5485806,819.15753,781.685,790.9524,843.3333,831.2454,0.0731201171875,-0.12860107421875,0.9993896484375,4.837493896484375,-3.46923828125,1.1663818359375,1,1.0,1.0,1.0,1.0,100.00
2021-04-05 17:41:42.061,0.9787602,0.85561585,0.5448256,1.4627128,0.9597546,0.10682452,-0.009158593,1.2819525,1.1899534,0.11721313,-0.0970416,1.0711697,0.9166549,0.39550114,0.47698364,0.76444376,0.39189115,0.08361813,-0.041358843,0.5485806,809.4872,767.1795,790.14655,849.3773,809.0842,0.09832763671875,-0.1007080078125,0.9886474609375,6.74407958984375,-4.403839111328125,12.269439697265625,1,1.0,1.0,1.0,1.0,100.00
2021-04-05 17:41:42.567,0.9787602,0.85561585,0.3690384,1.4627128,0.9597546,0.10682452,-0.059936542,1.2819525,1.1899534,0.11721313,0.2792033,1.0711697,0.9166549,0.39550114,0.39410275,0.76444376,0.39189115,0.08361813,-0.0063550104,0.5485806,812.3077,817.9487,824.7985,787.326,854.61536,0.110595703125,-0.13818359375,0.97857666015625,8.830108642578125,2.863616943359375,8.396453857421875,1,1.0,1.0,1.0,1.0,100.00
2021-04-05 17:41:43.069,0.4850967,0.85561585,0.62359136,0.5703808,0.3793694,0.10682452,-0.029355519,0.19344896,0.70311475,0.11721313,0.2792033,0.97874254,0.69062287,0.39550114,0.44259995,1.4360545,0.25949317,0.08361813,-0.062489547,0.7477998,811.9048,750.65936,790.9524,853.8095,869.12085,0.0797119140625,-0.0966796875,0.9945068359375,7.2674560546875,-7.07305908203125,1.854248046875,1,1.0,1.0,1.0,1.0,100.00
2021-04-05 17:41:43.584,0.36564866,0.85561585,0.62602615,0.5218114,0.5049612,0.10682452,0.017712437,0.38302085,0.757135,0.11721313,0.46988,0.98993415,0.69169897,0.39550114,0.4269997,1.2598618,0.3840259,0.08361813,0.049994312,0.60652006,662.01465,814.3223,779.2674,655.9707,784.5055,0.091796875,-0.112060546875,0.99658203125,2.37762451171875,-5.001983642578125,-1.4654541015625,1,1.0,1.0,1.0,1.0,100.00
2021-04-05 17:41:43.785,,,,,,,,,,,,,,,,,,,,,,,,,,,,,,,,,,,,,,/muse/elements/blink
2021-04-05 17:41:44.091,0.36458346,0.85561585,0.67602414,0.52068263,0.57556546,0.10682452,0.04570023,0.44812316,0.69730526,0.11721313,0.46666703,0.9805487,0.6776132,0.39550114,0.4443374,1.2231821,0.42370653,0.08361813,0.07898884,0.54766464,819.5604,819.15753,809.0842,774.43225,785.7143,0.094482421875,-0.1009521484375,1.00653076171875,4.77020263671875,-0.874786376953125,-3.970184326171875,1,1.0,1.0,1.0,1.0,100.00
2021-04-05 17:41:44.597,0.16869478,0.85561585,0.47404584,0.46313584,0.644951,0.10682452,0.02674535,0.52285933,0.34088,0.11721313,0.4655647,0.6696556,0.6910759,0.39550114,0.4105855,0.94713825,0.48782358,0.08361813,0.11321042,0.3767049,807.47253,785.7143,797.3993,768.7912,1024.249,0.061767578125,-0.09326171875,0.998291015625,7.633819580078125,-5.66741943359375,-4.56085205078125,1,1.0,1.0,1.0,1.0,100.00
2021-04-05 17:41:45.018,,,,,,,,,,,,,,,,,,,,,,,,,,,,,,,,,,,,,,/muse/elements/blink
2021-04-05 17:41:45.113,0.1945933,0.85561585,0.5512779,0.45216975,0.6882268,0.10682452,0.28909194,0.5384772,0.32863432,0.11721313,0.6072251,0.6315487,0.6842549,0.39550114,0.42729223,0.95642155,0.46287104,0.08361813,0.03247558,0.34665635,952.1245,761.9414,747.4359,961.39197,744.21246,0.197021484375,-0.0516357421875,0.973876953125,16.07513427734375,-18.73687744140625,-34.273681640625,1,1.0,1.0,1.0,1.0,100.00
2021-04-05 17:41:45.638,0.1945933,0.85561585,0.5512779,0.45216975,0.6882268,0.10682452,0.28909194,0.5384772,0.32863432,0.11721313,0.6072251,0.6315487,0.6842549,0.39550114,0.42729223,0.95642155,0.46287104,0.08361813,0.03247558,0.34665635,794.57874,751.4652,799.011,846.9597,805.05493,0.26544189453125,0.0068359375,0.96014404296875,4.478607177734375,-3.835601806640625,-3.147735595703125,1,1.0,1.0,1.0,1.0,100.00
2021-04-05 17:41:46.145,0.1945933,0.85561585,0.5512779,0.45216975,0.6882268,0.10682452,0.28909194,0.5384772,0.32863432,0.11721313,0.6072251,0.6315487,0.6842549,0.39550114,0.42729223,0.95642155,0.46287104,0.08361813,0.03247558,0.34665635,791.75824,761.13556,789.7436,774.83514,676.9231,0.2567138671875,0.0196533203125,0.9720458984375,6.258087158203125,-5.465545654296875,3.409423828125,1,1.0,1.0,1.0,1.0,100.00
2021-04-05 17:41:46.495,,,,,,,,,,,,,,,,,,,,,,,,,,,,,,,,,,,,,,/muse/elements/blink
2021-04-05 17:41:46.656,0.1945933,0.85561585,0.5512779,0.45216975,0.6882268,0.10682452,0.28909194,0.5384772,0.32863432,0.11721313,0.6072251,0.6315487,0.6842549,0.39550114,0.42729223,0.95642155,0.46287104,0.08361813,0.03247558,0.34665635,826.0073,990.80585,843.3333,785.31134,671.685,0.1427001953125,-0.01727294921875,0.98309326171875,0.10467529296875,11.402130126953125,4.119720458984375,1,2.0,1.0,1.0,2.0,100.00
2021-04-05 17:41:47.161,0.1945933,0.85561585,0.5512779,0.45216975,0.6882268,0.10682452,0.28909194,0.5384772,0.32863432,0.11721313,0.6072251,0.6315487,0.6842549,0.39550114,0.42729223,0.95642155,0.46287104,0.08361813,0.03247558,0.34665635,811.50183,783.69965,861.4652,816.337,838.9011,-0.03143310546875,-0.06549072265625,0.9954833984375,3.84307861328125,13.405914306640625,8.979644775390625,1,2.0,1.0,1.0,2.0,100.00
2021-04-05 17:41:47.670,0.1945933,0.85561585,0.5512779,0.45216975,0.6882268,0.10682452,0.28909194,0.5384772,0.32863432,0.11721313,0.6072251,0.6315487,0.6842549,0.39550114,0.42729223,0.95642155,0.46287104,0.08361813,0.03247558,0.34665635,740.18317,726.08057,749.45056,726.4835,693.0403,-0.23193359375,-0.0616455078125,0.9730224609375,8.53851318359375,15.843353271484375,3.058013916015625,1,2.0,1.0,1.0,2.0,100.00
2021-04-05 17:41:47.950,,,,,,,,,,,,,,,,,,,,,,,,,,,,,,,,,,,,,,/muse/elements/jaw_clench
2021-04-05 17:41:48.060,,,,,,,,,,,,,,,,,,,,,,,,,,,,,,,,,,,,,,/muse/elements/blink
2021-04-05 17:41:48.188,0.1945933,0.85561585,0.5512779,0.45216975,0.6882268,0.10682452,0.28909194,0.5384772,0.32863432,0.11721313,0.6072251,0.6315487,0.6842549,0.39550114,0.42729223,0.95642155,0.46287104,0.08361813,0.03247558,0.34665635,790.9524,0.0,650.7326,775.2381,788.1319,-0.3013916015625,-0.00189208984375,0.958740234375,7.588958740234375,0.082244873046875,-7.245025634765625,1,2.0,1.0,1.0,2.0,100.00
2021-04-05 17:41:48.698,0.1945933,0.85561585,0.5512779,0.45216975,0.6882268,0.10682452,0.28909194,0.5384772,0.32863432,0.11721313,0.6072251,0.6315487,0.6842549,0.39550114,0.42729223,0.95642155,0.46287104,0.08361813,0.03247558,0.34665635,838.49817,1066.5568,844.94507,869.12085,1102.4176,-0.30242919921875,0.0010986328125,0.95037841796875,6.4300537109375,-6.990814208984375,0.299072265625,1,2.0,1.0,1.0,2.0,100.00
2021-04-05 17:41:49.203,0.1945933,0.85561585,0.5512779,0.45216975,0.6882268,0.10682452,0.28909194,0.5384772,0.32863432,0.11721313,0.6072251,0.6315487,0.6842549,0.39550114,0.42729223,0.95642155,0.46287104,0.08361813,0.03247558,0.34665635,782.8938,761.9414,759.12085,823.9927,794.17584,-0.3057861328125,-0.018310546875,0.9495849609375,4.50103759765625,-6.766510009765625,-0.3289794921875,1,2.0,2.0,1.0,2.0,100.00
2021-04-05 17:41:49.730,0.1945933,0.85561585,0.5512779,0.75588477,0.6882268,0.10682452,0.28909194,0.02504165,0.32863432,0.11721313,0.6072251,0.28830332,0.6842549,0.39550114,0.42729223,0.61775494,0.46287104,0.08361813,0.03247558,0.4518821,813.5165,794.9817,819.15753,787.72894,737.76556,-0.2945556640625,-0.01007080078125,0.95623779296875,5.420684814453125,-5.360870361328125,0.64300537109375,1,2.0,2.0,1.0,2.0,100.00
2021-04-05 17:41:50.236,0.5426715,0.85561585,0.5512779,0.5518305,0.4775627,0.10682452,0.28909194,0.20406468,0.27301702,0.11721313,0.6072251,0.3901729,0.7396839,0.39550114,0.42729223,0.6591025,0.29799154,0.08361813,0.03247558,0.44120196,797.3993,899.7436,797.8022,758.71796,652.3443,-0.29949951171875,-0.00384521484375,0.96954345703125,4.964599609375,-4.47113037109375,1.21124267578125,1,1.0,1.0,1.0,1.0,100.00
2021-04-05 17:41:50.584,,,,,,,,,,,,,,,,,,,,,,,,,,,,,,,,,,,,,,/muse/elements/blink
2021-04-05 17:41:50.768,0.4626316,0.85561585,0.5512779,0.50357735,0.4714824,0.10682452,0.28909194,0.26407266,0.3602732,0.11721313,0.6072251,0.6614688,0.66433495,0.39550114,0.42729223,0.6467282,0.2281778,0.08361813,0.03247558,0.3455227,796.1905,850.58606,778.0586,809.4872,786.52014,-0.24310302734375,-0.0152587890625,0.9796142578125,1.60003662109375,-18.2135009765625,8.575897216796875,1,1.0,2.0,1.0,1.0,100.00
2021-04-05 17:41:51.295,0.4464917,0.85561585,0.5512779,0.47597954,0.510011,0.10682452,0.28909194,0.5348025,0.3602732,0.11721313,0.6072251,1.006349,0.679736,0.39550114,0.42729223,0.6479464,0.19844174,0.08361813,0.03247558,0.2364044,830.84247,881.2088,809.4872,819.5604,1107.2528,-0.13800048828125,0.0040283203125,0.99420166015625,4.089813232421875,-12.142333984375,30.31097412109375,1,1.0,1.0,1.0,1.0,100.00
2021-04-05 17:41:51.807,0.23728985,0.85561585,0.5512779,0.61591816,0.520732,0.10682452,0.28909194,0.6404548,0.32879332,0.11721313,0.6072251,1.006349,0.57269496,0.39550114,0.42729223,0.6189035,-0.006462543,0.08361813,0.03247558,0.13556544,854.21246,769.59705,769.59705,873.95605,768.3883,0.1002197265625,0.0498046875,1.00390625,10.0189208984375,-16.88262939453125,-49.010467529296875,1,1.0,1.0,1.0,1.0,100.00
2021-04-05 17:41:52.313,0.23728985,0.85561585,1.2397535,0.7008614,0.520732,0.10682452,1.0282245,0.7630358,0.32879332,0.11721313,0.71231055,1.006349,0.57269496,0.39550114,0.6447978,0.6181463,-0.006462543,0.08361813,0.055756215,0.17560835,859.45056,1041.5751,821.978,812.71063,664.43225,-7.9345703125E-4,0.01806640625,0.991455078125,-1.173858642578125,8.560943603515625,19.133148193359375,1,1.0,1.0,1.0,1.0,100.00
2021-04-05 17:41:52.325,,,,,,,,,,,,,,,,,,,,,,,,,,,,,,,,,,,,,,/muse/elements/blink
2021-04-05 17:41:52.822,0.23728985,0.85561585,1.2397535,0.7008614,0.520732,0.10682452,1.0282245,0.7630358,0.32879332,0.11721313,0.71231055,1.006349,0.57269496,0.39550114,0.6447978,0.6181463,-0.006462543,0.08361813,0.055756215,0.17560835,793.36993,908.60803,792.96704,751.4652,653.5531,-0.0830078125,-0.02886962890625,1.013671875,4.732818603515625,-5.03936767578125,0.538330078125,1,1.0,1.0,1.0,1.0,100.00
2021-04-05 17:41:53.329,0.23728985,0.85561585,1.320066,0.7008614,0.520732,0.10682452,1.1147805,0.7630358,0.32879332,0.11721313,0.6268818,1.006349,0.57269496,0.39550114,0.67683345,0.6181463,-0.006462543,0.08361813,-0.03375388,0.17560835,783.2967,836.8865,798.20514,752.27106,670.07324,-0.06683349609375,-0.02099609375,1.00927734375,4.882354736328125,-6.108551025390625,4.8150634765625,1,1.0,1.0,1.0,1.0,100.00
2021-04-05 17:41:53.836,0.23728985,0.85561585,1.320066,0.7008614,0.520732,0.10682452,1.1147805,0.7630358,0.32879332,0.11721313,0.6268818,1.006349,0.57269496,0.39550114,0.67683345,0.6181463,-0.006462543,0.08361813,-0.03375388,0.17560835,817.1429,832.0513,794.17584,807.8755,750.65936,-0.0377197265625,-0.03948974609375,1.00360107421875,2.691650390625,-0.37384033203125,9.5703125,1,2.0,1.0,1.0,2.0,100.00
2021-04-05 17:41:54.343,1.1112047,0.85561585,1.320066,0.6302467,0.86853105,0.10682452,1.1147805,0.93247056,0.9337092,0.11721313,0.6268818,0.98155534,0.63165635,0.39550114,0.67683345,0.79490304,0.23223796,0.08361813,-0.03375388,0.34945798,801.4286,839.304,773.6264,743.8095,723.2601,-0.25531005859375,0.00762939453125,0.9677734375,10.116119384765625,9.8095703125,2.25799560546875,1,1.0,1.0,1.0,1.0,100.00
2021-04-05 17:41:54.858,1.0435013,0.85561585,0.3889577,0.6700174,0.7689087,0.10682452,-0.27260172,0.79710877,0.9391935,0.11721313,0.14268208,0.98155534,0.6084898,0.39550114,0.4552501,0.8714224,0.28217322,0.08361813,0.43798026,0.40436596,753.8828,768.7912,761.13556,724.87177,765.56775,-0.2559814453125,0.02545166015625,0.96466064453125,5.959014892578125,-10.09368896484375,-0.575714111328125,1,1.0,1.0,1.0,1.0,100.00
2021-04-05 17:41:55.362,1.0159366,0.85561585,0.3889577,0.70450944,0.73022324,0.10682452,-0.27260172,0.77719355,0.9391935,0.11721313,0.14268208,0.98155534,0.58276755,0.39550114,0.4552501,0.9008886,0.30971253,0.08361813,0.43798026,0.43034655,801.4286,792.1612,770.80585,806.6667,705.5311,-0.23919677734375,0.02886962890625,0.96832275390625,4.358978271484375,-6.2506103515625,2.5421142578125,1,1.0,1.0,1.0,1.0,100.00
2021-04-05 17:41:55.872,0.8668901,0.85561585,0.3889577,0.792712,0.39982444,0.10682452,-0.27260172,0.34336832,0.59073836,0.11721313,0.14268208,0.64235705,0.6558021,0.39550114,0.4552501,0.91923714,0.33493364,0.08361813,0.43798026,0.46693695,799.81683,794.9817,767.98535,830.4396,879.59705,-0.2255859375,0.03070068359375,0.9681396484375,4.246826171875,-5.921630859375,3.357086181640625,1,1.0,1.0,1.0,1.0,100.00
2021-04-05 17:41:56.383,0.925909,0.85561585,0.3889577,0.60135716,0.6138302,0.10682452,-0.27260172,0.21845293,0.5536272,0.11721313,0.14268208,0.5818001,0.8575886,0.39550114,0.4552501,0.8079815,0.18423806,0.08361813,0.43798026,0.33105117,795.78754,791.75824,782.8938,767.1795,782.0879,-0.2139892578125,0.03924560546875,0.97686767578125,4.747772216796875,-5.30853271484375,1.248626708984375,1,1.0,1.0,1.0,1.0,100.00
2021-04-05 17:41:56.898,0.7016038,0.9925434,0.6301223,0.44238192,0.43886763,0.5610437,0.16015139,0.13679597,0.5830663,0.12236151,0.58176595,0.6300532,0.7591353,0.4193788,0.43047008,0.76284903,0.15461086,-0.13714916,-0.013623645,0.30864862,803.0403,819.15753,794.9817,763.1502,828.022,-0.21343994140625,0.0372314453125,0.97235107421875,4.74029541015625,-4.35150146484375,1.517791748046875,1,1.0,1.0,1.0,1.0,100.00
2021-04-05 17:41:57.407,0.5688015,0.853634,0.6023091,0.25389242,0.3836055,0.4370886,0.22445866,0.07654388,0.5182421,0.36058772,0.58363646,0.4846952,0.71718115,0.32046437,0.39034048,0.78048074,0.13595279,-0.10540303,-0.01974447,0.29492363,800.6227,800.2198,799.41394,809.4872,763.5531,-0.16375732421875,0.029541015625,0.99688720703125,4.42626953125,-14.781646728515625,7.6263427734375,1,1.0,1.0,1.0,1.0,100.00
2021-04-05 17:41:57.915,0.12659068,0.8713302,0.54822224,0.22237079,0.094304875,0.32035905,0.21316846,0.16128987,0.47120926,0.45259967,0.46113434,0.4278503,0.5752406,0.23882121,0.33637813,0.7387725,0.13081826,0.017989771,-0.01895925,0.30853844,772.8205,804.65204,796.99634,741.79486,663.6264,-0.0606689453125,0.0390625,1.0057373046875,5.211334228515625,-8.575897216796875,0.88226318359375,1,1.0,1.0,1.0,1.0,100.00
2021-04-05 17:41:58.427,0.13059133,0.7264442,0.52454674,0.23650655,0.10553871,0.18160105,0.29966486,0.2700207,0.47120926,0.45381543,0.38521913,0.32454422,0.51231974,0.36114284,0.29388937,0.81237227,0.119755864,3.3624223E-5,-0.07284895,0.30419832,816.337,815.5311,801.4286,768.3883,759.92676,-0.07562255859375,0.00994873046875,0.98358154296875,-0.07476806640625,-5.241241455078125,10.250701904296875,1,1.0,1.0,1.0,1.0,100.00
2021-04-05 17:41:58.949,0.63012856,0.6977214,0.52454674,0.5987047,0.49680582,0.14389704,0.29966486,0.7685602,0.56555945,0.45085695,0.38521913,0.89659745,0.70772547,0.37621364,0.29388937,0.96374995,0.20898964,-5.2806E-4,-0.07284895,0.5761875,798.20514,786.1172,768.3883,817.9487,836.4835,-0.11187744140625,0.0120849609375,1.003173828125,9.94415283203125,-5.48797607421875,4.42626953125,1,1.0,1.0,1.0,1.0,100.00
2021-04-05 17:41:59.198,,,,,,,,,,,,,,,,,,,,,,,,,,,,,,,,,,,,,,/muse/elements/blink
2021-04-05 17:41:59.457,0.63012856,0.45489386,0.20744336,0.5987047,0.49680582,0.08297074,-0.115511805,0.7685602,0.56555945,0.31028485,0.07784102,0.89659745,0.70772547,0.40807036,0.5162202,0.96374995,0.20898964,-0.09512544,0.056106426,0.5761875,901.3553,1199.9268,844.5421,951.31866,832.4542,-0.13165283203125,0.09820556640625,0.98663330078125,14.90875244140625,0.2093505859375,-15.678863525390625,1,1.0,1.0,1.0,1.0,100.00
2021-04-05 17:41:59.509,,,,,,,,,,,,,,,,,,,,,,,,,,,,,,,,,,,,,,/muse/elements/blink
2021-04-05 17:41:59.977,0.63012856,0.49171755,0.20744336,0.6154102,0.49680582,0.14060625,-0.115511805,0.80420923,0.56555945,0.22746226,0.07784102,0.89659745,0.70772547,0.2894107,0.5162202,0.9548371,0.20898964,-0.08958509,0.056106426,0.62014705,815.12823,856.63007,801.02563,782.0879,719.6337,-0.17449951171875,0.1053466796875,0.974365234375,4.912261962890625,-1.1065673828125,-0.25421142578125,1,1.0,1.0,1.0,1.0,100.00
2021-04-05 17:42:00.497,0.6058155,0.5068877,0.23508333,0.66440046,0.5243367,0.22801997,-0.14856718,0.86694425,0.52849793,0.14975525,0.0100568775,0.89358276,0.6808692,0.29479375,0.51080644,0.9477184,0.19647364,-0.13510935,0.01471508,0.6490523,776.4469,825.2015,792.1612,743.8095,647.50916,-0.1995849609375,0.07513427734375,0.980224609375,2.58697509765625,-3.21502685546875,6.781463623046875,1,1.0,1.0,1.0,1.0,100.00
2021-04-05 17:42:01.024,0.6058155,0.5068877,0.23508333,0.66440046,0.5243367,0.22801997,-0.14856718,0.86694425,0.52849793,0.14975525,0.0100568775,0.89358276,0.6808692,0.29479375,0.51080644,0.9477184,0.19647364,-0.13510935,0.01471508,0.6490523,822.381,832.4542,796.5934,832.0513,871.53845,-0.2115478515625,0.07550048828125,0.971923828125,5.630035400390625,-5.764617919921875,0.411224365234375,1,1.0,1.0,1.0,1.0,100.00
2021-04-05 17:42:01.549,0.6058155,0.5068877,0.7909314,0.6149569,0.5243367,0.22801997,0.6531759,0.597963,0.52849793,0.14975525,0.534978,1.1310489,0.6808692,0.29479375,0.32673508,0.5217822,0.19647364,-0.13510935,0.29443845,0.28786194,814.3223,799.81683,763.1502,832.4542,786.9231,-0.20751953125,0.0751953125,0.97906494140625,4.246826171875,-4.41131591796875,0.3289794921875,1,1.0,1.0,1.0,1.0,100.00
2021-04-05 17:42:01.972,,,,,,,,,,,,,,,,,,,,,,,,,,,,,,,,,,,,,,/muse/elements/blink
2021-04-05 17:42:02.056,0.47983432,0.81460756,0.7945489,0.5402087,0.6529352,0.3274608,0.66165835,0.565063,0.69466174,0.20830348,0.58613944,1.1340051,0.59781456,0.2775913,0.34374446,0.58608747,0.42711657,0.07376049,0.27058583,0.34980825,828.4249,795.78754,770.40295,865.4945,801.4286,-0.213134765625,0.05902099609375,0.97393798828125,4.448699951171875,-4.717864990234375,0.97198486328125,1,1.0,1.0,1.0,1.0,100.00
2021-04-05 17:42:02.572,0.47983432,0.81460756,0.9243283,0.3341244,0.6529352,0.3274608,0.6480024,0.52337986,0.69466174,0.20830348,0.73367953,1.0085704,0.59781456,0.2775913,0.43821973,0.619941,0.42711657,0.07376049,0.16605,0.35584,780.4762,806.6667,787.326,729.304,628.97437,-0.18218994140625,0.04901123046875,0.98431396484375,3.910369873046875,-10.041351318359375,-1.5850830078125,1,1.0,1.0,1.0,1.0,100.00
2021-04-05 17:42:03.088,0.47983432,0.8109176,0.9235425,-0.048849124,0.6529352,0.25275457,0.55539316,0.46992868,0.69466174,0.14358203,0.7289735,0.68827486,0.59781456,0.29774112,0.48258618,0.6797727,0.42711657,0.11543523,0.078783095,0.43331048,767.1795,792.96704,780.4762,746.63007,622.9304,-0.17388916015625,0.03887939453125,0.99359130859375,4.194488525390625,-3.529052734375,0.171966552734375,1,1.0,1.0,1.0,1.0,100.00
2021-04-05 17:42:03.600,0.8984049,0.49845603,0.77638906,0.91900533,0.5471029,-0.12574399,0.30390838,0.67462456,0.40324086,0.07059938,0.7198202,0.47790185,0.75382096,0.41674814,0.47501588,0.6486843,0.16589889,-0.035915107,0.013707751,0.3204633,811.50183,816.337,805.8608,776.04395,797.8022,-0.1981201171875,0.04193115234375,0.9796142578125,4.104766845703125,-3.611297607421875,-0.052337646484375,1,1.0,1.0,1.0,1.0,100.00
2021-04-05 17:42:04.117,1.000974,0.38479632,0.5153358,0.98561865,0.69890904,-0.18264817,-0.1499765,0.77270144,0.65829635,0.101790175,0.13648413,0.6935259,0.7744396,0.40314415,0.4019569,0.6957208,0.08202424,-0.048143577,-0.0057937955,0.27716374,810.696,800.2198,790.9524,823.5897,925.5311,-0.19036865234375,0.03753662109375,0.97991943359375,4.942169189453125,-6.377716064453125,0.844879150390625,1,1.0,1.0,1.0,1.0,90.00
2021-04-05 17:42:04.623,0.89858186,0.21553345,0.5243101,0.8938835,0.5724461,-0.29372302,-0.072599694,0.66036916,0.65829635,0.118940085,0.1580159,0.70555997,0.6983095,0.4027285,0.33248767,0.6504854,0.07690564,-0.074024394,-0.03799169,0.2554594,701.9048,750.65936,775.2381,730.5128,692.23444,-0.1522216796875,0.02154541015625,1.00091552734375,0.49346923828125,-7.873077392578125,2.534637451171875,1,1.0,1.0,1.0,1.0,90.00
2021-04-05 17:42:04.921,,,,,,,,,,,,,,,,,,,,,,,,,,,,,,,,,,,,,,/muse/elements/blink
2021-04-05 17:42:05.126,0.8986604,0.1281031,0.5362869,0.88223416,0.58325183,-0.35458532,-0.033947952,0.65388006,0.65828,-0.03541685,0.118861236,0.70555997,0.67116034,0.38340226,0.2479922,0.65128344,0.030628785,-0.088727474,-0.037443347,0.2231199,825.6044,820.3663,799.011,781.685,747.8388,-0.177978515625,-0.04571533203125,0.98345947265625,-2.4224853515625,-4.366455078125,-1.114044189453125,1,1.0,1.0,1.0,1.0,90.00
2021-04-05 17:42:05.640,0.50256145,0.053614177,0.5998375,0.56673276,-0.048334546,-0.4715617,0.106734544,0.18648915,0.28117096,-0.090108946,0.10168802,0.504986,0.45334727,0.3805498,0.11580244,0.5272825,0.06516332,-0.115751155,-0.07250361,0.20225374,810.293,774.0293,781.685,839.304,882.01465,-0.1549072265625,-0.0643310546875,0.995361328125,-0.13458251953125,-5.929107666015625,-5.674896240234375,1,1.0,1.0,1.0,1.0,90.00
2021-04-05 17:42:06.153,0.50256145,0.13189425,0.5998375,0.56673276,-0.048334546,-0.505779,0.106734544,0.18648915,0.28117096,-0.095773056,0.10168802,0.504986,0.45334727,0.36703905,0.11580244,0.5272825,0.06516332,-0.124396406,-0.07250361,0.20225374,814.3223,793.36993,805.8608,857.8388,723.2601,-0.12188720703125,-0.04266357421875,0.99188232421875,4.725341796875,-2.564544677734375,2.70660400390625,1,1.0,1.0,1.0,1.0,90.00
2021-04-05 17:42:06.661,0.983388,0.13189425,0.8499719,0.56673276,0.20277523,-0.505779,0.24529018,0.18648915,0.863404,-0.095773056,0.38493004,0.504986,0.6634619,0.36703905,0.504715,0.5272825,-0.09394819,-0.124396406,-0.28052557,0.20225374,808.2784,800.2198,785.7143,809.4872,858.24176,-0.24749755859375,-0.0318603515625,0.97772216796875,12.478790283203125,12.381591796875,-2.355194091796875,1,1.0,1.0,1.0,1.0,90.00
2021-04-05 17:42:07.187,0.88974196,0.13189425,0.89474046,0.56673276,0.20124157,-0.505779,0.1724216,0.18648915,0.88543826,-0.095773056,0.38493004,0.504986,0.6490624,0.36703905,0.49383178,0.5272825,-0.119178034,-0.124396406,-0.21316265,0.20225374,809.4872,803.8461,790.14655,783.69965,756.30035,-0.27716064453125,-0.0198974609375,0.954345703125,7.588958740234375,-4.65057373046875,-0.2392578125,1,1.0,1.0,1.0,1.0,90.00
2021-04-05 17:42:07.712,0.7828282,0.29844,0.8914314,0.56673276,0.15783873,-0.024479117,0.059571445,0.18648915,0.86505204,0.3882877,0.36869892,0.504986,0.60064656,0.44395387,0.4319041,0.5272825,-0.0030344836,-0.010468494,-0.087376036,0.20225374,794.17584,791.75824,774.0293,801.4286,728.49817,-0.24542236328125,0.02056884765625,0.97454833984375,3.970184326171875,-5.802001953125,2.76641845703125,1,1.0,1.0,1.0,1.0,90.00
2021-04-05 17:42:08.214,0.53557205,0.40291443,0.8459362,0.45043126,0.19621651,-0.08668678,-0.16372435,0.21542457,0.75133544,0.3882877,0.011409771,0.41558546,0.57652235,0.3762884,0.34869888,0.80182266,0.041744046,-0.07059572,-0.0037416534,0.23215918,796.1905,796.5934,796.99634,766.3736,747.03296,-0.26385498046875,0.025390625,0.97442626953125,6.228179931640625,-6.83380126953125,2.07855224609375,1,1.0,1.0,1.0,1.0,90.00
2021-04-05 17:42:08.728,0.7919909,0.5165639,0.9466508,0.7509355,0.70191246,-0.014157571,0.21971704,0.6308804,0.9929835,0.36003768,0.5395157,0.79644555,0.6495653,0.38031334,0.3491061,0.8437545,0.105955735,-0.062375776,0.0063040107,0.36800364,789.7436,748.24176,767.1795,823.9927,792.96704,-0.2474365234375,0.02471923828125,0.9715576171875,5.375823974609375,-7.64129638671875,0.6280517578125,1,1.0,1.0,1.0,1.0,90.00
2021-04-05 17:42:09.260,0.862975,0.65622073,1.0424165,0.7154183,0.73782897,-0.0046539973,0.36260015,0.5013092,0.9929835,0.044280574,0.5283352,0.7998371,0.7334527,0.31398037,0.38585943,0.8241922,0.038944248,-0.15338288,-0.022903241,0.3114175,782.49084,779.67035,817.9487,837.28937,908.20514,-0.22442626953125,0.0172119140625,0.976318359375,4.882354736328125,-5.914154052734375,1.383209228515625,1,1.0,1.0,1.0,1.0,90.00
2021-04-05 17:42:09.762,1.0006424,0.7909403,1.0424165,0.73424673,0.740263,0.09844884,0.36260015,0.4661074,0.9929835,0.0011470484,0.5283352,0.7998371,0.7309994,0.34795317,0.38585943,0.7529143,-0.011540881,-0.21452717,-0.022903241,0.2568057,804.65204,785.31134,789.7436,827.2161,938.8278,-0.2259521484375,0.02703857421875,0.972412109375,5.316009521484375,-5.001983642578125,5.2337646484375,1,1.0,1.0,1.0,1.0,90.00
2021-04-05 17:42:10.275,0.8720519,0.7909403,1.0063769,0.5237934,0.22250445,0.09844884,0.55285615,0.015685208,0.5491193,0.0011470484,0.65470177,0.60593,0.62897724,0.34795317,0.6489859,0.6609306,-0.017167194,-0.21452717,7.473418E-4,0.10586674,780.87915,788.5348,780.87915,750.65936,652.3443,-0.22467041015625,0.0322265625,0.97650146484375,4.725341796875,-3.75335693359375,0.79254150390625,1,1.0,1.0,1.0,1.0,90.00
2021-04-05 17:42:10.784,0.84959215,0.13871075,0.92575663,0.39333937,0.22146314,0.04132797,0.38018143,-0.024650328,0.50440997,0.29664478,0.6562795,0.5605587,0.5405658,0.14924712,0.5496233,0.57545584,0.018640533,0.050228313,0.034479294,0.1472725,810.293,793.36993,807.0696,778.86444,765.9707,-0.22222900390625,0.029296875,0.97442626953125,3.566436767578125,-6.86370849609375,-1.016845703125,1,1.0,1.0,1.0,1.0,90.00
2021-04-05 17:42:11.291,0.67060655,-0.015033049,0.9165731,0.32283473,0.10646317,-0.027263932,0.3600299,0.10100933,0.4957178,0.31340703,0.6562795,0.54368085,0.48541752,0.19295205,0.53527695,0.58093,0.122956,0.0018281313,0.056530435,0.2344904,799.011,786.52014,780.07324,813.1135,807.47253,-0.22430419921875,0.02374267578125,0.97271728515625,3.581390380859375,-4.000091552734375,0.34393310546875,1,1.0,1.0,1.0,1.0,90.00
2021-04-05 17:42:11.796,0.5164062,-0.04870432,0.7607012,0.41103932,3.7607475E-4,-0.06483149,-0.0032482112,0.25202778,0.49988285,0.31340703,-0.007452107,0.4702514,0.45540524,0.26855427,0.41192228,0.57686496,0.082216494,-0.051434144,0.09457455,0.23253408,815.5311,796.5934,804.65204,780.87915,604.7985,-0.23370361328125,0.02288818359375,0.9757080078125,4.837493896484375,-1.1065673828125,1.24114990234375,1,1.0,1.0,1.0,1.0,90.00
2021-04-05 17:42:12.317,0.60165906,-0.1503503,0.6186766,0.74485785,0.6111975,-0.11108536,0.16028458,0.85898006,0.8646926,0.21465917,-0.06820376,0.88233876,0.6128723,0.31607854,0.4153783,0.7323593,0.16164589,-0.09068673,0.096624315,0.21596467,834.0659,807.47253,816.337,804.2491,951.31866,-0.30474853515625,0.07745361328125,0.964111328125,14.632110595703125,-3.850555419921875,9.488067626953125,1,1.0,1.0,1.0,1.0,90.00
2021-04-05 17:42:12.818,0.6078778,0.09473992,0.6398881,0.82776576,0.75733167,-0.07897629,0.14185466,1.0217953,0.8646926,0.2206827,0.07894347,0.88233876,0.6491499,0.38982216,0.445857,0.787177,0.099920146,-0.1856106,0.008608319,0.13152476,784.5055,786.9231,777.6557,803.0403,805.05493,-0.26513671875,0.1009521484375,0.9532470703125,1.3458251953125,-4.17205810546875,-1.8243408203125,1,1.0,1.0,1.0,1.0,90.00
2021-04-05 17:42:12.921,,,,,,,,,,,,,,,,,,,,,,,,,,,,,,,,,,,,,,/muse/elements/blink
2021-04-05 17:42:13.335,0.6540882,0.26523703,0.76281494,0.9720627,0.9442923,-0.008335723,0.10032345,1.2590237,0.8646926,0.24324438,0.5723865,0.88233876,0.7327251,0.39803052,0.35807827,0.86390996,0.1949738,-0.19649842,0.102992,0.1538674,792.96704,779.67035,772.4176,818.7546,743.4066,-0.30792236328125,0.08587646484375,0.951904296875,6.108551025390625,-3.54400634765625,0.979461669921875,1,1.0,1.0,1.0,1.0,90.00
2021-04-05 17:42:13.839,0.29821232,0.38454676,0.91020703,0.9376755,0.75199986,0.01199573,0.16249727,1.2950782,0.66738975,0.21487683,0.5764875,0.8649722,0.5163299,0.47631988,0.32816267,0.81495315,0.10343074,-0.39792126,0.10157209,0.19078156,811.50183,812.71063,801.02563,805.4579,807.47253,-0.28363037109375,0.06787109375,0.95855712890625,2.325286865234375,-5.181427001953125,0.059814453125,1,1.0,1.0,1.0,1.0,90.00
2021-04-05 17:42:14.348,0.29821232,0.48819357,0.8738164,0.9376755,0.75199986,0.62891203,0.33438736,1.2950782,0.66738975,0.47053126,0.6064578,0.8649722,0.5163299,0.5511199,0.3886021,0.81495315,0.10343074,-0.036004163,0.1499745,0.19078156,790.9524,787.326,790.14655,803.0403,733.3333,-0.28497314453125,0.04193115234375,0.95623779296875,0.082244873046875,-5.443115234375,-3.955230712890625,1,1.0,1.0,1.0,1.0,100.00
2021-04-05 17:42:14.853,0.70596534,0.49751842,0.85258836,0.30143654,0.44319576,0.49823225,0.4724005,0.34234115,0.63682085,0.4740027,0.39580423,0.5833827,0.5752693,0.4435461,0.45952022,0.5350681,0.29649726,-0.08310963,0.12070646,0.40876117,817.1429,789.34064,791.75824,814.3223,761.9414,-0.28729248046875,0.013916015625,0.96002197265625,3.850555419921875,-4.358978271484375,0.635528564453125,1,1.0,1.0,1.0,1.0,100.00
2021-04-05 17:42:15.383,1.1048023,0.74260974,0.733446,0.7911851,0.9218551,0.556058,0.44686309,0.6312829,0.90967786,0.48367667,0.26395756,0.682565,0.6955287,0.49174854,0.4610881,0.6133275,0.20361724,-0.16907603,0.16385156,0.31341562,785.7143,788.1319,768.3883,811.9048,809.89014,-0.279541015625,0.010986328125,0.95794677734375,4.29168701171875,-3.84307861328125,-0.07476806640625,1,1.0,1.0,1.0,1.0,100.00
2021-04-05 17:42:15.902,1.1173397,0.6927047,0.645875,0.8258726,0.89279664,0.38749206,0.26330987,0.6513428,0.91660637,0.39929986,0.22333771,0.8321398,0.7411521,0.46650395,0.38976562,0.644987,0.132505,-0.2994845,0.16559581,0.26855725,801.4286,788.5348,792.1612,809.0842,700.293,-0.30517578125,0.0205078125,0.959716796875,4.403839111328125,-4.224395751953125,1.42059326171875,1,1.0,1.0,1.0,1.0,100.00
2021-04-05 17:42:16.429,1.1458427,0.6913689,0.645875,0.9052535,0.8874459,0.3009732,0.26330987,0.6816845,0.91660637,0.38545775,0.22333771,0.83979565,0.68547714,0.48457044,0.38976562,0.62280864,0.009349624,-0.30101764,0.16559581,0.17967731,815.5311,799.81683,803.0403,780.4762,722.4542,-0.30230712890625,0.0123291015625,0.95428466796875,4.90478515625,-5.15899658203125,-1.278533935546875,1,1.0,1.0,1.0,1.0,100.00
2021-04-05 17:42:16.942,0.96396375,0.47894365,0.645875,0.8741819,0.5189511,0.02711949,0.26330987,0.49885473,0.8464722,0.32578903,0.22333771,0.8397658,0.576059,0.45034698,0.38976562,0.6068096,0.006210471,-0.14675201,0.16559581,0.21415369,803.44324,795.78754,796.1905,777.25275,847.76556,-0.2882080078125,0.0050048828125,0.954833984375,4.17205810546875,-6.77398681640625,0.515899658203125,1,1.0,1.0,1.0,1.0,100.00
2021-04-05 17:42:17.447,0.91536754,0.734294,1.2176567,0.85987735,0.53896415,0.1783827,0.6506424,0.5042298,0.4583034,0.27622357,0.5403166,0.68422043,0.4374819,0.44940406,0.44098535,0.61404794,0.056348696,-0.10223034,-0.0759032,0.18140118,793.36993,781.28204,780.87915,827.619,767.98535,-0.2889404296875,4.8828125E-4,0.9591064453125,5.106658935546875,-4.583282470703125,1.614990234375,1,1.0,1.0,1.0,1.0,100.00
2021-04-05 17:42:17.886,,,,,,,,,,,,,,,,,,,,,,,,,,,,,,,,,,,,,,/muse/elements/blink
2021-04-05 17:42:17.953,0.72385734,0.726875,1.2176567,0.83372134,0.6802938,0.3338994,0.6506424,0.54511136,0.46657,0.23883253,0.5403166,0.42007923,0.51336265,0.415427,0.44098535,0.6807507,0.00840142,-0.095388874,-0.0759032,0.1375184,906.99634,795.38464,766.3736,932.7839,815.12823,-0.281005859375,0.00445556640625,0.9693603515625,5.076751708984375,-4.134674072265625,0.560760498046875,1,1.0,1.0,1.0,1.0,100.00
2021-04-05 17:42:18.461,0.6837895,0.86023754,1.2176567,0.66268116,0.7221303,0.4776237,0.6506424,0.63384503,0.46657,0.30119202,0.5403166,0.41784868,0.53781617,0.34975928,0.44098535,0.6917638,6.91792E-5,-0.111228146,-0.0759032,0.061432585,821.1722,790.54944,786.9231,793.7729,885.2381,-0.29486083984375,0.0118408203125,0.95556640625,5.5029296875,-5.57769775390625,1.62994384765625,1,1.0,1.0,1.0,1.0,100.00
2021-04-05 17:42:18.993,0.33060047,0.741184,1.2176567,0.44857216,0.69994956,0.44049004,0.6506424,0.5853041,0.29188868,0.3583107,0.5403166,0.1903191,0.55528575,0.36140308,0.44098535,0.7288141,-0.03505698,-0.011253601,-0.0759032,0.08833693,816.7399,796.99634,809.89014,776.8498,732.52747,-0.28631591796875,0.0062255859375,0.96148681640625,4.942169189453125,-5.18890380859375,1.6448974609375,1,1.0,1.0,1.0,1.0,100.00
2021-04-05 17:42:19.501,0.33060047,0.81062305,1.2176567,0.44857216,0.69994956,0.53050846,0.6506424,0.5853041,0.29188868,0.57514566,0.5403166,0.1903191,0.55528575,0.42969596,0.44098535,0.7288141,-0.03505698,0.051971465,-0.0759032,0.08833693,781.28204,782.8938,776.04395,788.1319,834.0659,-0.28314208984375,0.01605224609375,0.95831298828125,5.256195068359375,-4.11224365234375,-0.04486083984375,1,1.0,1.0,1.0,1.0,100.00
2021-04-05 17:42:20.012,0.33060047,0.8178963,0.9976459,0.44857216,0.69994956,0.58047384,0.7058505,0.5853041,0.29188868,0.6786974,0.32501665,0.1903191,0.55528575,0.5188353,0.4999136,0.7288141,-0.03505698,0.0060584447,-0.13412352,0.08833693,776.4469,774.43225,779.67035,752.674,743.8095,-0.27606201171875,0.01580810546875,0.9691162109375,6.422576904296875,-8.934783935546875,0.740203857421875,1,1.0,1.0,1.0,1.0,100.00
2021-04-05 17:42:20.520,0.33060047,0.79751974,0.88991743,0.44857216,0.69994956,0.5432825,0.5689486,0.5853041,0.29188868,0.6737176,0.32501665,0.1903191,0.55528575,0.5134191,0.4606913,0.7288141,-0.03505698,0.010596135,0.0916216,0.08833693,809.0842,786.9231,813.1135,786.1172,759.92676,-0.19085693359375,0.0308837890625,0.96826171875,11.9927978515625,-6.990814208984375,13.65264892578125,1,2.0,1.0,1.0,2.0,100.00
2021-04-05 17:42:21.021,0.33060047,0.80945694,0.8637868,0.44857216,0.69994956,0.50027275,0.49800497,0.5853041,0.29188868,0.6419525,0.33888862,0.1903191,0.55528575,0.5311646,0.42011476,0.7288141,-0.03505698,-0.015692903,0.058195744,0.08833693,782.0879,785.31134,798.60803,790.54944,847.3626,-0.258056640625,0.02947998046875,0.97412109375,-1.263580322265625,1.248626708984375,2.3028564453125,1,2.0,1.0,1.0,2.0,100.00
2021-04-05 17:42:21.050,,,,,,,,,,,,,,,,,,,,,,,,,,,,,,,,,,,,,,/muse/elements/blink
2021-04-05 17:42:21.533,0.33060047,1.0635551,0.7669463,0.44857216,0.69994956,0.63079065,0.37559196,0.5853041,0.29188868,0.6053087,0.37745792,0.1903191,0.55528575,0.44406405,0.3636878,0.7288141,-0.03505698,0.084656574,0.17736043,0.08833693,788.93774,783.2967,763.1502,788.5348,740.989,-0.276123046875,0.0306396484375,0.976806640625,0.73272705078125,-6.901092529296875,0.1495361328125,1,2.0,1.0,1.0,2.0,100.00
2021-04-05 17:42:22.051,0.33060047,1.2127694,0.79418707,0.44857216,0.69994956,0.7921122,0.4002644,0.5853041,0.29188868,0.58014536,0.39117455,0.1903191,0.55528575,0.36407533,0.34611192,0.7288141,-0.03505698,0.09146482,0.14031367,0.08833693,810.293,807.0696,822.381,804.2491,746.63007,-0.27679443359375,0.026123046875,0.9598388671875,11.895599365234375,-28.96514892578125,-6.706695556640625,1,2.0,1.0,1.0,2.0,100.00
2021-04-05 17:42:22.579,0.33060047,1.0979916,0.66842896,0.44857216,0.69994956,0.66169596,0.49860227,0.5853041,0.29188868,0.58014536,0.3630331,0.1903191,0.55528575,0.3792014,0.36523768,0.7288141,-0.03505698,0.10550562,0.26358366,0.08833693,821.5751,700.696,809.0842,812.71063,809.4872,0.1551513671875,0.06463623046875,0.991943359375,6.23565673828125,-19.417266845703125,17.30133056640625,1,2.0,1.0,1.0,2.0,100.00
2021-04-05 17:42:23.101,0.33060047,0.6965138,0.601195,0.44857216,0.69994956,0.22527139,0.46278298,0.5853041,0.29188868,0.43191245,0.34814385,0.1903191,0.55528575,0.3711433,0.37884402,0.7288141,-0.03505698,0.09372926,0.30544513,0.08833693,780.87915,728.0952,798.60803,736.9597,690.6227,0.31463623046875,-0.01788330078125,0.976318359375,0.58319091796875,-18.445281982421875,19.06585693359375,1,2.0,1.0,1.0,2.0,100.00
2021-04-05 17:42:23.602,0.33060047,0.5060748,1.0523968,0.44857216,0.69994956,0.016896892,0.73123586,0.5853041,0.29188868,0.38439947,0.57481605,0.1903191,0.55528575,0.39699575,0.5517293,0.7288141,-0.03505698,0.124745116,-0.027021749,0.08833693,803.0403,702.3077,809.0842,754.68866,873.1502,0.3389892578125,-0.003662109375,0.94573974609375,5.615081787109375,-2.6617431640625,1.383209228515625,1,2.0,1.0,1.0,2.0,100.00
2021-04-05 17:42:24.125,0.33060047,0.5060748,1.0523968,0.44857216,0.69994956,0.016896892,0.73123586,0.5853041,0.29188868,0.38439947,0.57481605,0.1903191,0.55528575,0.39699575,0.5517293,0.7288141,-0.03505698,0.124745116,-0.027021749,0.08833693,805.4579,736.55676,781.28204,807.0696,846.1539,0.32305908203125,-0.00775146484375,0.9373779296875,6.841278076171875,-1.278533935546875,-0.426177978515625,1,2.0,1.0,1.0,2.0,100.00
2021-04-05 17:42:24.640,0.7098164,0.5060748,0.90644705,1.0661213,0.9232693,0.016896892,0.6360198,0.96570736,0.76581675,0.38439947,0.57713187,0.9367199,0.6628316,0.39699575,0.50544834,1.2513793,0.3421078,0.124745116,-0.0015939613,0.57338184,811.50183,770.80585,797.8022,856.2271,786.9231,0.34375,0.03216552734375,0.941650390625,9.76470947265625,-0.142059326171875,-0.560760498046875,1,1.0,1.0,1.0,1.0,100.00
2021-04-05 17:42:25.157,0.7487448,0.5060748,0.6095493,0.86271226,0.90047276,0.016896892,0.45156938,0.882844,0.7983533,0.38439947,0.54594415,0.9288188,0.6671366,0.39699575,0.4257612,1.1441432,0.39825714,0.124745116,0.05866746,0.5236651,630.58606,658.3883,606.4103,635.82416,771.6117,0.36199951171875,0.03436279296875,0.929931640625,5.226287841796875,-11.6339111328125,3.96270751953125,1,1.0,1.0,1.0,1.0,100.00
2021-04-05 17:42:25.226,,,,,,,,,,,,,,,,,,,,,,,,,,,,,,,,,,,,,,/muse/elements/blink
2021-04-05 17:42:25.685,0.7487448,0.5060748,0.6095493,0.86271226,0.90047276,0.016896892,0.45156938,0.882844,0.7983533,0.38439947,0.54594415,0.9288188,0.6671366,0.39699575,0.4257612,1.1441432,0.39825714,0.124745116,0.05866746,0.5236651,811.0989,784.10254,791.3553,832.8571,764.7619,0.38909912109375,0.021240234375,0.92822265625,3.75335693359375,-5.9814453125,-1.15142822265625,1,1.0,1.0,1.0,1.0,100.00
2021-04-05 17:42:26.198,0.7265571,0.5060748,0.653077,0.9021762,0.83439666,0.016896892,0.49746436,0.8789614,0.6412234,0.38439947,0.53573275,0.9288188,0.6610577,0.39699575,0.42145228,1.1248987,0.5269792,0.124745116,0.076820925,0.51445234,805.4579,817.1429,830.4396,813.1135,767.1795,0.40179443359375,0.023681640625,0.93121337890625,3.7982177734375,-0.022430419921875,-4.77020263671875,1,1.0,1.0,1.0,1.0,100.00
2021-04-05 17:42:26.699,0.7265571,0.5060748,0.653077,0.9021762,0.83439666,0.016896892,0.49746436,0.8789614,0.6412234,0.38439947,0.53573275,0.9288188,0.6610577,0.39699575,0.42145228,1.1248987,0.5269792,0.124745116,0.076820925,0.51445234,716.4103,784.5055,786.9231,730.9158,804.65204,0.37713623046875,0.03118896484375,0.94049072265625,4.134674072265625,5.121612548828125,-0.43365478515625,1,1.0,1.0,1.0,1.0,100.00
2021-04-05 17:42:26.934,,,,,,,,,,,,,,,,,,,,,,,,,,,,,,,,,,,,,,/muse/elements/blink
2021-04-05 17:42:27.228,0.7265571,0.43766993,0.7590042,0.9021762,0.83439666,0.2740417,0.5129208,0.8789614,0.6412234,0.0866198,0.46872586,0.9288188,0.6610577,0.23833188,0.5699077,1.1248987,0.5269792,-0.18094541,0.14100407,0.51445234,844.1392,230.87912,811.0989,854.21246,760.32965,0.0872802734375,-0.01776123046875,1.00518798828125,-1.07666015625,9.099273681640625,-6.7889404296875,1,1.0,1.0,1.0,1.0,100.00
2021-04-05 17:42:27.747,0.7265571,0.43766993,0.7590042,0.9021762,0.83439666,0.2740417,0.5129208,0.8789614,0.6412234,0.0866198,0.46872586,0.9288188,0.6610577,0.23833188,0.5699077,1.1248987,0.5269792,-0.18094541,0.14100407,0.51445234,821.1722,826.4103,794.17584,801.02563,708.7546,0.00262451171875,-0.02728271484375,1.00396728515625,7.274932861328125,7.603912353515625,-4.942169189453125,1,2.0,4.0,1.0,2.0,100.00
2021-04-05 17:42:28.256,0.7265571,0.43766993,0.7798216,0.9021762,0.83439666,0.2740417,0.57273746,0.8789614,0.6412234,0.0866198,0.46872586,0.9288188,0.6610577,0.23833188,0.6060581,1.1248987,0.5269792,-0.18094541,0.1764137,0.51445234,751.8681,842.52747,734.1392,745.0183,626.9597,-0.1275634765625,0.012451171875,0.9969482421875,5.166473388671875,-0.067291259765625,-3.925323486328125,1,2.0,1.0,1.0,2.0,100.00
2021-04-05 17:42:28.767,0.7265571,0.43766993,0.7798216,0.9021762,0.83439666,0.2740417,0.57273746,0.8789614,0.6412234,0.0866198,0.46872586,0.9288188,0.6610577,0.23833188,0.6060581,1.1248987,0.5269792,-0.18094541,0.1764137,0.51445234,836.4835,937.619,770.40295,853.8095,858.6447,-0.14227294921875,-0.0020751953125,0.990234375,5.944061279296875,-4.17205810546875,0.515899658203125,1,2.0,1.0,1.0,2.0,100.00
2021-04-05 17:42:29.278,0.7265571,0.43766993,0.7798216,0.9021762,0.83439666,0.2740417,0.57273746,0.8789614,0.6412234,0.0866198,0.46872586,0.9288188,0.6610577,0.23833188,0.6060581,1.1248987,0.5269792,-0.18094541,0.1764137,0.51445234,809.0842,827.619,772.01465,843.3333,898.5348,-0.142333984375,0.011962890625,0.9974365234375,5.181427001953125,-6.003875732421875,0.67291259765625,1,2.0,1.0,1.0,2.0,100.00
2021-04-05 17:42:29.808,0.7265571,0.43766993,0.7798216,0.9021762,0.83439666,0.2740417,0.57273746,0.8789614,0.6412234,0.0866198,0.46872586,0.9288188,0.6610577,0.23833188,0.6060581,1.1248987,0.5269792,-0.18094541,0.1764137,0.51445234,781.685,791.75824,772.4176,788.93774,653.5531,-0.13482666015625,0.007080078125,0.99737548828125,4.717864990234375,-4.844970703125,0.725250244140625,1,2.0,1.0,1.0,2.0,100.00
2021-04-05 17:42:30.336,0.7679894,0.43766993,0.7189717,0.65231985,0.8977065,0.2740417,0.8594716,0.6760395,0.87634647,0.0866198,0.93505436,0.8494027,0.55710185,0.23833188,0.47276857,0.5679402,0.09296401,-0.18094541,0.020035872,0.27654046,811.9048,787.326,785.7143,827.619,774.43225,-0.1422119140625,0.0052490234375,0.99395751953125,4.762725830078125,-4.5458984375,0.43365478515625,1,1.0,1.0,1.0,1.0,100.00
2021-04-05 17:42:30.845,1.0114998,0.43766993,0.7200039,0.7259263,0.984413,0.2740417,0.8984939,0.9048742,0.88430405,0.0866198,0.9412815,0.8643288,0.621805,0.23833188,0.35865042,0.5570918,0.029712964,-0.18094541,-0.045394257,0.17895792,786.9231,784.90845,787.72894,745.82416,718.022,-0.14471435546875,0.00823974609375,0.9920654296875,4.613189697265625,-4.583282470703125,0.725250244140625,1,1.0,1.0,1.0,1.0,100.00
2021-04-05 17:42:31.346,0.9429614,0.43766993,0.6255432,0.63291174,0.9334766,0.2740417,0.76907635,0.8457967,0.7844609,0.0866198,0.92215854,0.7903783,0.56101686,0.23833188,0.36548215,0.60048866,-0.0133825615,-0.18094541,-0.10311327,0.17305888,792.96704,764.35895,760.7326,824.7985,878.3883,-0.14093017578125,0.0029296875,0.98687744140625,4.598236083984375,-3.416900634765625,0.2392578125,1,1.0,1.0,1.0,1.0,100.00
2021-04-05 17:42:31.859,0.8859332,0.8228409,0.5675831,0.5576854,0.83367765,0.46366957,0.6500084,0.80126435,0.7481927,0.35210845,0.5623337,0.7426509,0.5244537,0.288611,0.33012226,0.65344113,0.018075282,-0.061737422,-0.10380124,0.18898088,909.011,839.707,803.44324,934.3956,1154.7986,-0.16790771484375,0.0224609375,0.99151611328125,4.35150146484375,-2.1832275390625,1.33087158203125,1,1.0,1.0,1.0,1.0,100.00
2021-04-05 17:42:32.022,,,,,,,,,,,,,,,,,,,,,,,,,,,,,,,,,,,,,,/muse/elements/blink
2021-04-05 17:42:32.365,0.34684947,0.8228409,0.41069156,0.25954673,0.54683256,0.46366957,0.15240866,0.37722287,0.61244327,0.35210845,0.37008178,0.57660615,0.36418787,0.288611,0.41881976,0.7111387,0.06881629,-0.061737422,-0.07988566,0.27877113,905.78754,795.78754,766.3736,900.14655,818.3516,-0.109375,0.00518798828125,0.99853515625,6.4300537109375,-12.015228271484375,1.188812255859375,1,1.0,1.0,1.0,1.0,100.00
2021-04-05 17:42:32.518,,,,,,,,,,,,,,,,,,,,,,,,,,,,,,,,,,,,,,/muse/elements/blink
2021-04-05 17:42:32.880,0.21955892,0.89173436,0.40784928,0.30641454,0.14683989,0.5127608,-0.31548178,-0.075071774,0.47670335,0.35210845,0.21114549,0.46423665,0.29249185,0.28177136,0.4238807,0.6773139,0.13027848,-0.04174425,-0.049470656,0.38646364,554.83514,772.8205,796.1905,552.8205,765.16486,-0.1531982421875,0.0279541015625,1.00311279296875,3.805694580078125,-2.332763671875,5.181427001953125,1,1.0,1.0,1.0,1.0,100.00
2021-04-05 17:42:33.030,,,,,,,,,,,,,,,,,,,,,,,,,,,,,,,,,,,,,,/muse/elements/blink
2021-04-05 17:42:33.386,0.21955892,0.973373,0.91160244,0.30641454,0.14683989,0.5891593,1.0818619,-0.075071774,0.47670335,0.34353784,0.45074368,0.46423665,0.29249185,0.25500268,0.23724735,0.6773139,0.13027848,-0.018994031,0.2664676,0.38646364,786.52014,788.1319,772.01465,795.78754,762.74725,-0.160400390625,-0.0146484375,0.994873046875,7.01324462890625,-6.4300537109375,-1.353302001953125,1,1.0,1.0,1.0,1.0,100.00
2021-04-05 17:42:33.893,0.21955892,0.973373,0.92770773,0.30641454,0.14683989,0.5891593,1.0533565,-0.075071774,0.47670335,0.34353784,0.45484045,0.46423665,0.29249185,0.25500268,0.23570772,0.6773139,0.13027848,-0.018994031,0.13726613,0.38646364,762.3443,748.6447,744.21246,745.42126,701.50183,-0.19219970703125,-0.0050048828125,0.9920654296875,2.88604736328125,-5.944061279296875,2.1832275390625,1,1.0,1.0,1.0,1.0,100.00
2021-04-05 17:42:34.396,0.21955892,0.973373,0.91515523,0.30641454,0.14683989,0.5891593,1.0239391,-0.075071774,0.47670335,0.34353784,0.45484045,0.46423665,0.29249185,0.25500268,0.24667686,0.6773139,0.13027848,-0.018994031,0.108892,0.38646364,810.696,788.1319,780.07324,784.5055,741.79486,-0.177978515625,-0.02044677734375,0.982177734375,4.224395751953125,-4.403839111328125,2.115936279296875,1,2.0,1.0,1.0,2.0,100.00
2021-04-05 17:42:34.903,0.21955892,0.973373,0.91750765,0.30641454,0.14683989,0.5891593,0.9805316,-0.075071774,0.47670335,0.34353784,0.39591518,0.46423665,0.29249185,0.25500268,0.25285137,0.6773139,0.13027848,-0.018994031,-0.040826716,0.38646364,781.28204,797.8022,794.17584,736.1539,667.25275,-0.19842529296875,0.00384521484375,0.96978759765625,3.117828369140625,-9.4207763671875,6.41510009765625,1,2.0,1.0,1.0,2.0,100.00
2021-04-05 17:42:35.427,1.397655,0.973373,0.72164124,1.3456668,0.84660333,0.5891593,0.81718373,0.922538,1.0600362,0.34353784,0.13526952,1.1633178,0.56511724,0.25500268,0.25437167,0.6098928,0.295591,-0.018994031,-0.15723552,0.3750446,796.99634,785.7143,782.0879,822.7839,748.6447,-0.17950439453125,-0.10821533203125,0.96875,-7.31231689453125,-12.194671630859375,6.86370849609375,1,1.0,1.0,1.0,1.0,100.00
2021-04-05 17:42:35.956,0.6868589,0.973373,0.72164124,1.176613,0.36695582,0.5891593,0.81718373,0.58114326,0.61007565,0.34353784,0.13526952,0.5761376,0.43998432,0.25500268,0.25437167,0.59294933,0.32127628,-0.018994031,-0.15723552,0.4370139,745.42126,772.4176,766.3736,753.47986,771.2088,-0.1885986328125,-0.1441650390625,0.973876953125,7.005767822265625,-2.31781005859375,-5.562744140625,1,1.0,1.0,1.0,1.0,100.00
2021-04-05 17:42:36.473,0.73498935,0.973373,0.72164124,1.176613,0.29530448,0.5891593,0.81718373,0.58114326,0.5503419,0.34353784,0.13526952,0.5761376,0.42689466,0.25500268,0.25437167,0.59294933,0.31248376,-0.018994031,-0.15723552,0.4370139,786.9231,782.8938,781.685,800.6227,710.3663,-0.14874267578125,-0.16632080078125,0.974853515625,8.673095703125,-3.805694580078125,-3.48419189453125,1,1.0,1.0,1.0,1.0,100.00
2021-04-05 17:42:36.988,0.79237175,0.973373,0.72164124,1.2561309,0.26777515,0.5891593,0.81718373,0.5966183,0.44235757,0.34353784,0.13526952,0.575997,0.40472436,0.25500268,0.25437167,0.6135663,0.29350105,-0.018994031,-0.15723552,0.4199412,776.8498,801.8315,805.8608,763.95605,720.84247,-0.2197265625,-0.02593994140625,1.00146484375,15.529327392578125,0.844879150390625,2.699127197265625,1,1.0,1.0,1.0,1.0,100.00
2021-04-05 17:42:37.519,0.79237175,0.973373,0.72164124,1.2561309,0.26777515,0.5891593,0.81718373,0.5966183,0.44235757,0.34353784,0.13526952,0.575997,0.40472436,0.25500268,0.25437167,0.6135663,0.29350105,-0.018994031,-0.15723552,0.4199412,789.7436,805.4579,798.60803,782.0879,960.989,-0.23065185546875,-0.07049560546875,0.95782470703125,2.31781005859375,-1.57012939453125,1.293487548828125,1,1.0,1.0,1.0,1.0,100.00
2021-04-05 17:42:38.037,0.0,0.0,0.0,0.0,0.0,0.0,0.0,0.0,0.0,0.0,0.0,0.0,0.0,0.0,0.0,0.0,0.0,0.0,0.0,0.0,805.4579,797.8022,796.5934,859.0476,871.13556,-0.12030029296875,-0.04962158203125,1.00390625,12.27691650390625,-11.297454833984375,7.04315185546875,0,4.0,4.0,4.0,4.0,100.00
2021-04-05 17:42:38.558,0.0,0.0,0.0,0.0,0.0,0.0,0.0,0.0,0.0,0.0,0.0,0.0,0.0,0.0,0.0,0.0,0.0,0.0,0.0,0.0,730.10986,787.72894,774.43225,817.5458,738.97437,-0.0880126953125,6.103515625E-4,1.01171875,10.51239013671875,-13.794708251953125,13.17413330078125,0,4.0,4.0,4.0,4.0,100.00
2021-04-05 17:42:39.061,0.0,0.0,0.0,0.0,0.0,0.0,0.0,0.0,0.0,0.0,0.0,0.0,0.0,0.0,0.0,0.0,0.0,0.0,0.0,0.0,728.49817,789.34064,783.69965,758.315,736.55676,-0.15167236328125,-0.02203369140625,0.986572265625,6.2506103515625,6.228179931640625,-4.717864990234375,0,4.0,4.0,4.0,4.0,100.00
2021-04-05 17:42:39.565,0.0,0.0,0.0,0.0,0.0,0.0,0.0,0.0,0.0,0.0,0.0,0.0,0.0,0.0,0.0,0.0,0.0,0.0,0.0,0.0,729.707,817.9487,768.7912,683.36993,692.6374,-0.204833984375,0.0068359375,0.97802734375,5.271148681640625,-2.086029052734375,-7.454376220703125,0,4.0,4.0,4.0,4.0,100.00
2021-04-05 17:42:40.083,0.0,0.0,0.0,0.0,0.0,0.0,0.0,0.0,0.0,0.0,0.0,0.0,0.0,0.0,0.0,0.0,0.0,0.0,0.0,0.0,779.2674,816.337,790.9524,809.4872,868.71796,-0.23809814453125,0.01129150390625,0.97802734375,6.9683837890625,-3.611297607421875,0.007476806640625,0,4.0,4.0,4.0,4.0,100.00
2021-04-05 17:42:40.594,0.0,0.0,0.0,0.0,0.0,0.0,0.0,0.0,0.0,0.0,0.0,0.0,0.0,0.0,0.0,0.0,0.0,0.0,0.0,0.0,809.89014,789.34064,778.86444,845.7509,705.12823,-0.2232666015625,-0.0018310546875,0.96954345703125,4.927215576171875,-6.9085693359375,0.897216796875,0,4.0,4.0,4.0,4.0,100.00
2021-04-05 17:42:41.102,0.0,0.0,0.0,0.0,0.0,0.0,0.0,0.0,0.0,0.0,0.0,0.0,0.0,0.0,0.0,0.0,0.0,0.0,0.0,0.0,804.65204,812.71063,813.91943,805.4579,711.978,-0.143798828125,0.007080078125,0.991455078125,3.93280029296875,-16.40411376953125,1.24114990234375,0,4.0,4.0,4.0,4.0,100.00
2021-04-05 17:42:41.607,0.0,0.0,0.0,0.0,0.0,0.0,0.0,0.0,0.0,0.0,0.0,0.0,0.0,0.0,0.0,0.0,0.0,0.0,0.0,0.0,921.9048,818.3516,804.65204,869.92676,791.3553,-0.02947998046875,-0.0980224609375,0.96722412109375,-0.994415283203125,-79.96444702148438,23.335113525390625,0,4.0,4.0,4.0,4.0,100.00
2021-04-05 17:42:42.115,0.0,0.0,0.0,0.0,0.0,0.0,0.0,0.0,0.0,0.0,0.0,0.0,0.0,0.0,0.0,0.0,0.0,0.0,0.0,0.0,838.9011,765.16486,807.47253,869.5238,823.5897,0.3599853515625,-0.02130126953125,0.919677734375,3.312225341796875,-5.465545654296875,6.23565673828125,0,4.0,4.0,4.0,4.0,100.00
2021-04-05 17:42:42.628,0.0,0.0,0.0,0.0,0.0,0.0,0.0,0.0,0.0,0.0,0.0,0.0,0.0,0.0,0.0,0.0,0.0,0.0,0.0,0.0,608.4249,717.2161,799.41394,608.4249,753.47986,0.281005859375,0.01171875,0.97216796875,6.108551025390625,7.663726806640625,-6.213226318359375,0,4.0,4.0,4.0,4.0,100.00
2021-04-05 17:42:43.136,0.0,0.0,0.0,0.0,0.0,0.0,0.0,0.0,0.0,0.0,0.0,0.0,0.0,0.0,0.0,0.0,0.0,0.0,0.0,0.0,804.2491,823.9927,797.3993,757.1062,818.3516,0.127685546875,-0.02984619140625,1.0106201171875,6.20574951171875,-3.985137939453125,-0.1495361328125,0,4.0,4.0,4.0,4.0,100.00
2021-04-05 17:42:43.644,0.0,0.0,0.0,0.0,0.0,0.0,0.0,0.0,0.0,0.0,0.0,0.0,0.0,0.0,0.0,0.0,0.0,0.0,0.0,0.0,980.7326,793.36993,795.38464,942.8571,777.25275,0.23565673828125,0.00433349609375,0.94757080078125,8.1048583984375,-33.06243896484375,10.071258544921875,0,4.0,4.0,4.0,4.0,100.00
2021-04-05 17:42:44.156,0.0,0.0,0.0,0.0,0.0,0.0,0.0,0.0,0.0,0.0,0.0,0.0,0.0,0.0,0.0,0.0,0.0,0.0,0.0,0.0,828.8278,772.8205,804.65204,842.1245,829.2308,0.33172607421875,-0.00250244140625,0.94586181640625,6.53472900390625,-7.835693359375,1.8243408203125,0,4.0,4.0,4.0,4.0,100.00
2021-04-05 17:42:44.662,0.0,0.0,0.0,0.0,0.0,0.0,0.0,0.0,0.0,0.0,0.0,0.0,0.0,0.0,0.0,0.0,0.0,0.0,0.0,0.0,844.1392,800.2198,808.68134,876.77655,1089.9268,0.37255859375,0.0208740234375,0.94476318359375,3.648681640625,-6.302947998046875,-1.00189208984375,0,4.0,4.0,4.0,4.0,100.00
2021-04-05 17:42:45.172,0.0,0.0,0.0,0.0,0.0,0.0,0.0,0.0,0.0,0.0,0.0,0.0,0.0,0.0,0.0,0.0,0.0,0.0,0.0,0.0,804.65204,812.71063,803.0403,787.72894,713.5897,0.35247802734375,0.00775146484375,0.9410400390625,4.224395751953125,-3.409423828125,2.73651123046875,0,4.0,4.0,4.0,4.0,100.00
2021-04-05 17:42:45.678,0.0,0.0,0.0,0.0,0.0,0.0,0.0,0.0,0.0,0.0,0.0,0.0,0.0,0.0,0.0,0.0,0.0,0.0,0.0,0.0,732.52747,853.00366,813.91943,698.68134,685.78754,0.2783203125,-0.00701904296875,0.96124267578125,-3.93280029296875,17.592926025390625,-11.46942138671875,0,4.0,4.0,4.0,4.0,100.00
2021-04-05 17:42:46.190,0.0,0.0,0.0,0.0,0.0,0.0,0.0,0.0,0.0,0.0,0.0,0.0,0.0,0.0,0.0,0.0,0.0,0.0,0.0,0.0,831.2454,730.5128,795.78754,861.4652,815.12823,0.1807861328125,-0.04193115234375,0.9842529296875,3.3795166015625,2.474822998046875,1.009368896484375,0,4.0,4.0,4.0,4.0,100.00
2021-04-05 17:42:46.700,0.0,0.0,0.0,0.0,0.0,0.0,0.0,0.0,0.0,0.0,0.0,0.0,0.0,0.0,0.0,0.0,0.0,0.0,0.0,0.0,797.3993,773.6264,792.96704,780.4762,641.4652,0.0975341796875,-0.04876708984375,1.0152587890625,5.525360107421875,8.074951171875,0.4486083984375,0,4.0,4.0,4.0,4.0,100.00
2021-04-05 17:42:47.208,0.0,0.0,0.0,0.0,0.0,0.0,0.0,0.0,0.0,0.0,0.0,0.0,0.0,0.0,0.0,0.0,0.0,0.0,0.0,0.0,813.5165,819.9634,807.47253,757.9121,766.3736,0.05255126953125,-0.068115234375,0.995849609375,2.6019287109375,5.12908935546875,3.03558349609375,0,4.0,4.0,4.0,4.0,100.00
2021-04-05 17:42:47.719,0.0,0.0,0.0,0.0,0.0,0.0,0.0,0.0,0.0,0.0,0.0,0.0,0.0,0.0,0.0,0.0,0.0,0.0,0.0,0.0,813.5165,796.99634,788.5348,811.0989,870.7326,0.00323486328125,-0.0531005859375,1.00885009765625,3.790740966796875,-4.74029541015625,3.880462646484375,0,4.0,4.0,4.0,4.0,100.00
2021-04-05 17:42:48.227,0.0,0.0,0.0,0.0,0.0,0.0,0.0,0.0,0.0,0.0,0.0,0.0,0.0,0.0,0.0,0.0,0.0,0.0,0.0,0.0,834.87177,795.78754,799.81683,861.4652,855.42126,0.00445556640625,-0.0714111328125,1.00445556640625,3.6187744140625,-3.70849609375,1.323394775390625,0,4.0,4.0,4.0,4.0,100.00
2021-04-05 17:42:48.743,0.0,0.0,0.0,0.0,0.0,0.0,0.0,0.0,0.0,0.0,0.0,0.0,0.0,0.0,0.0,0.0,0.0,0.0,0.0,0.0,813.1135,794.9817,795.38464,836.8865,823.1868,6.103515625E-5,-0.07537841796875,0.99468994140625,2.729034423828125,-3.39447021484375,2.1533203125,0,4.0,4.0,4.0,4.0,100.00
2021-04-05 17:42:49.247,0.0,0.0,0.0,0.0,0.0,0.0,0.0,0.0,0.0,0.0,0.0,0.0,0.0,0.0,0.0,0.0,0.0,0.0,0.0,0.0,816.7399,797.3993,796.1905,815.5311,786.9231,0.0137939453125,-0.0721435546875,1.00115966796875,3.850555419921875,-3.54400634765625,-0.1495361328125,0,4.0,4.0,4.0,4.0,100.00
2021-04-05 17:42:49.760,0.0,0.0,0.0,0.0,0.0,0.0,0.0,0.0,0.0,0.0,0.0,0.0,0.0,0.0,0.0,0.0,0.0,0.0,0.0,0.0,797.8022,774.43225,774.83514,828.8278,767.5824,0.04412841796875,-0.08306884765625,0.98065185546875,6.572113037109375,-9.443206787109375,-0.336456298828125,0,4.0,4.0,4.0,4.0,100.00
2021-04-05 17:42:50.268,0.0,0.0,0.0,0.0,0.0,0.0,0.0,0.0,0.0,0.0,0.0,0.0,0.0,0.0,0.0,0.0,0.0,0.0,0.0,0.0,815.12823,799.81683,790.9524,833.2601,969.0476,0.0234375,-0.079345703125,0.99249267578125,5.031890869140625,-4.08233642578125,2.2430419921875,0,4.0,4.0,4.0,4.0,100.00
2021-04-05 17:42:50.779,0.0,0.0,0.0,0.0,0.0,0.0,0.0,0.0,0.0,0.0,0.0,0.0,0.0,0.0,0.0,0.0,0.0,0.0,0.0,0.0,761.9414,784.5055,787.72894,728.9011,650.32965,0.0179443359375,-0.07342529296875,1.0009765625,5.271148681640625,-5.084228515625,0.31402587890625,0,4.0,4.0,4.0,4.0,100.00
2021-04-05 17:42:51.286,0.0,0.0,0.0,0.0,0.0,0.0,0.0,0.0,0.0,0.0,0.0,0.0,0.0,0.0,0.0,0.0,0.0,0.0,0.0,0.0,788.93774,782.0879,789.7436,801.02563,788.93774,0.0126953125,-0.06561279296875,1.00640869140625,5.555267333984375,-7.544097900390625,0.725250244140625,0,4.0,4.0,4.0,4.0,100.00
2021-04-05 17:42:51.795,0.0,0.0,0.0,0.0,0.0,0.0,0.0,0.0,0.0,0.0,0.0,0.0,0.0,0.0,0.0,0.0,0.0,0.0,0.0,0.0,808.2784,770.40295,777.25275,818.3516,854.21246,-0.01458740234375,-0.08056640625,1.01416015625,1.069183349609375,2.76641845703125,0.859832763671875,0,4.0,4.0,4.0,4.0,100.00
2021-04-05 17:42:52.306,0.0,0.0,0.0,0.0,0.0,0.0,0.0,0.0,0.0,0.0,0.0,0.0,0.0,0.0,0.0,0.0,0.0,0.0,0.0,0.0,828.8278,854.21246,782.8938,869.92676,855.82416,-0.06927490234375,-0.0706787109375,0.99261474609375,10.946044921875,5.330963134765625,1.4056396484375,0,4.0,4.0,4.0,4.0,100.00
2021-04-05 17:42:52.820,0.0,0.0,0.0,0.0,0.0,0.0,0.0,0.0,0.0,0.0,0.0,0.0,0.0,0.0,0.0,0.0,0.0,0.0,0.0,0.0,840.10986,768.3883,788.1319,876.77655,835.6777,-0.07513427734375,-0.07257080078125,1.007568359375,5.5328369140625,0.16448974609375,-2.27294921875,0,4.0,4.0,4.0,4.0,100.00
2021-04-05 17:42:53.327,0.0,0.0,0.0,0.0,0.0,0.0,0.0,0.0,0.0,0.0,0.0,0.0,0.0,0.0,0.0,0.0,0.0,0.0,0.0,0.0,792.96704,770.0,781.685,823.1868,756.30035,-0.06561279296875,-0.0660400390625,0.992431640625,4.942169189453125,-5.38330078125,-0.28411865234375,0,4.0,4.0,4.0,4.0,100.00
2021-04-05 17:42:53.835,0.0,0.0,0.0,0.0,0.0,0.0,0.0,0.0,0.0,0.0,0.0,0.0,0.0,0.0,0.0,0.0,0.0,0.0,0.0,0.0,775.64105,774.43225,787.326,765.9707,756.30035,-0.02667236328125,-0.05126953125,0.99530029296875,-1.069183349609375,-17.166748046875,2.130889892578125,0,4.0,4.0,4.0,4.0,100.00
2021-04-05 17:42:54.346,0.0,0.0,0.0,0.0,0.0,0.0,0.0,0.0,0.0,0.0,0.0,0.0,0.0,0.0,0.0,0.0,0.0,0.0,0.0,0.0,800.2198,776.04395,784.90845,843.3333,900.14655,0.010498046875,-0.087646484375,1.00262451171875,8.11981201171875,-4.8748779296875,-1.517791748046875,0,4.0,4.0,4.0,4.0,100.00
2021-04-05 17:42:54.859,0.0,0.0,0.0,0.0,0.0,0.0,0.0,0.0,0.0,0.0,0.0,0.0,0.0,0.0,0.0,0.0,0.0,0.0,0.0,0.0,803.0403,782.49084,791.75824,825.2015,688.60803,-0.010009765625,-0.072265625,0.99896240234375,5.6524658203125,-6.542205810546875,0.40374755859375,0,4.0,4.0,4.0,4.0,100.00
2021-04-05 17:42:55.364,0.0,0.0,0.0,0.0,0.0,0.0,0.0,0.0,0.0,0.0,0.0,0.0,0.0,0.0,0.0,0.0,0.0,0.0,0.0,0.0,776.04395,785.7143,783.2967,772.8205,682.1612,-0.00738525390625,-0.07757568359375,0.9959716796875,4.717864990234375,-4.127197265625,3.327178955078125,0,4.0,4.0,4.0,4.0,100.00
2021-04-05 17:42:55.874,0.0,0.0,0.0,0.0,0.0,0.0,0.0,0.0,0.0,0.0,0.0,0.0,0.0,0.0,0.0,0.0,0.0,0.0,0.0,0.0,797.3993,770.80585,780.87915,832.8571,935.2015,-0.0050048828125,-0.07012939453125,1.00006103515625,4.246826171875,-2.6617431640625,3.7982177734375,0,4.0,4.0,4.0,4.0,95.00
2021-04-05 17:42:56.385,0.0,0.0,0.0,0.0,0.0,0.0,0.0,0.0,0.0,0.0,0.0,0.0,0.0,0.0,0.0,0.0,0.0,0.0,0.0,0.0,814.7253,784.5055,784.90845,828.022,703.1135,-0.028564453125,-0.07373046875,0.993896484375,4.14215087890625,-2.848663330078125,0.58319091796875,0,4.0,4.0,4.0,4.0,95.00
2021-04-05 17:42:56.894,0.0,0.0,0.0,0.0,0.0,0.0,0.0,0.0,0.0,0.0,0.0,0.0,0.0,0.0,0.0,0.0,0.0,0.0,0.0,0.0,793.36993,793.7729,796.99634,776.4469,678.93774,-0.049072265625,-0.07391357421875,0.99481201171875,5.263671875,-7.394561767578125,2.811279296875,0,4.0,4.0,4.0,4.0,95.00
2021-04-05 17:42:57.402,0.0,0.0,0.0,0.0,0.0,0.0,0.0,0.0,0.0,0.0,0.0,0.0,0.0,0.0,0.0,0.0,0.0,0.0,0.0,0.0,777.25275,804.65204,790.9524,731.7216,819.15753,0.0634765625,-0.0869140625,0.99847412109375,7.155303955078125,-5.211334228515625,0.366363525390625,0,4.0,4.0,4.0,4.0,95.00
2021-04-05 17:42:57.912,0.0,0.0,0.0,0.0,0.0,0.0,0.0,0.0,0.0,0.0,0.0,0.0,0.0,0.0,0.0,0.0,0.0,0.0,0.0,0.0,816.7399,800.6227,799.81683,838.49817,838.9011,-0.01055908203125,-0.09368896484375,0.98785400390625,2.930908203125,-2.654266357421875,0.605621337890625,0,4.0,4.0,4.0,4.0,95.00
2021-04-05 17:42:58.422,0.0,0.0,0.0,0.0,0.0,0.0,0.0,0.0,0.0,0.0,0.0,0.0,0.0,0.0,0.0,0.0,0.0,0.0,0.0,0.0,828.4249,778.86444,782.8938,848.5714,841.31866,0.0050048828125,-0.0947265625,1.0035400390625,4.613189697265625,-7.10296630859375,-1.74957275390625,0,4.0,4.0,4.0,4.0,95.00
2021-04-05 17:42:58.931,0.0,0.0,0.0,0.0,0.0,0.0,0.0,0.0,0.0,0.0,0.0,0.0,0.0,0.0,0.0,0.0,0.0,0.0,0.0,0.0,794.9817,786.1172,782.49084,803.8461,627.76556,-0.0179443359375,-0.0814208984375,0.994384765625,0.9271240234375,-1.12152099609375,2.40753173828125,0,4.0,4.0,4.0,4.0,95.00
2021-04-05 17:42:59.441,0.0,0.0,0.0,0.0,0.0,0.0,0.0,0.0,0.0,0.0,0.0,0.0,0.0,0.0,0.0,0.0,0.0,0.0,0.0,0.0,792.5641,808.2784,804.2491,749.45056,725.2747,-0.03411865234375,-0.11578369140625,0.99755859375,3.06549072265625,-5.51788330078125,0.485992431640625,0,4.0,4.0,4.0,4.0,95.00
2021-04-05 17:42:59.950,0.0,0.0,0.0,0.0,0.0,0.0,0.0,0.0,0.0,0.0,0.0,0.0,0.0,0.0,0.0,0.0,0.0,0.0,0.0,0.0,856.63007,786.9231,782.49084,875.9707,789.7436,-0.040283203125,-0.1278076171875,1.0,1.6748046875,-3.880462646484375,0.859832763671875,0,4.0,4.0,4.0,4.0,95.00
2021-04-05 17:43:00.461,0.0,0.0,0.0,0.0,0.0,0.0,0.0,0.0,0.0,0.0,0.0,0.0,0.0,0.0,0.0,0.0,0.0,0.0,0.0,0.0,803.0403,796.5934,789.34064,799.41394,665.2381,-0.0361328125,-0.127685546875,0.99462890625,5.854339599609375,-6.57958984375,0.19439697265625,0,4.0,4.0,4.0,4.0,95.00
2021-04-05 17:43:00.972,0.0,0.0,0.0,0.0,0.0,0.0,0.0,0.0,0.0,0.0,0.0,0.0,0.0,0.0,0.0,0.0,0.0,0.0,0.0,0.0,792.1612,758.315,772.4176,830.4396,770.40295,-0.04132080078125,-0.1373291015625,0.99114990234375,3.6785888671875,-4.53094482421875,0.04486083984375,0,4.0,4.0,4.0,4.0,95.00
2021-04-05 17:43:01.480,0.0,0.0,0.0,0.0,0.0,0.0,0.0,0.0,0.0,0.0,0.0,0.0,0.0,0.0,0.0,0.0,0.0,0.0,0.0,0.0,797.3993,790.9524,785.31134,780.07324,742.1978,-0.03955078125,-0.15338134765625,0.99090576171875,4.71038818359375,-6.183319091796875,1.8841552734375,0,4.0,4.0,4.0,4.0,95.00
2021-04-05 17:43:01.990,0.0,0.0,0.0,0.0,0.0,0.0,0.0,0.0,0.0,0.0,0.0,0.0,0.0,0.0,0.0,0.0,0.0,0.0,0.0,0.0,815.12823,794.57874,793.36993,848.1685,745.82416,-0.05023193359375,-0.12347412109375,0.98681640625,6.691741943359375,-4.66552734375,0.575714111328125,0,4.0,4.0,4.0,4.0,95.00
2021-04-05 17:43:02.498,0.0,0.0,0.0,0.0,0.0,0.0,0.0,0.0,0.0,0.0,0.0,0.0,0.0,0.0,0.0,0.0,0.0,0.0,0.0,0.0,807.0696,788.5348,786.1172,837.6923,733.3333,-0.01739501953125,-0.11474609375,0.99822998046875,7.514190673828125,-6.183319091796875,8.680572509765625,0,4.0,4.0,4.0,4.0,95.00
2021-04-05 17:43:03.007,0.0,0.0,0.0,0.0,0.0,0.0,0.0,0.0,0.0,0.0,0.0,0.0,0.0,0.0,0.0,0.0,0.0,0.0,0.0,0.0,772.4176,792.5641,806.6667,761.9414,720.4396,-0.02557373046875,-0.09814453125,0.9962158203125,5.6524658203125,-4.897308349609375,0.919647216796875,0,4.0,4.0,4.0,4.0,95.00
2021-04-05 17:43:03.519,0.0,0.0,0.0,0.0,0.0,0.0,0.0,0.0,0.0,0.0,0.0,0.0,0.0,0.0,0.0,0.0,0.0,0.0,0.0,0.0,826.8132,795.38464,799.41394,848.1685,884.83514,0.00103759765625,-0.1107177734375,0.99359130859375,5.06927490234375,-6.796417236328125,0.381317138671875,0,4.0,4.0,4.0,4.0,95.00
2021-04-05 17:43:04.029,0.0,0.0,0.0,0.0,0.0,0.0,0.0,0.0,0.0,0.0,0.0,0.0,0.0,0.0,0.0,0.0,0.0,0.0,0.0,0.0,747.4359,783.69965,801.02563,760.7326,918.2784,0.0234375,-0.09326171875,1.00799560546875,4.792633056640625,-4.747772216796875,0.9271240234375,0,4.0,4.0,4.0,4.0,95.00
2021-04-05 17:43:04.537,0.0,0.0,0.0,0.0,0.0,0.0,0.0,0.0,0.0,0.0,0.0,0.0,0.0,0.0,0.0,0.0,0.0,0.0,0.0,0.0,788.5348,779.67035,794.9817,759.12085,679.34064,0.03125,-0.0977783203125,1.002685546875,4.66552734375,-5.14404296875,1.128997802734375,0,4.0,4.0,4.0,4.0,95.00
2021-04-05 17:43:05.049,0.0,0.0,0.0,0.0,0.0,0.0,0.0,0.0,0.0,0.0,0.0,0.0,0.0,0.0,0.0,0.0,0.0,0.0,0.0,0.0,800.6227,793.7729,797.8022,791.3553,696.6667,0.024658203125,-0.0987548828125,0.9923095703125,5.465545654296875,-6.003875732421875,1.143951416015625,0,4.0,4.0,4.0,4.0,95.00
2021-04-05 17:43:05.556,0.0,0.0,0.0,0.0,0.0,0.0,0.0,0.0,0.0,0.0,0.0,0.0,0.0,0.0,0.0,0.0,0.0,0.0,0.0,0.0,826.4103,803.44324,785.31134,826.0073,834.4689,0.03546142578125,-0.0858154296875,1.005615234375,4.9945068359375,-5.1739501953125,0.79254150390625,0,4.0,4.0,4.0,4.0,95.00
2021-04-05 17:43:06.067,0.0,0.0,0.0,0.0,0.0,0.0,0.0,0.0,0.0,0.0,0.0,0.0,0.0,0.0,0.0,0.0,0.0,0.0,0.0,0.0,848.5714,788.5348,777.25275,874.7619,726.4835,-0.043701171875,-0.0655517578125,0.9813232421875,11.850738525390625,5.001983642578125,6.878662109375,0,4.0,4.0,4.0,4.0,100.00
2021-04-05 17:43:06.578,0.0,0.0,0.0,0.0,0.0,0.0,0.0,0.0,0.0,0.0,0.0,0.0,0.0,0.0,0.0,0.0,0.0,0.0,0.0,0.0,826.0073,820.7692,782.8938,799.81683,813.5165,-0.0196533203125,-0.0982666015625,0.98773193359375,-1.48040771484375,-52.464752197265625,-12.4713134765625,0,4.0,4.0,4.0,4.0,100.00
2021-04-05 17:43:07.087,0.0,0.0,0.0,0.0,0.0,0.0,0.0,0.0,0.0,0.0,0.0,0.0,0.0,0.0,0.0,0.0,0.0,0.0,0.0,0.0,789.7436,742.1978,797.8022,742.1978,693.44324,0.26873779296875,-0.031982421875,0.93951416015625,5.271148681640625,-4.059906005859375,0.91217041015625,0,4.0,4.0,4.0,4.0,100.00
2021-04-05 17:43:07.596,0.0,0.0,0.0,0.0,0.0,0.0,0.0,0.0,0.0,0.0,0.0,0.0,0.0,0.0,0.0,0.0,0.0,0.0,0.0,0.0,869.12085,1060.5128,800.2198,888.46155,753.47986,0.15606689453125,-0.04388427734375,0.998046875,1.973876953125,14.893798828125,0.0299072265625,0,4.0,4.0,4.0,4.0,100.00
2021-04-05 17:43:08.106,0.0,0.0,0.0,0.0,0.0,0.0,0.0,0.0,0.0,0.0,0.0,0.0,0.0,0.0,0.0,0.0,0.0,0.0,0.0,0.0,853.00366,777.6557,803.44324,882.4176,1126.5934,0.03155517578125,-0.1015625,1.0181884765625,3.686065673828125,-1.9140625,2.684173583984375,0,4.0,4.0,4.0,4.0,100.00
2021-04-05 17:43:08.616,0.0,0.0,0.0,0.0,0.0,0.0,0.0,0.0,0.0,0.0,0.0,0.0,0.0,0.0,0.0,0.0,0.0,0.0,0.0,0.0,815.12823,813.1135,813.5165,774.83514,693.8461,0.0699462890625,-0.08624267578125,1.008056640625,7.76092529296875,-7.91046142578125,3.790740966796875,0,4.0,4.0,4.0,4.0,100.00
2021-04-05 17:43:09.129,0.0,0.0,0.0,0.0,0.0,0.0,0.0,0.0,0.0,0.0,0.0,0.0,0.0,0.0,0.0,0.0,0.0,0.0,0.0,0.0,801.02563,800.6227,802.23444,764.35895,729.304,0.075439453125,-0.0841064453125,1.00115966796875,2.88604736328125,-4.5758056640625,-2.85614013671875,0,4.0,4.0,4.0,4.0,100.00
2021-04-05 17:43:09.638,0.0,0.0,0.0,0.0,0.0,0.0,0.0,0.0,0.0,0.0,0.0,0.0,0.0,0.0,0.0,0.0,0.0,0.0,0.0,0.0,838.9011,782.49084,776.8498,845.34796,788.5348,0.07354736328125,-0.0963134765625,1.0020751953125,4.1571044921875,-3.69354248046875,0.381317138671875,0,4.0,4.0,4.0,4.0,100.00
2021-04-05 17:43:10.145,0.0,0.0,0.0,0.0,0.0,0.0,0.0,0.0,0.0,0.0,0.0,0.0,0.0,0.0,0.0,0.0,0.0,0.0,0.0,0.0,816.337,785.7143,782.49084,803.8461,723.2601,0.07427978515625,-0.0958251953125,0.9993896484375,4.366455078125,-2.75146484375,1.487884521484375,0,4.0,4.0,4.0,4.0,100.00
2021-04-05 17:43:10.655,0.0,0.0,0.0,0.0,0.0,0.0,0.0,0.0,0.0,0.0,0.0,0.0,0.0,0.0,0.0,0.0,0.0,0.0,0.0,0.0,792.96704,807.47253,813.5165,761.13556,700.696,0.08148193359375,-0.1043701171875,0.983642578125,4.53094482421875,-6.639404296875,2.355194091796875,0,4.0,4.0,4.0,4.0,100.00
2021-04-05 17:43:11.166,0.0,0.0,0.0,0.0,0.0,0.0,0.0,0.0,0.0,0.0,0.0,0.0,0.0,0.0,0.0,0.0,0.0,0.0,0.0,0.0,805.8608,801.4286,804.65204,807.8755,791.3553,0.052978515625,-0.09625244140625,0.998291015625,3.90289306640625,-5.779571533203125,2.624359130859375,0,4.0,4.0,4.0,4.0,100.00
2021-04-05 17:43:11.678,0.0,0.0,0.0,0.0,0.0,0.0,0.0,0.0,0.0,0.0,0.0,0.0,0.0,0.0,0.0,0.0,0.0,0.0,0.0,0.0,859.45056,823.9927,798.60803,883.22345,761.53845,0.12164306640625,-0.1163330078125,0.94683837890625,7.245025634765625,-17.473297119140625,-11.252593994140625,0,4.0,4.0,4.0,4.0,100.00
2021-04-05 17:43:12.184,0.0,0.0,0.0,0.0,0.0,0.0,0.0,0.0,0.0,0.0,0.0,0.0,0.0,0.0,0.0,0.0,0.0,0.0,0.0,0.0,797.8022,764.35895,801.02563,831.6484,783.2967,0.34112548828125,0.02874755859375,0.95703125,14.176025390625,-11.5142822265625,6.9384765625,0,4.0,4.0,4.0,4.0,100.00
2021-04-05 17:43:12.699,0.0,0.0,0.0,0.0,0.0,0.0,0.0,0.0,0.0,0.0,0.0,0.0,0.0,0.0,0.0,0.0,0.0,0.0,0.0,0.0,771.6117,757.1062,807.0696,753.0769,635.42126,0.31243896484375,0.0130615234375,0.97003173828125,-4.74029541015625,8.314208984375,0.179443359375,0,4.0,4.0,4.0,4.0,100.00
2021-04-05 17:43:13.209,0.0,0.0,0.0,0.0,0.0,0.0,0.0,0.0,0.0,0.0,0.0,0.0,0.0,0.0,0.0,0.0,0.0,0.0,0.0,0.0,770.0,787.72894,800.6227,765.9707,663.6264,0.3251953125,-0.0140380859375,0.94903564453125,4.852447509765625,-1.517791748046875,-0.411224365234375,0,4.0,4.0,4.0,4.0,100.00
2021-04-05 17:43:13.713,0.0,0.0,0.0,0.0,0.0,0.0,0.0,0.0,0.0,0.0,0.0,0.0,0.0,0.0,0.0,0.0,0.0,0.0,0.0,0.0,805.05493,778.86444,808.2784,844.1392,769.59705,0.30718994140625,-0.00567626953125,0.96002197265625,1.9439697265625,-0.859832763671875,1.712188720703125,0,4.0,4.0,4.0,4.0,100.00
2021-04-05 17:43:14.222,0.0,0.0,0.0,0.0,0.0,0.0,0.0,0.0,0.0,0.0,0.0,0.0,0.0,0.0,0.0,0.0,0.0,0.0,0.0,0.0,770.40295,780.4762,801.8315,753.0769,719.6337,0.2445068359375,-0.07080078125,0.9833984375,-6.1907958984375,-2.370147705078125,1.3458251953125,0,4.0,4.0,4.0,4.0,100.00
2021-04-05 17:43:14.728,0.0,0.0,0.0,0.0,0.0,0.0,0.0,0.0,0.0,0.0,0.0,0.0,0.0,0.0,0.0,0.0,0.0,0.0,0.0,0.0,795.38464,780.4762,804.2491,787.72894,717.2161,0.24462890625,-0.1707763671875,0.95086669921875,4.486083984375,-8.874969482421875,-2.041168212890625,0,4.0,4.0,4.0,4.0,100.00
2021-04-05 17:43:15.243,0.0,0.0,0.0,0.0,0.0,0.0,0.0,0.0,0.0,0.0,0.0,0.0,0.0,0.0,0.0,0.0,0.0,0.0,0.0,0.0,788.5348,785.31134,801.8315,829.2308,712.7839,0.2652587890625,-0.126708984375,0.950927734375,9.94415283203125,-5.06927490234375,-0.456085205078125,0,4.0,4.0,4.0,4.0,100.00
2021-04-05 17:43:15.752,0.0,0.0,0.0,0.0,0.0,0.0,0.0,0.0,0.0,0.0,0.0,0.0,0.0,0.0,0.0,0.0,0.0,0.0,0.0,0.0,655.9707,820.7692,815.12823,767.5824,676.1172,0.19549560546875,-0.06024169921875,0.97381591796875,7.603912353515625,4.85992431640625,-0.261688232421875,0,4.0,4.0,4.0,4.0,100.00
2021-04-05 17:43:16.264,0.0,0.0,0.0,0.0,0.0,0.0,0.0,0.0,0.0,0.0,0.0,0.0,0.0,0.0,0.0,0.0,0.0,0.0,0.0,0.0,756.30035,844.1392,795.38464,886.04395,692.23444,0.2801513671875,-0.0660400390625,0.9613037109375,5.39825439453125,-22.722015380859375,2.213134765625,0,4.0,4.0,4.0,4.0,100.00
2021-04-05 17:43:16.775,0.0,0.0,0.0,0.0,0.0,0.0,0.0,0.0,0.0,0.0,0.0,0.0,0.0,0.0,0.0,0.0,0.0,0.0,0.0,0.0,736.55676,801.4286,817.9487,755.4945,762.3443,0.349365234375,-0.02752685546875,0.94036865234375,7.16278076171875,-9.906768798828125,6.602020263671875,0,4.0,4.0,4.0,4.0,100.00
2021-04-05 17:43:17.281,0.0,0.0,0.0,0.0,0.0,0.0,0.0,0.0,0.0,0.0,0.0,0.0,0.0,0.0,0.0,0.0,0.0,0.0,0.0,0.0,722.0513,784.5055,785.7143,818.7546,791.75824,0.46661376953125,0.01702880859375,0.90838623046875,8.89739990234375,-16.620941162109375,5.84686279296875,0,4.0,4.0,4.0,4.0,100.00
2021-04-05 17:43:17.794,0.0,0.0,0.0,0.0,0.0,0.0,0.0,0.0,0.0,0.0,0.0,0.0,0.0,0.0,0.0,0.0,0.0,0.0,0.0,0.0,790.54944,778.86444,795.78754,862.27106,847.3626,0.44342041015625,0.025390625,0.88262939453125,4.18701171875,0.919647216796875,-1.472930908203125,0,4.0,4.0,4.0,4.0,100.00
2021-04-05 17:43:18.300,0.0,0.0,0.0,0.0,0.0,0.0,0.0,0.0,0.0,0.0,0.0,0.0,0.0,0.0,0.0,0.0,0.0,0.0,0.0,0.0,753.0769,781.28204,803.0403,738.5714,821.5751,0.44525146484375,0.07562255859375,0.91510009765625,2.691650390625,-5.301055908203125,-13.68255615234375,0,4.0,4.0,4.0,4.0,100.00
2021-04-05 17:43:18.810,0.0,0.0,0.0,0.0,0.0,0.0,0.0,0.0,0.0,0.0,0.0,0.0,0.0,0.0,0.0,0.0,0.0,0.0,0.0,0.0,787.326,785.31134,793.36993,800.2198,786.52014,0.455078125,0.07525634765625,0.9168701171875,0.695343017578125,-3.357086181640625,-4.20196533203125,0,4.0,4.0,4.0,4.0,100.00
2021-04-05 17:43:19.320,0.0,0.0,0.0,0.0,0.0,0.0,0.0,0.0,0.0,0.0,0.0,0.0,0.0,0.0,0.0,0.0,0.0,0.0,0.0,0.0,811.50183,799.011,803.0403,853.00366,768.7912,0.37127685546875,0.060302734375,0.93023681640625,2.1832275390625,1.114044189453125,-3.768310546875,0,4.0,4.0,4.0,4.0,100.00
2021-04-05 17:43:19.829,0.0,0.0,0.0,0.0,0.0,0.0,0.0,0.0,0.0,0.0,0.0,0.0,0.0,0.0,0.0,0.0,0.0,0.0,0.0,0.0,816.337,812.3077,807.8755,789.7436,1016.1905,0.318359375,0.0146484375,0.9537353515625,0.70281982421875,-1.084136962890625,-6.519775390625,0,4.0,4.0,4.0,4.0,100.00
2021-04-05 17:43:20.339,0.0,0.0,0.0,0.0,0.0,0.0,0.0,0.0,0.0,0.0,0.0,0.0,0.0,0.0,0.0,0.0,0.0,0.0,0.0,0.0,779.2674,790.54944,785.31134,735.7509,679.7436,0.20526123046875,-0.0545654296875,0.96331787109375,-13.05450439453125,9.94415283203125,-36.359710693359375,0,4.0,4.0,4.0,4.0,100.00
2021-04-05 17:43:20.848,0.0,0.0,0.0,0.0,0.0,0.0,0.0,0.0,0.0,0.0,0.0,0.0,0.0,0.0,0.0,0.0,0.0,0.0,0.0,0.0,805.05493,778.0586,786.9231,852.6007,751.8681,0.1419677734375,-0.0311279296875,0.98992919921875,10.3778076171875,-0.007476806640625,5.36834716796875,0,4.0,4.0,4.0,4.0,100.00
2021-04-05 17:43:21.358,0.0,0.0,0.0,0.0,0.0,0.0,0.0,0.0,0.0,0.0,0.0,0.0,0.0,0.0,0.0,0.0,0.0,0.0,0.0,0.0,788.1319,780.07324,791.75824,792.5641,851.79486,0.14227294921875,0.0535888671875,1.00860595703125,4.329071044921875,-4.8150634765625,4.50103759765625,0,4.0,4.0,4.0,4.0,100.00
2021-04-05 17:43:21.868,0.0,0.0,0.0,0.0,0.0,0.0,0.0,0.0,0.0,0.0,0.0,0.0,0.0,0.0,0.0,0.0,0.0,0.0,0.0,0.0,753.0769,760.7326,757.50916,690.2198,618.0952,0.14886474609375,0.002685546875,0.987548828125,2.0037841796875,-2.27294921875,2.79632568359375,0,4.0,4.0,4.0,4.0,100.00
2021-04-05 17:43:22.377,0.0,0.0,0.0,0.0,0.0,0.0,0.0,0.0,0.0,0.0,0.0,0.0,0.0,0.0,0.0,0.0,0.0,0.0,0.0,0.0,811.50183,770.80585,803.8461,803.44324,801.8315,0.14410400390625,-0.0174560546875,0.9923095703125,4.78515625,2.6617431640625,21.48834228515625,0,4.0,4.0,4.0,4.0,100.00
2021-04-05 17:43:22.886,0.0,0.0,0.0,0.0,0.0,0.0,0.0,0.0,0.0,0.0,0.0,0.0,0.0,0.0,0.0,0.0,0.0,0.0,0.0,0.0,803.0403,755.09155,789.7436,857.8388,814.3223,0.09307861328125,0.013916015625,1.00042724609375,10.72174072265625,-4.792633056640625,10.06378173828125,0,4.0,4.0,4.0,4.0,100.00
2021-04-05 17:43:23.400,0.0,0.0,0.0,0.0,0.0,0.0,0.0,0.0,0.0,0.0,0.0,0.0,0.0,0.0,0.0,0.0,0.0,0.0,0.0,0.0,782.49084,757.50916,776.4469,807.8755,729.304,0.02490234375,0.005126953125,1.0003662109375,12.261962890625,-6.332855224609375,13.809661865234375,0,4.0,4.0,4.0,4.0,100.00
2021-04-05 17:43:23.906,0.0,0.0,0.0,0.0,0.0,0.0,0.0,0.0,0.0,0.0,0.0,0.0,0.0,0.0,0.0,0.0,0.0,0.0,0.0,0.0,796.1905,825.6044,827.2161,765.16486,752.27106,0.037841796875,0.0177001953125,1.00604248046875,1.83929443359375,-1.256103515625,24.396820068359375,0,4.0,4.0,4.0,4.0,100.00
2021-04-05 17:43:24.416,0.0,0.0,0.0,0.0,0.0,0.0,0.0,0.0,0.0,0.0,0.0,0.0,0.0,0.0,0.0,0.0,0.0,0.0,0.0,0.0,811.0989,773.22345,781.28204,848.97437,873.5531,0.001220703125,0.00762939453125,1.02801513671875,3.96270751953125,-0.934600830078125,7.259979248046875,0,4.0,4.0,4.0,4.0,100.00
2021-04-05 17:43:24.925,0.0,0.0,0.0,0.0,0.0,0.0,0.0,0.0,0.0,0.0,0.0,0.0,0.0,0.0,0.0,0.0,0.0,0.0,0.0,0.0,789.7436,836.08057,763.95605,816.337,796.1905,0.04779052734375,0.031494140625,1.01031494140625,5.4132080078125,-8.022613525390625,3.895416259765625,0,4.0,4.0,4.0,4.0,100.00
2021-04-05 17:43:25.435,0.0,0.0,0.0,0.0,0.0,0.0,0.0,0.0,0.0,0.0,0.0,0.0,0.0,0.0,0.0,0.0,0.0,0.0,0.0,0.0,762.74725,801.02563,798.20514,730.10986,741.79486,0.04278564453125,0.06622314453125,1.01861572265625,5.7122802734375,-1.48040771484375,3.671112060546875,0,4.0,4.0,4.0,4.0,100.00
2021-04-05 17:43:25.947,0.0,0.0,0.0,0.0,0.0,0.0,0.0,0.0,0.0,0.0,0.0,0.0,0.0,0.0,0.0,0.0,0.0,0.0,0.0,0.0,795.78754,767.98535,790.9524,777.6557,774.0293,0.036865234375,0.054443359375,0.99932861328125,4.44122314453125,-3.910369873046875,0.70281982421875,0,4.0,4.0,4.0,4.0,100.00
2021-04-05 17:43:26.455,0.0,0.0,0.0,0.0,0.0,0.0,0.0,0.0,0.0,0.0,0.0,0.0,0.0,0.0,0.0,0.0,0.0,0.0,0.0,0.0,804.2491,805.4579,799.81683,856.2271,884.43225,0.025634765625,0.05908203125,1.00146484375,2.534637451171875,-0.979461669921875,-0.500946044921875,0,4.0,4.0,4.0,4.0,95.00
2021-04-05 17:43:26.967,0.0,0.0,0.0,0.0,0.0,0.0,0.0,0.0,0.0,0.0,0.0,0.0,0.0,0.0,0.0,0.0,0.0,0.0,0.0,0.0,897.72894,846.1539,769.59705,917.47253,858.6447,0.0992431640625,0.0751953125,0.9376220703125,14.019012451171875,-64.28558349609375,-59.971466064453125,0,4.0,4.0,4.0,4.0,95.00
2021-04-05 17:43:27.477,0.0,0.0,0.0,0.0,0.0,0.0,0.0,0.0,0.0,0.0,0.0,0.0,0.0,0.0,0.0,0.0,0.0,0.0,0.0,0.0,819.15753,751.4652,804.2491,766.77655,635.42126,0.2882080078125,0.1029052734375,0.962890625,5.2337646484375,-4.942169189453125,2.1533203125,0,4.0,4.0,4.0,4.0,95.00
2021-04-05 17:43:27.984,0.0,0.0,0.0,0.0,0.0,0.0,0.0,0.0,0.0,0.0,0.0,0.0,0.0,0.0,0.0,0.0,0.0,0.0,0.0,0.0,806.6667,818.3516,804.2491,749.85345,613.663,0.18194580078125,-0.0126953125,0.97137451171875,7.28240966796875,22.98370361328125,39.3878173828125,0,4.0,4.0,4.0,4.0,95.00
2021-04-05 17:43:28.497,0.0,0.0,0.0,0.0,0.0,0.0,0.0,0.0,0.0,0.0,0.0,0.0,0.0,0.0,0.0,0.0,0.0,0.0,0.0,0.0,658.3883,770.0,574.17584,648.315,989.19415,-0.04229736328125,0.0859375,1.00927734375,5.615081787109375,-8.8226318359375,0.58319091796875,0,4.0,4.0,4.0,4.0,95.00
2021-04-05 17:43:29.006,0.0,0.0,0.0,0.0,0.0,0.0,0.0,0.0,0.0,0.0,0.0,0.0,0.0,0.0,0.0,0.0,0.0,0.0,0.0,0.0,809.0842,846.1539,750.65936,759.92676,719.6337,-0.06591796875,0.05682373046875,1.00689697265625,5.764617919921875,-14.004058837890625,-21.779937744140625,0,4.0,4.0,4.0,4.0,95.00
2021-04-05 17:43:29.517,0.0,0.0,0.0,0.0,0.0,0.0,0.0,0.0,0.0,0.0,0.0,0.0,0.0,0.0,0.0,0.0,0.0,0.0,0.0,0.0,854.61536,824.7985,815.5311,831.6484,829.2308,-0.04425048828125,0.07928466796875,0.99713134765625,2.13836669921875,0.04486083984375,32.6287841796875,0,4.0,4.0,4.0,4.0,95.00
2021-04-05 17:43:30.023,0.0,0.0,0.0,0.0,0.0,0.0,0.0,0.0,0.0,0.0,0.0,0.0,0.0,0.0,0.0,0.0,0.0,0.0,0.0,0.0,840.9158,822.381,816.7399,820.7692,798.60803,-0.0137939453125,0.07684326171875,1.0020751953125,4.8748779296875,-6.213226318359375,-4.4561767578125,0,4.0,4.0,4.0,4.0,95.00
2021-04-05 17:43:30.533,0.0,0.0,0.0,0.0,0.0,0.0,0.0,0.0,0.0,0.0,0.0,0.0,0.0,0.0,0.0,0.0,0.0,0.0,0.0,0.0,777.6557,766.3736,753.47986,777.25275,675.31134,-0.125,0.05120849609375,0.9951171875,-6.639404296875,5.854339599609375,-25.31646728515625,0,4.0,4.0,4.0,4.0,95.00
2021-04-05 17:43:31.043,0.0,0.0,0.0,0.0,0.0,0.0,0.0,0.0,0.0,0.0,0.0,0.0,0.0,0.0,0.0,0.0,0.0,0.0,0.0,0.0,791.3553,821.5751,752.27106,747.8388,759.5238,-0.0587158203125,-0.0438232421875,1.0068359375,5.36834716796875,-11.118011474609375,6.258087158203125,0,4.0,4.0,4.0,4.0,95.00
2021-04-05 17:43:31.552,0.0,0.0,0.0,0.0,0.0,0.0,0.0,0.0,0.0,0.0,0.0,0.0,0.0,0.0,0.0,0.0,0.0,0.0,0.0,0.0,820.7692,789.7436,811.9048,811.9048,758.71796,0.09417724609375,-0.02752685546875,0.9962158203125,5.286102294921875,-9.832000732421875,2.55706787109375,0,4.0,4.0,4.0,4.0,95.00
