TimeStamp,Delta_TP9,Delta_AF7,Delta_AF8,Delta_TP10,Theta_TP9,Theta_AF7,Theta_AF8,Theta_TP10,Alpha_TP9,Alpha_AF7,Alpha_AF8,Alpha_TP10,Beta_TP9,Beta_AF7,Beta_AF8,Beta_TP10,Gamma_TP9,Gamma_AF7,Gamma_AF8,Gamma_TP10,RAW_TP9,RAW_AF7,RAW_AF8,RAW_TP10,AUX_RIGHT,Accelerometer_X,Accelerometer_Y,Accelerometer_Z,Gyro_X,Gyro_Y,Gyro_Z,HeadBandOn,HSI_TP9,HSI_AF7,HSI_AF8,HSI_TP10,Battery,Elements
2021-04-29 10:16:11.744,1.0465529,0.59691006,-0.4976729,1.0468647,0.7814153,0.55559695,-0.36590844,0.8790301,0.92406946,0.4598184,-0.2551045,0.65628153,0.46128926,0.5650293,-0.22175059,0.56995386,-0.07157832,0.22172906,-0.7175685,0.14387734,807.0696,861.8681,803.44324,808.2784,757.9121,0.42181396484375,-0.0377197265625,0.9061279296875,5.21881103515625,-5.562744140625,2.863616943359375,1,1.0,1.0,1.0,1.0,45.00
2021-04-29 10:16:12.257,1.0681154,0.59691006,-0.59120536,0.984135,0.76066345,0.55559695,-0.38346538,0.79515904,0.92406946,0.4598184,-0.2549314,0.69481736,0.4518158,0.5650293,-0.13945328,0.5080364,-0.07227507,0.22172906,-0.66190344,0.073410414,830.0366,918.2784,804.65204,823.9927,831.2454,0.45257568359375,-0.02630615234375,0.92047119140625,4.493560791015625,-0.037384033203125,2.953338623046875,1,1.0,1.0,1.0,1.0,45.00
2021-04-29 10:16:12.751,,,,,,,,,,,,,,,,,,,,,,,,,,,,,,,,,,,,,,/muse/elements/blink
2021-04-29 10:16:12.766,1.0212481,0.59691006,-0.48580658,0.9727982,0.7346581,0.55559695,-0.48458338,0.7749749,0.9145911,0.4598184,-0.07378751,0.72519016,0.44550183,0.5650293,-0.19519904,0.4659044,-0.11258428,0.22172906,-0.5991841,-0.038443174,801.02563,707.5458,807.8755,806.26373,860.2564,0.30859375,-0.04736328125,0.95355224609375,4.6356201171875,10.72174072265625,4.23187255859375,1,1.0,1.0,1.0,1.0,45.00
2021-04-29 10:16:13.271,1.0193422,0.59691006,-0.31436387,0.6365153,0.78830594,0.55559695,-0.47601053,0.4166806,1.023223,0.4598184,-0.0041586054,0.545948,0.41106853,0.5650293,-0.22406746,0.2986678,-0.20100383,0.22172906,-0.60177106,-0.1698755,837.6923,810.293,811.50183,830.4396,875.56775,0.20147705078125,0.059814453125,0.96160888671875,9.682464599609375,7.259979248046875,5.600128173828125,1,1.0,1.0,1.0,1.0,45.00
2021-04-29 10:16:13.783,0.9714189,0.59691006,-0.14305905,0.49702382,0.92515206,0.55559695,-0.2524155,0.8036691,1.0888665,0.4598184,0.055808626,0.64351493,0.4016175,0.5650293,-0.25780734,0.308598,-0.2273793,0.22172906,-0.6274134,-0.0957347,777.25275,816.337,807.0696,780.87915,660.0,0.10479736328125,-0.01611328125,1.03399658203125,13.764801025390625,-6.4300537109375,-40.277557373046875,1,1.0,1.0,1.0,1.0,45.00
2021-04-29 10:16:14.284,1.3832737,0.59691006,0.91649824,0.8403181,1.311674,0.55559695,0.71745944,0.989906,1.0888665,0.4598184,0.5708854,0.6492245,0.4556422,0.5650293,-0.0835032,0.536171,-0.16028254,0.22172906,-0.588812,0.11375855,813.5165,788.1319,805.4579,805.4579,794.9817,0.04071044921875,0.0709228515625,0.997802734375,8.80767822265625,-0.6878662109375,-19.39483642578125,1,1.0,1.0,1.0,1.0,45.00
2021-04-29 10:16:14.702,,,,,,,,,,,,,,,,,,,,,,,,,,,,,,,,,,,,,,/muse/elements/blink
2021-04-29 10:16:14.791,1.371008,0.59691006,1.0569483,0.83233416,1.3428512,0.55559695,0.8610803,0.95409256,0.9642528,0.4598184,0.61867696,0.6655124,0.3357352,0.5650293,-0.015154723,0.51005185,-0.09560738,0.22172906,-0.5465759,0.11050631,787.326,820.7692,816.337,778.86444,770.0,-0.06298828125,0.13311767578125,0.99554443359375,4.18701171875,3.013153076171875,14.2657470703125,1,1.0,1.0,1.0,1.0,50.00
2021-04-29 10:16:15.309,1.371008,0.59691006,1.2408897,0.8011629,1.3428512,0.55559695,1.0399457,0.72032106,0.9642528,0.4598184,0.61867696,0.546119,0.3357352,0.5650293,0.040105276,0.50968826,-0.09560738,0.22172906,-0.48538122,0.09724536,805.05493,803.0403,800.6227,799.81683,678.93774,-0.09552001953125,0.1080322265625,0.99005126953125,1.188812255859375,2.130889892578125,-0.366363525390625,1,1.0,1.0,1.0,1.0,50.00
2021-04-29 10:16:15.820,1.371008,0.59691006,0.93942326,0.80594206,1.3428512,0.55559695,0.7299891,0.47829506,0.9642528,0.4598184,0.5381308,0.51985776,0.3357352,0.5650293,0.024170713,0.46337187,-0.09560738,0.22172906,-0.41499293,0.11364769,830.4396,789.34064,805.05493,825.6044,921.0989,-0.0953369140625,0.0902099609375,1.002197265625,0.6878662109375,-4.9945068359375,0.897216796875,1,1.0,1.0,1.0,1.0,50.00
2021-04-29 10:16:16.333,0.4167833,0.5970544,0.25686172,0.42840496,0.5796817,0.12817058,-0.30480453,0.2602728,0.5020895,0.17918736,-0.05175603,0.47705743,0.32793805,0.80012554,-0.0868579,0.17681767,-0.21137735,0.28797233,-0.5004979,-0.15967308,790.14655,839.304,795.78754,790.14655,842.52747,-0.12457275390625,0.08148193359375,0.9853515625,3.03558349609375,-6.57958984375,-0.88226318359375,1,1.0,1.0,1.0,1.0,50.00
2021-04-29 10:16:16.834,0.6171193,0.6556177,0.3746727,1.0812461,0.5763409,0.15009427,-0.2476999,0.5989825,0.60323805,0.24928123,-0.039020818,0.5970412,0.28619722,0.75932884,-0.13470563,0.15046996,-0.17244317,0.24006209,-0.51392823,-0.20079894,948.0952,826.0073,782.0879,947.28937,800.6227,-0.070068359375,0.06048583984375,1.00128173828125,6.44500732421875,-7.4468994140625,-18.639678955078125,1,1.0,1.0,1.0,1.0,50.00
2021-04-29 10:16:16.936,,,,,,,,,,,,,,,,,,,,,,,,,,,,,,,,,,,,,,/muse/elements/blink
2021-04-29 10:16:17.343,0.6171193,0.64570266,0.84118366,1.0812461,0.5763409,0.13197196,0.30809596,0.5989825,0.60323805,0.24609299,0.053815052,0.5970412,0.28619722,0.7466533,-0.21080709,0.15046996,-0.17244317,0.24162021,-0.5658264,-0.20079894,793.7729,795.78754,800.2198,803.8461,770.80585,-0.07037353515625,0.0997314453125,0.9918212890625,10.011444091796875,-13.316192626953125,4.2767333984375,1,1.0,1.0,1.0,1.0,50.00
2021-04-29 10:16:17.854,0.691453,0.7308819,0.94662696,1.3761497,0.5373957,0.18103474,0.42447516,0.8235,0.502266,0.20348895,0.032990146,0.56566143,0.26297063,0.68990225,-0.2201498,0.115114965,-0.14616856,0.15654308,-0.56184304,-0.25837195,814.7253,821.5751,811.0989,807.0696,780.87915,0.03753662109375,0.16461181640625,0.989501953125,8.067474365234375,-9.009552001953125,2.70660400390625,1,1.0,1.0,1.0,1.0,50.00
2021-04-29 10:16:18.267,,,,,,,,,,,,,,,,,,,,,,,,,,,,,,,,,,,,,,/muse/elements/blink
2021-04-29 10:16:18.363,0.691453,0.7308819,0.9355559,1.3761497,0.5373957,0.18103474,0.4677698,0.8235,0.502266,0.20348895,0.07442971,0.56566143,0.26297063,0.68990225,-0.16219151,0.115114965,-0.14616856,0.15654308,-0.5438,-0.25837195,802.6374,813.5165,805.4579,796.5934,660.80585,0.01483154296875,0.178466796875,0.9859619140625,0.665435791015625,8.673095703125,5.75714111328125,1,1.0,1.0,1.0,1.0,50.00
2021-04-29 10:16:18.864,0.691453,0.7308819,1.0491652,1.3761497,0.5373957,0.18103474,0.4404007,0.8235,0.502266,0.20348895,-0.0027686125,0.56566143,0.26297063,0.68990225,-0.16585067,0.115114965,-0.14616856,0.15654308,-0.57446516,-0.25837195,810.293,803.8461,807.0696,805.05493,709.15753,-0.12249755859375,0.0733642578125,0.98736572265625,0.85235595703125,2.938385009765625,-1.4056396484375,1,1.0,1.0,1.0,1.0,50.00
2021-04-29 10:16:19.367,0.691453,0.7308819,0.98988634,1.3761497,0.5373957,0.18103474,0.36209682,0.8235,0.502266,0.20348895,-0.030107576,0.56566143,0.26297063,0.68990225,-0.13891992,0.115114965,-0.14616856,0.15654308,-0.59802985,-0.25837195,814.7253,822.7839,803.44324,815.9341,786.9231,-0.11029052734375,0.10186767578125,0.9921875,6.1907958984375,-11.491851806640625,0.04486083984375,1,1.0,1.0,1.0,1.0,50.00
2021-04-29 10:16:19.872,1.2932016,0.22082758,0.9356694,1.3761497,0.97603315,0.23481923,0.2900927,0.8235,0.44646612,0.29053473,0.06606659,0.56566143,0.15169293,0.7363335,-0.1461082,0.115114965,-0.047898866,0.5073219,-0.61628413,-0.25837195,817.9487,802.23444,809.0842,815.5311,820.3663,-0.0133056640625,0.10125732421875,0.9927978515625,3.96270751953125,-11.103057861328125,0.97198486328125,1,2.0,1.0,1.0,2.0,50.00
2021-04-29 10:16:20.398,1.4672984,0.12634824,-0.08269869,1.3761497,1.055513,0.17022158,-0.19618823,0.8235,0.6744163,0.30028653,0.07894514,0.56566143,0.18925731,0.74709576,-0.15197228,0.115114965,-0.082362674,0.4833887,-0.5155092,-0.25837195,815.9341,773.22345,802.23444,817.5458,926.7399,0.069091796875,0.11590576171875,1.0013427734375,4.0972900390625,-11.088104248046875,-3.252410888671875,1,1.0,1.0,1.0,1.0,50.00
2021-04-29 10:16:20.794,,,,,,,,,,,,,,,,,,,,,,,,,,,,,,,,,,,,,,/muse/elements/blink
2021-04-29 10:16:20.909,1.5150744,0.22999234,0.010069893,1.3761497,1.1175593,0.0897103,0.03446935,0.8235,0.7259128,0.3586498,0.31350645,0.56566143,0.22672924,0.76666653,-0.14286615,0.115114965,-0.12066734,0.47831026,-0.48481083,-0.25837195,802.23444,817.5458,803.8461,805.4579,718.8278,-0.028564453125,0.11041259765625,0.99493408203125,7.304840087890625,-7.289886474609375,0.07476806640625,1,1.0,1.0,1.0,1.0,50.00
2021-04-29 10:16:21.392,,,,,,,,,,,,,,,,,,,,,,,,,,,,,,,,,,,,,,/muse/elements/blink
2021-04-29 10:16:21.421,1.6699791,0.47460303,0.73809266,1.3761497,1.2042992,0.11396263,0.5862873,0.8235,0.7054135,0.46694753,0.57275605,0.56566143,0.29225236,0.7794042,-0.1496248,0.115114965,-0.16785255,0.43333504,-0.5496088,-0.25837195,811.50183,805.8608,805.05493,806.26373,790.54944,0.06903076171875,0.15863037109375,0.9954833984375,5.061798095703125,-1.77947998046875,1.293487548828125,1,1.0,1.0,1.0,1.0,50.00
2021-04-29 10:16:21.940,1.6699791,0.63162464,0.8242333,1.3761497,1.2042992,0.09647501,0.6089172,0.8235,0.7054135,0.48117137,0.57275605,0.56566143,0.29225236,0.7837163,-0.17924501,0.115114965,-0.16785255,0.43368754,-0.6097339,-0.25837195,775.2381,780.4762,813.5165,788.93774,806.26373,-0.0252685546875,0.12677001953125,0.98944091796875,3.790740966796875,0.680389404296875,0.785064697265625,1,1.0,1.0,1.0,1.0,50.00
2021-04-29 10:16:22.453,1.6699791,0.75859165,1.1981486,1.3761497,1.2042992,0.1895189,0.6622131,0.8235,0.7054135,0.48077944,0.5713923,0.56566143,0.29225236,0.77640855,-0.16260035,0.115114965,-0.16785255,0.36616465,-0.60162586,-0.25837195,844.1392,826.4103,804.2491,832.0513,741.79486,-0.0301513671875,0.13037109375,0.9918212890625,5.465545654296875,-10.7666015625,2.75146484375,1,1.0,1.0,1.0,1.0,50.00
2021-04-29 10:16:22.978,1.6699791,0.51162714,1.0759803,1.3761497,1.2042992,-0.23220997,0.16856593,0.8235,0.7054135,0.3738635,0.21971816,0.56566143,0.29225236,0.6845007,-0.15819561,0.115114965,-0.16785255,0.33225667,-0.49371573,-0.25837195,777.6557,786.52014,801.8315,786.1172,906.1905,-0.0345458984375,0.1123046875,0.9921875,1.435546875,3.54400634765625,1.4056396484375,1,2.0,1.0,1.0,2.0,50.00
2021-04-29 10:16:23.480,1.6699791,0.7099938,1.0292128,1.3761497,1.2042992,0.12107709,0.1387248,0.8235,0.7054135,0.454114,0.17186382,0.56566143,0.29225236,0.6481879,-0.115390874,0.115114965,-0.16785255,0.1733168,-0.4765109,-0.25837195,817.1429,824.7985,805.4579,819.5604,776.04395,-0.03582763671875,0.132568359375,0.9886474609375,7.88055419921875,-10.564727783203125,1.57012939453125,1,2.0,1.0,1.0,2.0,50.00
2021-04-29 10:16:23.991,1.6699791,0.72505534,0.73230916,1.3761497,1.2042992,0.21808766,0.15908872,0.8235,0.7054135,0.5036602,0.25865012,0.56566143,0.29225236,0.63922197,-0.15720594,0.115114965,-0.16785255,0.17768352,-0.51483077,-0.25837195,823.1868,828.022,799.81683,821.978,699.89014,0.070068359375,0.16741943359375,0.9990234375,3.0804443359375,-0.31402587890625,7.64129638671875,1,2.0,1.0,1.0,2.0,50.00
2021-04-29 10:16:24.500,1.6699791,0.8023952,1.1577233,1.3761497,1.2042992,0.346169,0.66349304,0.8235,0.7054135,0.50157994,0.5128359,0.56566143,0.29225236,0.6206167,-0.12737815,0.115114965,-0.16785255,0.10092587,-0.558038,-0.25837195,801.4286,798.20514,807.0696,811.0989,718.8278,0.01104736328125,0.18389892578125,0.98712158203125,9.532928466796875,0.471038818359375,0.007476806640625,1,2.0,1.0,1.0,2.0,50.00
2021-04-29 10:16:25.013,1.6699791,0.80275494,1.1834877,1.3761497,1.2042992,0.46342215,0.6903681,0.8235,0.7054135,0.4433162,0.5128359,0.56566143,0.29225236,0.582181,-0.12831372,0.115114965,-0.16785255,0.17515893,-0.6027535,-0.25837195,763.1502,809.4872,805.4579,792.5641,803.44324,0.01043701171875,0.16656494140625,0.9859619140625,5.0543212890625,-11.461944580078125,0.9271240234375,1,2.0,1.0,1.0,2.0,50.00
2021-04-29 10:16:25.541,0.8177115,0.80275494,1.107214,0.6187817,0.29372504,0.46342215,0.624617,0.07767226,0.6303242,0.4433162,0.4839074,0.010810402,0.6276808,0.582181,-0.16523167,0.21289325,0.17544694,0.17515893,-0.64627707,-0.2273149,792.1612,817.1429,805.8608,791.3553,772.4176,0.0416259765625,0.1939697265625,0.99908447265625,5.09918212890625,-4.44122314453125,4.3963623046875,1,1.0,1.0,1.0,1.0,50.00
2021-04-29 10:16:25.778,,,,,,,,,,,,,,,,,,,,,,,,,,,,,,,,,,,,,,/muse/elements/blink
2021-04-29 10:16:26.046,0.8177115,0.17807078,0.35225892,0.6187817,0.29372504,0.18870412,-0.3105473,0.07767226,0.6303242,0.12249223,-0.13865088,0.010810402,0.6276808,0.48036653,-0.22241436,0.21289325,0.17544694,0.5209496,-0.7035454,-0.2273149,807.8755,817.5458,807.47253,825.6044,699.89014,-0.0032958984375,0.17413330078125,0.98785400390625,4.194488525390625,-3.12530517578125,2.175750732421875,1,1.0,1.0,1.0,1.0,50.00
2021-04-29 10:16:26.555,0.7666787,0.17807078,0.63436246,0.6187817,0.22401948,0.18870412,-0.28326303,0.07767226,0.5755168,0.12249223,0.020095656,0.010810402,0.65118843,0.48036653,-0.22799149,0.21289325,0.20536603,0.5209496,-0.69351906,-0.2273149,801.02563,806.6667,801.4286,808.2784,669.2674,0.03240966796875,0.1781005859375,0.9993896484375,3.12530517578125,-6.759033203125,0.418701171875,1,1.0,1.0,1.0,1.0,50.00
2021-04-29 10:16:27.087,0.7434205,0.45347574,0.7363263,0.4919838,0.1497977,0.26006144,0.047477715,0.08346763,0.49553466,0.14440532,0.07112432,0.007172532,0.6689139,0.5254493,-0.13582389,0.20749927,0.23165298,0.47824338,-0.6448738,-0.2087114,767.1795,804.65204,809.89014,762.74725,734.1392,0.025634765625,0.1806640625,0.9937744140625,4.42626953125,-4.373931884765625,3.3795166015625,1,1.0,1.0,1.0,1.0,50.00
2021-04-29 10:16:27.604,1.6026182,0.51531357,0.7759475,0.4919838,0.93508506,0.27786556,0.18025462,0.08346763,0.5770274,0.061880983,0.087567694,0.007172532,0.31673855,0.5579679,-0.13888024,0.20749927,0.027678607,0.43564653,-0.5961138,-0.2087114,843.73627,823.1868,797.3993,842.52747,775.64105,-0.0263671875,0.1453857421875,0.99267578125,1.876678466796875,1.114044189453125,5.226287841796875,1,1.0,1.0,1.0,1.0,50.00
2021-04-29 10:16:28.108,,,,,,,,,,,,,,,,,,,,,,,,,,,,,,,,,,,,,,/muse/elements/blink
2021-04-29 10:16:28.110,1.6026182,0.51531357,0.8340418,0.4919838,0.93508506,0.27786556,0.3623598,0.08346763,0.5770274,0.061880983,0.31381994,0.007172532,0.31673855,0.5579679,-0.1697437,0.20749927,0.027678607,0.43564653,-0.56968576,-0.2087114,855.42126,810.696,808.68134,850.58606,691.4286,-0.05120849609375,0.10321044921875,0.99853515625,2.564544677734375,-2.594451904296875,-0.545806884765625,1,1.0,1.0,1.0,1.0,50.00
2021-04-29 10:16:28.618,1.667191,0.51531357,0.81700003,0.4919838,0.9965493,0.27786556,0.26508334,0.08346763,0.5488925,0.061880983,0.31709245,0.007172532,0.29955533,0.5579679,-0.23807472,0.20749927,0.002238802,0.43564653,-0.6217012,-0.2087114,846.1539,801.02563,793.36993,843.3333,840.9158,-0.04559326171875,0.111328125,0.98651123046875,7.888031005859375,-10.1983642578125,-2.519683837890625,1,1.0,1.0,1.0,1.0,50.00
2021-04-29 10:16:29.123,1.667191,0.51531357,1.0298039,0.4919838,0.9965493,0.27786556,0.47863692,0.08346763,0.5488925,0.061880983,0.59569687,0.007172532,0.29955533,0.5579679,-0.18093036,0.20749927,0.002238802,0.43564653,-0.62028587,-0.2087114,800.6227,794.57874,799.41394,813.1135,1054.4689,0.01287841796875,0.1348876953125,0.99456787109375,7.5067138671875,-10.415191650390625,-2.55706787109375,1,1.0,1.0,1.0,1.0,50.00
2021-04-29 10:16:29.641,1.667191,0.51531357,1.1017302,0.4919838,0.9965493,0.27786556,0.51367396,0.08346763,0.5488925,0.061880983,0.59680474,0.007172532,0.29955533,0.5579679,-0.14241393,0.20749927,0.002238802,0.43564653,-0.6365748,-0.2087114,819.15753,819.15753,806.26373,816.337,702.3077,0.02337646484375,0.16412353515625,0.98846435546875,6.437530517578125,-6.5496826171875,1.353302001953125,1,1.0,1.0,1.0,1.0,50.00
2021-04-29 10:16:30.118,,,,,,,,,,,,,,,,,,,,,,,,,,,,,,,,,,,,,,/muse/elements/blink
2021-04-29 10:16:30.149,1.667191,0.68017066,1.077093,0.4919838,0.9965493,0.15114634,0.4861529,0.08346763,0.5488925,0.25657475,0.59680474,0.007172532,0.29955533,0.57326126,-0.081310965,0.20749927,0.002238802,0.4111284,-0.5845818,-0.2087114,800.2198,812.71063,803.8461,784.5055,846.55676,0.06158447265625,0.18359375,0.995361328125,2.594451904296875,0.560760498046875,6.153411865234375,1,2.0,1.0,1.0,2.0,50.00
2021-04-29 10:16:30.668,1.667191,0.59055966,1.0114132,0.4919838,0.9965493,-0.09684525,0.26825592,0.08346763,0.5488925,0.025296604,0.24330102,0.007172532,0.29955533,0.5261072,-0.14522462,0.20749927,0.002238802,0.44234547,-0.60070074,-0.2087114,805.8608,821.5751,796.5934,801.4286,753.8828,-0.02838134765625,0.10833740234375,0.98541259765625,1.114044189453125,1.973876953125,1.973876953125,1,2.0,1.0,1.0,2.0,50.00
2021-04-29 10:16:31.182,1.667191,0.59055966,0.96832466,0.4919838,0.9965493,-0.09684525,0.15828162,0.08346763,0.5488925,0.025296604,-0.06720114,0.007172532,0.29955533,0.5261072,-0.19316551,0.20749927,0.002238802,0.44234547,-0.6088115,-0.2087114,833.663,801.02563,812.3077,833.663,765.56775,-0.13018798828125,0.0911865234375,0.98834228515625,3.476715087890625,3.805694580078125,4.015045166015625,1,2.0,1.0,1.0,2.0,50.00
2021-04-29 10:16:31.684,1.2274137,1.0241635,1.0399777,1.5137019,0.2677683,0.42174983,0.23651424,0.4275255,0.5091966,0.47344512,0.09716646,0.44074237,0.19438969,0.7355848,-0.12051957,0.2041349,-0.17011794,0.04051583,-0.5791128,-0.12237086,841.7216,822.381,803.8461,839.707,727.6923,-0.1087646484375,0.0775146484375,0.99658203125,4.329071044921875,-11.34979248046875,-0.8673095703125,1,2.0,1.0,1.0,2.0,50.00
2021-04-29 10:16:32.198,1.1790166,1.0241635,0.87260807,1.4834899,0.4718208,0.42174983,0.18067701,0.67522466,0.64802694,0.47344512,0.20309916,0.72223425,0.1534136,0.7355848,-0.05678851,0.21082288,-0.25211743,0.04051583,-0.5214541,-0.1105325,792.96704,808.2784,799.81683,797.8022,602.381,0.00201416015625,0.0936279296875,1.0008544921875,6.587066650390625,-14.931182861328125,-2.609405517578125,1,1.0,1.0,1.0,1.0,50.00
2021-04-29 10:16:32.568,,,,,,,,,,,,,,,,,,,,,,,,,,,,,,,,,,,,,,/muse/elements/blink
2021-04-29 10:16:32.704,1.3583024,0.9020493,0.85240304,1.4834899,0.81829685,0.4725989,0.20868005,0.67522466,0.8669691,0.48195508,0.28391692,0.72223425,0.20312335,0.6944745,-0.016913308,0.21082288,-0.20947616,0.1394209,-0.49305457,-0.1105325,816.7399,801.4286,803.0403,815.5311,678.5348,0.0401611328125,0.11322021484375,0.98724365234375,5.689849853515625,-5.15899658203125,-0.6878662109375,1,1.0,1.0,1.0,1.0,50.00
2021-04-29 10:16:33.223,1.4128377,0.44679004,0.73425275,1.4681185,1.0108604,0.29811943,0.17657465,0.8152253,0.8669691,0.30600876,0.27670512,0.6870327,0.19106995,0.6903815,-0.03655733,0.22735748,-0.2745558,0.41808486,-0.47589302,-0.07946313,777.6557,796.5934,808.2784,780.07324,704.3223,0.0709228515625,0.14227294921875,0.9951171875,5.33843994140625,-3.058013916015625,-1.099090576171875,1,1.0,1.0,1.0,1.0,50.00
2021-04-29 10:16:33.677,,,,,,,,,,,,,,,,,,,,,,,,,,,,,,,,,,,,,,/muse/elements/blink
2021-04-29 10:16:33.725,1.4128377,0.3667223,0.4039344,1.4681185,1.0108604,0.20918676,-0.008576607,0.8152253,0.8669691,0.39369532,0.29037106,0.6870327,0.19106995,0.6799765,-0.11148743,0.22735748,-0.2745558,0.43773884,-0.5558459,-0.07946313,819.15753,810.293,809.89014,826.0073,718.022,0.00128173828125,0.1328125,0.996337890625,3.75335693359375,-0.680389404296875,2.863616943359375,1,1.0,1.0,1.0,1.0,50.00
2021-04-29 10:16:34.097,,,,,,,,,,,,,,,,,,,,,,,,,,,,,,,,,,,,,,/muse/elements/blink
2021-04-29 10:16:34.255,1.4128377,0.4895257,0.45016998,1.4681185,1.0108604,0.19160084,0.22753921,0.8152253,0.8669691,0.3996587,0.18506391,0.6870327,0.19106995,0.6802183,-0.15744981,0.22735748,-0.2745558,0.518533,-0.609296,-0.07946313,829.6337,768.7912,801.8315,828.022,920.293,-0.06793212890625,0.10345458984375,0.986328125,2.91595458984375,-7.49176025390625,1.74957275390625,1,1.0,1.0,1.0,1.0,50.00
2021-04-29 10:16:34.761,1.4128377,0.65931636,0.4760932,1.4681185,1.0108604,0.28771877,0.21790412,0.8152253,0.8669691,0.36523366,0.2961048,0.6870327,0.19106995,0.6527677,-0.12681322,0.22735748,-0.2745558,0.5113964,-0.62591726,-0.07946313,803.44324,799.41394,797.3993,805.05493,788.93774,0.02813720703125,0.1312255859375,0.99444580078125,6.3104248046875,-7.31231689453125,2.310333251953125,1,2.0,1.0,1.0,2.0,50.00
2021-04-29 10:16:35.266,1.4128377,0.63556254,0.51258135,1.4681185,1.0108604,0.25515136,0.2142373,0.8152253,0.8669691,0.25423643,0.30935735,0.6870327,0.19106995,0.613911,-0.07132227,0.22735748,-0.2745558,0.38801247,-0.62347,-0.07946313,822.381,819.15753,805.05493,807.8755,834.87177,-0.01275634765625,0.12115478515625,0.98321533203125,7.200164794921875,-4.08233642578125,0.3887939453125,1,2.0,1.0,1.0,2.0,50.00
2021-04-29 10:16:35.771,1.4128377,0.7274608,0.65227187,1.3767444,1.0108604,0.47812733,0.2622746,1.0285102,0.8669691,0.48375314,0.3449362,0.87406087,0.19106995,0.58712584,-0.038242996,0.4415814,-0.2745558,0.31548458,-0.6033873,-0.15907417,789.34064,789.7436,804.2491,799.41394,803.0403,0.01361083984375,0.23614501953125,0.98248291015625,8.336639404296875,-3.222503662109375,6.98333740234375,1,1.0,1.0,1.0,1.0,50.00
2021-04-29 10:16:36.283,1.4128377,0.6402744,0.6770286,1.3158041,1.0108604,0.35842797,0.24996032,0.97429425,0.8669691,0.5036178,0.27223656,0.87406087,0.19106995,0.5609638,-0.109605424,0.4254607,-0.2745558,0.38853982,-0.59902096,-0.18088208,804.65204,819.5604,801.02563,800.2198,826.8132,0.0025634765625,0.20294189453125,0.99224853515625,3.78326416015625,-3.81317138671875,-0.85235595703125,1,1.0,1.0,1.0,1.0,50.00
2021-04-29 10:16:36.797,1.2364283,0.6867233,0.66587347,1.1650466,0.7715353,0.4112797,0.22256777,0.82051104,1.1636411,0.5033767,0.25785238,0.87406087,0.4627658,0.54465675,-0.17258652,0.3436836,0.1864548,0.41642335,-0.58232075,-0.27180162,819.9634,828.8278,799.011,809.89014,773.6264,0.00811767578125,0.1971435546875,0.98455810546875,6.706695556640625,-8.2843017578125,-1.42059326171875,1,1.0,1.0,1.0,1.0,50.00
2021-04-29 10:16:37.315,0.63981396,0.4665336,0.42051944,0.5731247,0.1705444,0.18737648,-0.11600178,0.12334762,0.07492831,0.38946328,0.11677335,0.11730708,0.4475732,0.542172,-0.15383393,0.20360821,0.09478223,0.4184655,-0.5994794,-0.3658338,814.7253,811.50183,797.8022,810.696,799.011,0.044189453125,0.23016357421875,0.9759521484375,4.388885498046875,-4.50103759765625,3.648681640625,1,1.0,1.0,1.0,1.0,50.00
2021-04-29 10:16:37.647,,,,,,,,,,,,,,,,,,,,,,,,,,,,,,,,,,,,,,/muse/elements/blink
2021-04-29 10:16:37.840,0.6407539,0.5245382,0.71062106,0.5769172,0.16166702,0.32787296,0.30096638,0.09744849,0.07492831,0.21878548,0.4646829,0.19587538,0.44825512,0.5720478,-0.12333094,0.20957808,0.07069644,0.32942212,-0.6252995,-0.31652954,811.9048,806.6667,801.02563,810.293,608.4249,-0.00897216796875,0.1917724609375,0.99072265625,-3.5589599609375,4.26177978515625,4.6954345703125,1,1.0,1.0,1.0,1.0,50.00
2021-04-29 10:16:37.942,,,,,,,,,,,,,,,,,,,,,,,,,,,,,,,,,,,,,,/muse/elements/blink
2021-04-29 10:16:38.356,0.47257754,0.60741377,1.1651598,0.32995394,0.17645754,0.45992762,0.67355984,-0.30862245,0.03798104,0.21878548,0.5663841,0.08489698,0.47736442,0.5850206,-0.110884234,0.27975708,-0.08235709,0.30064175,-0.60562384,-0.185221,796.1905,799.41394,801.02563,805.8608,773.22345,-0.10772705078125,0.1199951171875,0.97412109375,11.88812255859375,0.46356201171875,8.994598388671875,1,1.0,1.0,1.0,1.0,50.00
2021-04-29 10:16:38.877,0.53569716,0.60741377,1.153373,0.34088755,0.15427712,0.45992762,0.6668768,-0.29702035,0.026837748,0.21878548,0.56685144,0.08356834,0.47742027,0.5850206,-0.13668951,0.30216163,-0.10370761,0.30064175,-0.5549515,-0.13846385,825.2015,821.978,818.7546,826.4103,803.0403,-0.02838134765625,0.16827392578125,0.986328125,4.927215576171875,0.94207763671875,6.542205810546875,1,1.0,1.0,1.0,1.0,50.00
2021-04-29 10:16:39.385,1.1179433,0.23981765,0.85434514,0.6919783,0.271135,0.43484613,0.26089418,0.095301904,0.6627883,0.7893905,0.32614362,0.65661687,0.3096188,0.7358942,-0.10660245,0.16555914,-0.040940177,0.21865223,-0.5530946,-0.26232368,807.47253,815.9341,794.57874,799.011,770.80585,-0.15814208984375,0.14764404296875,0.9798583984375,6.519775390625,-0.0299072265625,4.41131591796875,1,1.0,1.0,1.0,1.0,50.00
2021-04-29 10:16:39.897,1.1653472,0.21365441,0.44505465,0.696811,0.23977853,0.30456704,-0.006273493,0.14704607,0.6756146,0.7893905,0.16808328,0.75476515,0.296474,0.6794407,-0.1373415,0.2651311,-0.06674923,0.2880574,-0.5713897,-0.19958906,829.2308,824.7985,789.7436,801.4286,765.9707,-0.13287353515625,0.15643310546875,0.97918701171875,2.8411865234375,-5.076751708984375,-2.392578125,1,1.0,1.0,1.0,1.0,50.00
2021-04-29 10:16:40.422,0.97696996,0.32037935,0.48863426,0.57738686,0.14318135,0.3490844,0.0048671626,0.24881811,0.70962965,0.78963834,0.0644641,0.7669405,0.24860767,0.69250965,-0.086125575,0.3196197,-0.16263048,0.30870578,-0.60878056,-0.2070571,785.7143,788.5348,804.2491,787.72894,823.5897,-0.12200927734375,0.1435546875,0.9874267578125,6.11602783203125,-6.736602783203125,1.06170654296875,1,1.0,1.0,1.0,1.0,50.00
2021-04-29 10:16:40.948,0.57417893,0.25612497,0.45309812,0.4861609,0.052388463,0.2142004,-0.21325937,0.23558098,0.502481,0.5902771,0.09359359,0.6608902,0.14222975,0.61973816,-0.029850544,0.2954588,-0.066194594,0.3845166,-0.54034275,-0.20117182,825.6044,809.89014,811.0989,821.978,785.31134,-0.11492919921875,0.1568603515625,0.98785400390625,4.134674072265625,-4.6356201171875,-1.51031494140625,1,1.0,1.0,1.0,1.0,50.00
2021-04-29 10:16:41.472,0.3498012,0.31109703,0.45674142,0.29428655,0.13856788,0.2848943,-0.046402752,0.2217189,0.34058067,0.5548778,0.13034235,0.56839496,0.20989664,0.63186324,0.07475796,0.20436795,-0.057710405,0.43038115,-0.53739524,-0.25129962,829.6337,807.8755,802.6374,802.6374,773.6264,-0.12994384765625,0.170654296875,0.99127197265625,5.263671875,-7.738494873046875,-0.897216796875,1,1.0,1.0,1.0,1.0,50.00
2021-04-29 10:16:41.979,0.40056634,0.35573268,0.5121979,0.3853926,0.19512434,0.24024081,0.06707774,0.06394699,0.2948764,0.42478436,0.26764867,0.31652665,0.3196308,0.6647071,0.13286036,0.20472592,-0.019404944,0.5004432,-0.49823835,-0.22276002,824.3956,821.1722,802.23444,817.5458,755.4945,-0.0538330078125,0.158935546875,0.991455078125,2.743988037109375,-13.23394775390625,-2.691650390625,1,1.0,1.0,1.0,1.0,50.00
2021-04-29 10:16:42.485,0.5436819,0.44235292,0.5194578,0.26490918,0.35468817,0.26212558,0.19378753,0.060043965,0.6692767,0.39854565,0.25401098,0.43284538,0.37693188,0.6890119,0.08892557,0.27363822,-0.10433462,0.54867804,-0.5681264,-0.22721754,807.47253,812.71063,803.44324,802.6374,787.326,-0.07843017578125,0.13824462890625,0.98516845703125,4.41131591796875,-2.9608154296875,3.043060302734375,1,1.0,1.0,1.0,1.0,50.00
2021-04-29 10:16:42.991,0.5867533,0.5700819,0.486471,0.3685584,0.3484232,0.32230505,0.143725,0.037072547,0.669638,0.3711129,0.2491919,0.5327896,0.35670528,0.7620765,0.02063609,0.33890337,-0.0890303,0.6208932,-0.5882683,-0.17995739,717.2161,792.96704,809.4872,726.08057,774.83514,-0.04205322265625,0.15203857421875,0.9884033203125,3.21502685546875,0.994415283203125,-0.97198486328125,1,1.0,1.0,1.0,1.0,50.00
2021-04-29 10:16:43.123,,,,,,,,,,,,,,,,,,,,,,,,,,,,,,,,,,,,,,/muse/elements/blink
2021-04-29 10:16:43.492,0.69832546,0.5700819,0.6661681,0.34286204,0.41872492,0.32230505,0.1835085,0.07468669,0.6473428,0.3711129,0.29573187,0.5327896,0.29200342,0.7620765,-0.024472678,0.2912627,-0.11796899,0.6208932,-0.48177537,-0.18716426,823.1868,819.15753,809.4872,818.3516,693.8461,-0.0928955078125,0.132568359375,0.98345947265625,8.351593017578125,-14.602203369140625,-5.136566162109375,1,1.0,1.0,1.0,1.0,50.00
2021-04-29 10:16:43.924,,,,,,,,,,,,,,,,,,,,,,,,,,,,,,,,,,,,,,/muse/elements/blink
2021-04-29 10:16:44.002,0.6439776,0.5700819,0.7269836,0.541027,0.20865633,0.32230505,0.16310015,0.11170211,0.53253025,0.3711129,0.15237004,0.52916193,0.2287701,0.7620765,0.0065323818,0.3144715,-0.01777811,0.6208932,-0.4112653,-0.12498241,862.674,796.99634,791.75824,865.09155,711.1722,-0.074462890625,0.1419677734375,0.98272705078125,2.579498291015625,-1.80938720703125,2.729034423828125,1,1.0,1.0,1.0,1.0,50.00
2021-04-29 10:16:44.511,0.6439776,0.5700819,0.99503237,0.541027,0.20865633,0.32230505,0.33702713,0.11170211,0.53253025,0.3711129,0.060253035,0.52916193,0.2287701,0.7620765,0.121255234,0.3144715,-0.01777811,0.6208932,-0.2321176,-0.12498241,802.6374,815.9341,812.71063,799.011,707.1429,-0.052734375,0.1512451171875,0.98175048828125,4.433746337890625,-1.12152099609375,1.03179931640625,1,1.0,1.0,1.0,1.0,50.00
2021-04-29 10:16:44.873,,,,,,,,,,,,,,,,,,,,,,,,,,,,,,,,,,,,,,/muse/elements/blink
2021-04-29 10:16:45.030,0.6439776,0.5700819,0.99503237,0.541027,0.20865633,0.32230505,0.33702713,0.11170211,0.53253025,0.3711129,0.060253035,0.52916193,0.2287701,0.7620765,0.121255234,0.3144715,-0.01777811,0.6208932,-0.2321176,-0.12498241,803.0403,818.7546,802.23444,799.011,715.2015,-0.0106201171875,0.16717529296875,1.00897216796875,7.3870849609375,-9.547882080078125,-2.908477783203125,1,1.0,1.0,1.0,1.0,50.00
2021-04-29 10:16:45.553,0.6439776,0.5700819,0.33218408,0.541027,0.20865633,0.32230505,0.11250156,0.11170211,0.53253025,0.3711129,0.23326656,0.52916193,0.2287701,0.7620765,0.044005007,0.3144715,-0.01777811,0.6208932,-0.63598865,-0.12498241,810.293,806.6667,804.2491,808.2784,899.7436,-0.0301513671875,0.177978515625,0.98211669921875,5.45806884765625,-10.086212158203125,-0.6280517578125,1,1.0,1.0,1.0,1.0,50.00
2021-04-29 10:16:45.952,,,,,,,,,,,,,,,,,,,,,,,,,,,,,,,,,,,,,,/muse/elements/blink
2021-04-29 10:16:46.065,0.6439776,0.5700819,0.4250129,0.541027,0.20865633,0.32230505,0.22607322,0.11170211,0.53253025,0.3711129,0.26102993,0.52916193,0.2287701,0.7620765,-0.07277925,0.3144715,-0.01777811,0.6208932,-0.680211,-0.12498241,825.6044,822.7839,803.0403,828.8278,664.0293,-0.0518798828125,0.16693115234375,0.9788818359375,4.6954345703125,-1.996307373046875,0.411224365234375,1,2.0,1.0,1.0,2.0,50.00
2021-04-29 10:16:46.283,,,,,,,,,,,,,,,,,,,,,,,,,,,,,,,,,,,,,,/muse/elements/blink
2021-04-29 10:16:46.572,0.6439776,0.5700819,0.433429,0.541027,0.20865633,0.32230505,0.21863192,0.11170211,0.53253025,0.3711129,0.20223011,0.52916193,0.2287701,0.7620765,-0.074276686,0.3144715,-0.01777811,0.6208932,-0.6700363,-0.12498241,795.38464,799.81683,795.78754,794.17584,686.99634,-0.01348876953125,0.18548583984375,0.98773193359375,4.762725830078125,-3.282318115234375,5.435638427734375,1,2.0,1.0,1.0,2.0,50.00
2021-04-29 10:16:47.088,0.6439776,0.5700819,0.52643734,0.541027,0.20865633,0.32230505,0.35867256,0.11170211,0.53253025,0.3711129,0.1458671,0.52916193,0.2287701,0.7620765,-0.16646443,0.3144715,-0.01777811,0.6208932,-0.73809123,-0.12498241,643.8828,791.75824,826.4103,633.8095,790.14655,-0.035400390625,0.212890625,1.01190185546875,3.162689208984375,-9.697418212890625,-1.65985107421875,1,2.0,1.0,1.0,2.0,50.00
2021-04-29 10:16:47.315,,,,,,,,,,,,,,,,,,,,,,,,,,,,,,,,,,,,,,/muse/elements/blink
2021-04-29 10:16:47.513,,,,,,,,,,,,,,,,,,,,,,,,,,,,,,,,,,,,,,/muse/elements/blink
2021-04-29 10:16:47.607,0.6439776,0.5700819,1.0825642,0.541027,0.20865633,0.32230505,0.53582096,0.11170211,0.53253025,0.3711129,0.24523404,0.52916193,0.2287701,0.7620765,-0.15079708,0.3144715,-0.01777811,0.6208932,-0.75972223,-0.12498241,804.65204,813.1135,801.4286,811.50183,724.0659,-0.017822265625,0.170654296875,0.98681640625,8.92730712890625,-12.30682373046875,-0.142059326171875,1,2.0,1.0,1.0,2.0,50.00
2021-04-29 10:16:48.133,0.6439776,0.5700819,1.0825642,0.541027,0.20865633,0.32230505,0.53582096,0.11170211,0.53253025,0.3711129,0.24523404,0.52916193,0.2287701,0.7620765,-0.15079708,0.3144715,-0.01777811,0.6208932,-0.75972223,-0.12498241,799.011,801.02563,805.05493,802.6374,721.2454,-0.03570556640625,0.19073486328125,0.98760986328125,5.5328369140625,-5.48797607421875,0.575714111328125,1,2.0,1.0,1.0,2.0,50.00
2021-04-29 10:16:48.661,0.6439776,0.5700819,0.9088135,0.541027,0.20865633,0.32230505,0.32862672,0.11170211,0.53253025,0.3711129,0.23072433,0.52916193,0.2287701,0.7620765,-0.09580778,0.3144715,-0.01777811,0.6208932,-0.66591716,-0.12498241,788.93774,809.89014,807.8755,801.02563,803.8461,-0.00775146484375,0.18780517578125,0.98150634765625,4.164581298828125,-3.03558349609375,1.742095947265625,1,2.0,1.0,1.0,2.0,50.00
2021-04-29 10:16:49.189,-0.19066927,0.66550386,-0.06467845,0.13534465,-0.05931154,-0.24771753,-0.17674008,0.16453984,0.004508471,-0.18009385,-0.14554194,-0.122154616,0.22343098,0.5481147,-0.13469745,0.06878415,-0.02578489,0.082856745,-0.57796997,-0.26470196,808.68134,802.6374,805.8608,806.26373,655.9707,0.00579833984375,0.20062255859375,0.99371337890625,5.921630859375,-6.811370849609375,0.8673095703125,1,1.0,1.0,1.0,1.0,50.00
2021-04-29 10:16:49.420,,,,,,,,,,,,,,,,,,,,,,,,,,,,,,,,,,,,,,/muse/elements/blink
2021-04-29 10:16:49.714,-0.19066927,0.66550386,0.9865685,0.13534465,-0.05931154,-0.24771753,0.35026398,0.16453984,0.004508471,-0.18009385,0.36742985,-0.122154616,0.22343098,0.5481147,-0.046991672,0.06878415,-0.02578489,0.082856745,-0.5423869,-0.26470196,832.0513,827.619,804.65204,823.1868,813.91943,-0.06719970703125,0.1611328125,0.98028564453125,4.85992431640625,-6.0113525390625,1.65985107421875,1,1.0,1.0,1.0,1.0,50.00
2021-04-29 10:16:50.242,-0.24158412,0.66550386,1.3264569,0.088543214,-0.123141736,-0.24771753,0.635039,0.13669865,-0.023682322,-0.18009385,0.4071642,-0.19381194,0.2225813,0.5481147,-0.050973047,0.061970383,3.9766106E-4,0.082856745,-0.47609982,-0.26169348,827.2161,848.1685,787.326,823.1868,778.86444,-0.0579833984375,0.19024658203125,0.9755859375,3.94775390625,-1.667327880859375,-0.28411865234375,1,1.0,1.0,1.0,1.0,50.00
2021-04-29 10:16:50.746,-0.24158412,0.66550386,1.351828,0.088543214,-0.123141736,-0.24771753,0.6763824,0.13669865,-0.023682322,-0.18009385,0.4071642,-0.19381194,0.2225813,0.5481147,-0.014443324,0.061970383,3.9766106E-4,0.082856745,-0.39850116,-0.26169348,857.8388,807.0696,800.6227,852.6007,751.8681,-0.03076171875,0.17816162109375,0.9866943359375,4.38140869140625,3.880462646484375,0.934600830078125,1,1.0,1.0,1.0,1.0,50.00
2021-04-29 10:16:51.251,-0.24158412,0.66550386,1.0506175,1.1651748,-0.123141736,-0.24771753,0.4319213,0.6186317,-0.023682322,-0.18009385,0.35149786,0.5459076,0.2225813,0.5481147,-0.094694234,0.509472,3.9766106E-4,0.082856745,-0.45859534,0.7009803,782.8938,811.0989,812.3077,782.8938,743.00366,-0.06768798828125,0.2049560546875,0.9931640625,3.828125,-2.61688232421875,4.3365478515625,1,1.0,1.0,1.0,1.0,50.00
2021-04-29 10:16:51.768,-0.24158412,0.66550386,0.6480439,1.1651748,-0.123141736,-0.24771753,0.06613509,0.6186317,-0.023682322,-0.18009385,0.16948299,0.5459076,0.2225813,0.5481147,-0.10509052,0.509472,3.9766106E-4,0.082856745,-0.50926936,0.7009803,746.2271,837.6923,807.0696,731.31866,734.94507,-0.05169677734375,0.1904296875,0.97991943359375,3.760833740234375,-4.8748779296875,-0.336456298828125,1,1.0,1.0,1.0,1.0,50.00
2021-04-29 10:16:51.972,,,,,,,,,,,,,,,,,,,,,,,,,,,,,,,,,,,,,,/muse/elements/blink
2021-04-29 10:16:52.296,-0.24158412,0.251854,0.6866866,1.1651748,-0.123141736,0.24187696,-0.017745119,0.6186317,-0.023682322,0.45847815,0.15517259,0.5459076,0.2225813,0.70203775,-0.06847916,0.509472,3.9766106E-4,0.037501667,-0.664219,0.7009803,812.71063,805.4579,805.8608,827.2161,745.42126,-0.03741455078125,0.183837890625,0.99249267578125,2.355194091796875,-1.86920166015625,10.0787353515625,1,1.0,1.0,1.0,1.0,50.00
2021-04-29 10:16:52.820,-0.24158412,0.54033357,0.8824008,1.1651748,-0.123141736,0.52390575,0.12751831,0.6186317,-0.023682322,0.59956074,0.47566712,0.5459076,0.2225813,0.70003504,-0.08570807,0.509472,3.9766106E-4,0.06662555,-0.66576034,0.7009803,840.10986,792.5641,832.0513,845.7509,769.19415,-0.07733154296875,0.13543701171875,0.99725341796875,-2.743988037109375,-2.026214599609375,21.6827392578125,1,1.0,1.0,1.0,1.0,50.00
2021-04-29 10:16:53.348,-0.24158412,0.97759086,0.9896725,1.1651748,-0.123141736,0.6530308,0.42237177,0.6186317,-0.023682322,0.7611608,0.6661455,0.5459076,0.2225813,0.6290394,-0.025725167,0.509472,3.9766106E-4,0.30357972,-0.6684112,0.7009803,799.011,798.20514,801.02563,794.9817,638.6447,-0.06011962890625,-0.0172119140625,1.0001220703125,-4.987030029296875,-4.015045166015625,4.942169189453125,1,1.0,1.0,1.0,1.0,50.00
2021-04-29 10:16:53.853,0.56309414,1.0608469,1.0395241,1.0135196,0.2507808,0.70700675,0.47719526,0.51669043,0.6150587,0.7545244,0.6661455,0.84563375,0.46732587,0.64813197,0.0030912254,0.31815007,-0.23365095,0.35700354,-0.60915613,-0.16867186,787.72894,803.44324,803.44324,785.31134,711.5751,-0.14703369140625,-0.03363037109375,0.986572265625,7.469329833984375,-4.373931884765625,7.16278076171875,1,1.0,1.0,1.0,1.0,50.00
2021-04-29 10:16:54.356,0.48395133,0.9866767,0.8715152,0.84064084,0.26925045,0.5869813,0.39510697,0.474015,0.7018697,0.7431368,0.66418177,0.8477275,0.46544117,0.5780326,-0.005865522,0.3944742,-0.290468,0.41223764,-0.6156444,-0.13397968,796.5934,830.0366,799.41394,780.07324,774.43225,-0.14739990234375,0.04693603515625,1.0196533203125,-3.5888671875,-0.261688232421875,-6.123504638671875,1,1.0,1.0,1.0,1.0,50.00
2021-04-29 10:16:54.609,,,,,,,,,,,,,,,,,,,,,,,,,,,,,,,,,,,,,,/muse/elements/blink
2021-04-29 10:16:54.870,0.4684704,0.5304792,0.5208064,0.76458126,0.17734008,0.3923234,0.20887968,0.39742166,0.6214789,0.5832831,0.3206587,0.68559986,0.45192164,0.5984174,-0.056162532,0.41236398,-0.28495148,0.2782585,-0.6284218,-0.11618252,969.45056,805.05493,784.90845,975.89746,773.22345,-0.14520263671875,-0.13067626953125,0.97210693359375,10.15350341796875,-8.187103271484375,-1.801910400390625,1,1.0,1.0,1.0,1.0,50.00
2021-04-29 10:16:54.892,,,,,,,,,,,,,,,,,,,,,,,,,,,,,,,,,,,,,,/muse/elements/blink
2021-04-29 10:16:55.380,0.34137347,0.044300076,0.70974517,0.33960804,0.29385552,0.39898688,0.35046694,0.406207,0.5620324,0.20440769,0.32362574,0.4051704,0.4627888,0.5631179,-0.11871794,0.4828346,-0.38503775,0.25016552,-0.6415445,-0.089642115,801.8315,792.1612,810.696,809.0842,876.77655,-0.12359619140625,-0.10498046875,0.97119140625,11.6937255859375,2.714080810546875,-49.339447021484375,1,1.0,1.0,1.0,1.0,50.00
2021-04-29 10:16:55.892,0.37074625,0.024129193,0.89974725,0.34814888,0.36595365,0.35263962,0.5167156,0.4822085,0.5567467,0.1395826,0.32362574,0.34895003,0.48341924,0.63690853,-0.095655546,0.48119843,-0.36411813,0.09419254,-0.62600297,-0.07343031,785.7143,807.47253,810.696,786.9231,678.93774,-0.0787353515625,-0.051025390625,0.99127197265625,7.2076416015625,4.972076416015625,-41.451416015625,1,1.0,1.0,1.0,1.0,50.00
2021-04-29 10:16:56.404,0.37074625,0.024129193,0.97481596,0.34814888,0.36595365,0.35263962,0.5473368,0.4822085,0.5567467,0.1395826,0.2658553,0.34895003,0.48341924,0.63690853,-0.20164047,0.48119843,-0.36411813,0.09419254,-0.51280534,-0.07343031,801.4286,790.14655,802.6374,792.5641,850.58606,-0.12030029296875,-0.12152099609375,0.99395751953125,9.6600341796875,-12.1722412109375,-11.641387939453125,1,1.0,1.0,1.0,1.0,50.00
2021-04-29 10:16:56.915,0.8564398,0.024129193,0.8217859,0.74424356,0.50079817,0.35263962,0.45673144,0.35259983,0.6310353,0.1395826,0.38365078,0.38528502,0.39336902,0.63690853,-0.03677548,0.41906694,-0.30136782,0.09419254,-0.5479913,-0.1988586,811.9048,808.2784,813.1135,811.9048,657.5824,-0.06585693359375,-0.06201171875,1.0108642578125,-0.426177978515625,-8.381500244140625,-22.29583740234375,1,1.0,1.0,1.0,1.0,50.00
2021-04-29 10:16:57.419,1.1082495,0.024129193,1.1316092,0.835644,0.96365935,0.35263962,0.71453124,0.7571573,0.9299145,0.1395826,0.5565851,0.8133159,0.39422193,0.63690853,0.056931894,0.5174626,-0.2524515,0.09419254,-0.5831307,-0.21853955,614.0659,796.5934,820.7692,608.022,640.65936,-0.07281494140625,-0.04156494140625,1.03271484375,9.73480224609375,0.43365478515625,-59.97894287109375,1,1.0,1.0,1.0,1.0,50.00
2021-04-29 10:16:57.514,,,,,,,,,,,,,,,,,,,,,,,,,,,,,,,,,,,,,,/muse/elements/blink
2021-04-29 10:16:57.933,1.1759742,0.024129193,1.2798375,0.8224187,1.0291158,0.35263962,0.86826426,0.7606721,0.9299145,0.1395826,0.67303896,0.8061227,0.4334161,0.63690853,0.10384747,0.57518476,-0.23865287,0.09419254,-0.593072,-0.25997993,938.8278,812.3077,783.2967,936.4103,831.6484,-0.182373046875,0.08526611328125,0.95465087890625,40.337371826171875,1.951446533203125,-84.757080078125,1,1.0,1.0,1.0,1.0,50.00
2021-04-29 10:16:57.971,,,,,,,,,,,,,,,,,,,,,,,,,,,,,,,,,,,,,,/muse/elements/blink
2021-04-29 10:16:58.449,1.3166898,0.024129193,1.3784868,0.96018934,1.2464527,0.35263962,0.97688764,1.0711479,0.918136,0.1395826,0.67303896,0.8006589,0.39541322,0.63690853,0.114702925,0.6493316,-0.19208187,0.09419254,-0.5888325,-0.2552851,821.1722,817.9487,803.0403,800.2198,674.5055,-0.2081298828125,0.2135009765625,0.958984375,18.67706298828125,-8.314208984375,-10.729217529296875,1,1.0,1.0,1.0,1.0,50.00
2021-04-29 10:16:58.955,1.3086785,0.024129193,1.2083147,0.96018934,1.2854781,0.35263962,0.8631426,1.0711479,0.89129233,0.1395826,0.4589681,0.8006589,0.31994665,0.63690853,-0.005113743,0.6493316,-0.18815921,0.09419254,-0.42429134,-0.2552851,821.978,809.0842,802.6374,809.0842,718.022,-0.1976318359375,0.2789306640625,0.96435546875,6.11602783203125,-8.366546630859375,11.671295166015625,1,1.0,1.0,1.0,1.0,50.00
2021-04-29 10:16:59.484,1.3086785,0.024129193,1.015295,0.96018934,1.2854781,0.35263962,0.5966851,1.0711479,0.89129233,0.1395826,0.4933891,0.8006589,0.31994665,0.63690853,-0.11581336,0.6493316,-0.18815921,0.09419254,-0.23797558,-0.2552851,789.7436,795.38464,798.20514,789.7436,782.0879,-0.15008544921875,0.27252197265625,0.950927734375,-3.1103515625,-4.717864990234375,17.697601318359375,1,1.0,1.0,1.0,1.0,50.00
2021-04-29 10:17:00.009,0.7966477,0.024129193,1.038534,0.96018934,0.34513482,0.35263962,0.6356795,1.0711479,1.0104553,0.1395826,0.5138408,0.8006589,0.75308794,0.63690853,-0.008468571,0.6493316,0.33318445,0.09419254,-0.35354033,-0.2552851,808.68134,813.91943,813.1135,819.5604,711.1722,-0.2193603515625,0.09716796875,0.9359130859375,-18.97613525390625,10.026397705078125,46.842193603515625,1,1.0,1.0,1.0,1.0,50.00
2021-04-29 10:17:00.516,0.7380044,1.0372643,1.1148802,0.96018934,0.3079619,0.6187998,0.6123134,1.0711479,1.0104553,0.59281915,0.5620842,0.8006589,0.7016687,0.48710528,0.008086954,0.6493316,0.27988693,0.38001987,-0.4608046,-0.2552851,724.4689,793.7729,807.0696,746.63007,757.50916,-0.2872314453125,-0.0107421875,0.9326171875,-10.160980224609375,-1.30096435546875,53.616180419921875,1,1.0,1.0,1.0,1.0,50.00
2021-04-29 10:17:00.587,,,,,,,,,,,,,,,,,,,,,,,,,,,,,,,,,,,,,,/muse/elements/blink
2021-04-29 10:17:01.045,0.8111737,1.0372643,1.1801888,0.96018934,0.33938858,0.6187998,0.42740202,1.0711479,0.8820967,0.59281915,0.45558992,0.8006589,0.6779187,0.48710528,0.07424941,0.6493316,0.24459706,0.38001987,-0.5011838,-0.2552851,823.9927,808.2784,809.0842,811.0989,801.4286,-0.3167724609375,0.0833740234375,0.9781494140625,-6.751556396484375,0.59814453125,35.342864990234375,1,1.0,1.0,1.0,1.0,50.00
2021-04-29 10:17:01.570,0.6289615,1.0200545,1.1186996,0.96018934,0.18406808,0.5931976,0.1550163,1.0711479,0.4368361,0.5902379,0.40270433,0.8006589,0.53313106,0.60808927,0.028679807,0.6493316,0.14990892,0.32299012,-0.48987585,-0.2552851,788.1319,804.65204,802.6374,793.7729,755.89746,-0.25970458984375,0.04168701171875,0.968505859375,3.730926513671875,-9.099273681640625,4.1571044921875,1,1.0,1.0,1.0,1.0,50.00
2021-04-29 10:17:02.101,0.6289615,0.527737,0.9612894,0.96018934,0.18406808,-0.048224933,-0.110525385,1.0711479,0.4368361,0.10232669,0.30676937,0.8006589,0.53313106,0.73033166,-0.04590084,0.6493316,0.14990892,0.07197145,-0.4391109,-0.2552851,810.696,794.9817,805.4579,806.26373,723.2601,-0.2613525390625,0.0408935546875,0.96368408203125,5.316009521484375,-5.600128173828125,-1.9439697265625,1,1.0,1.0,1.0,1.0,50.00
2021-04-29 10:17:02.604,-0.035393953,0.37995818,0.3056086,-0.21942455,0.005946956,-0.21333367,-0.5014283,0.09762627,0.19655423,0.14537469,0.2257159,0.59124875,0.20520549,0.6177958,-0.15743975,0.30969504,-0.124816224,0.11897611,-0.43237528,-0.307522,786.52014,798.20514,794.57874,795.78754,717.2161,-0.26593017578125,0.05224609375,0.97186279296875,6.362762451171875,-7.334747314453125,0.07476806640625,1,1.0,1.0,1.0,1.0,50.00
2021-04-29 10:17:03.134,0.3599189,0.39367887,0.013623385,0.19209859,-0.043637276,-0.16196956,-0.23645858,0.06218137,0.37409586,0.4341396,0.26506346,0.7282471,0.3269951,0.52590156,-0.2519398,0.30679753,-0.086252384,0.120918624,-0.34910563,-0.2723382,807.0696,794.57874,803.8461,793.7729,858.6447,-0.2305908203125,0.05804443359375,0.97100830078125,7.947845458984375,-4.5758056640625,1.15142822265625,1,1.0,1.0,1.0,1.0,50.00
2021-04-29 10:17:03.658,0.56720346,0.59647137,0.6260568,0.40947443,0.013972336,0.05491884,0.10370449,0.122942485,0.37736765,0.4465413,0.33590847,0.76990277,0.44767714,0.40650713,-0.12713076,0.34573674,-0.055547506,0.18681191,-0.37542892,-0.21291544,822.7839,818.3516,798.60803,813.91943,819.9634,-0.24359130859375,0.0650634765625,0.9674072265625,4.613189697265625,-4.194488525390625,1.338348388671875,1,1.0,1.0,1.0,1.0,50.00
2021-04-29 10:17:04.188,0.6722978,0.8019254,0.81944734,0.6555779,0.17061806,0.50423837,0.26467347,0.22066197,0.49495342,0.5319272,0.4901063,0.7418769,0.41989803,0.5010127,-0.110886365,0.32838374,-0.1972171,0.28541684,-0.47383723,-0.18912743,820.3663,839.304,807.0696,811.9048,646.7033,-0.24658203125,0.06427001953125,0.96807861328125,3.87298583984375,-3.06549072265625,0.70281982421875,1,1.0,1.0,1.0,1.0,50.00
2021-04-29 10:17:04.713,0.68358153,0.81794417,0.8250955,0.77654624,0.22836736,0.5884905,0.25708726,0.28324673,0.70889664,0.5251582,0.49118635,0.7186777,0.31329918,0.6159761,-0.09140058,0.24064928,-0.25677493,0.3445667,-0.56335986,-0.199357,801.4286,801.4286,810.293,801.4286,681.3553,-0.28656005859375,0.06158447265625,0.96051025390625,3.09539794921875,-3.87298583984375,-0.88226318359375,1,1.0,1.0,1.0,1.0,50.00
2021-04-29 10:17:05.223,0.5600768,0.66529554,0.53598714,0.7140924,0.2667473,0.48070964,0.16924174,0.29593924,0.89363873,0.5077432,0.39921317,0.31655878,0.18884474,0.6379443,-0.18663502,0.13551977,-0.28029606,0.25616518,-0.6447732,-0.28704435,749.85345,809.89014,807.8755,751.8681,645.89746,-0.23687744140625,0.03851318359375,0.97235107421875,5.944061279296875,-9.577789306640625,-2.699127197265625,1,1.0,1.0,1.0,1.0,50.00
2021-04-29 10:17:05.732,0.58929795,0.43028492,0.049750693,0.8361869,0.22818328,0.24272425,-0.065089874,0.2445915,0.8760178,0.46841356,0.22980426,0.3625173,0.15744156,0.61087805,-0.19170704,0.08699315,-0.169597,0.2600112,-0.6661396,-0.24211797,812.71063,823.5897,806.26373,806.26373,750.2564,-0.23992919921875,0.030029296875,0.973876953125,4.74029541015625,-1.054229736328125,1.79443359375,1,1.0,1.0,1.0,1.0,50.00
2021-04-29 10:17:06.233,0.5013391,0.21998347,-0.10335992,0.77215517,0.25581473,0.021445505,-0.12198522,0.23797822,0.8706071,0.32392564,0.16464041,0.34835505,0.10801239,0.5766181,-0.19732165,0.09887388,-0.14082001,0.1994324,-0.6484464,-0.22836243,814.3223,806.6667,811.0989,811.50183,801.4286,-0.25592041015625,0.03643798828125,0.97308349609375,4.388885498046875,-5.226287841796875,2.190704345703125,1,1.0,1.0,1.0,1.0,50.00
2021-04-29 10:17:06.750,1.0043865,0.37450066,0.43679243,1.0034943,0.37046835,0.10630715,-0.042696238,0.23474178,0.8433831,0.46865654,0.3005401,0.33202726,0.24726984,0.57741255,-0.06657453,0.17083763,-0.24859406,0.30425936,-0.61367106,-0.13009211,799.81683,815.5311,799.41394,794.9817,672.0879,-0.245849609375,0.02227783203125,0.96710205078125,3.8580322265625,-5.256195068359375,-0.07476806640625,1,1.0,1.0,1.0,1.0,50.00
2021-04-29 10:17:07.260,0.7894356,0.42787975,0.5547437,0.57276547,0.17343326,0.035518117,0.05665187,0.2709756,0.8557437,0.46865654,0.3005401,0.3998491,0.113446504,0.6103161,-0.078659706,0.09898247,-0.3705918,0.27584302,-0.5820761,-0.19793887,794.9817,804.2491,796.1905,809.89014,711.978,-0.25469970703125,0.0321044921875,0.973388671875,5.046844482421875,-4.68048095703125,0.4486083984375,1,1.0,1.0,1.0,1.0,50.00
2021-04-29 10:17:07.786,0.69611377,0.35159796,0.52094615,0.6130948,0.04354864,0.06128216,0.00690891,0.22155744,0.85695165,0.41658193,0.26246384,0.45463958,0.11329203,0.60172325,-0.08706084,0.18267561,-0.40271458,0.24260542,-0.6166404,-0.2213093,772.4176,814.7253,809.4872,765.9707,757.1062,-0.23992919921875,0.033935546875,0.97418212890625,4.598236083984375,-6.220703125,0.725250244140625,1,1.0,1.0,1.0,1.0,50.00
2021-04-29 10:17:08.315,0.34524137,0.15789501,0.21882649,0.6348791,-0.35433656,-0.04339611,-0.15929872,0.18686639,0.65217733,0.27708772,0.16506429,0.46718904,-0.005543865,0.5930543,-0.08384576,0.17929116,-0.4248948,0.13091041,-0.6072312,-0.2339953,783.2967,813.5165,798.60803,792.96704,744.61536,-0.225341796875,0.036376953125,0.97589111328125,4.358978271484375,-3.431854248046875,0.6280517578125,1,1.0,1.0,1.0,1.0,50.00
2021-04-29 10:17:08.837,0.5566422,0.066839606,-0.097976446,0.75620365,-0.23950881,-0.05779948,-0.254242,0.11281203,0.51960164,0.15869194,0.120065935,0.48768574,0.09477573,0.55941993,-0.046763975,0.2646216,-0.35368487,0.14466715,-0.5792901,-0.32479128,821.978,811.0989,796.5934,820.3663,843.3333,-0.22637939453125,0.0308837890625,0.97698974609375,5.271148681640625,-3.648681640625,1.48040771484375,1,1.0,1.0,1.0,1.0,50.00
2021-04-29 10:17:09.354,0.6478428,0.13856097,-0.04739042,0.677853,0.34841472,4.4458322E-4,-0.18518841,0.4321294,0.68239087,0.19120863,0.16477166,0.44867283,0.025039323,0.561698,0.027569061,0.032110628,-0.039714836,0.17778474,-0.5400598,-0.2503099,867.50916,814.7253,801.4286,849.3773,655.9707,-0.22320556640625,0.028076171875,0.97882080078125,4.05242919921875,-5.87677001953125,1.622467041015625,1,1.0,1.0,1.0,1.0,50.00
2021-04-29 10:17:09.847,,,,,,,,,,,,,,,,,,,,,,,,,,,,,,,,,,,,,,/muse/elements/blink
2021-04-29 10:17:09.872,0.89141893,0.6486641,0.4330787,0.677853,0.5190177,0.34364918,0.14074007,0.4321294,0.70536524,0.491921,0.31890634,0.44867283,0.08060374,0.6292739,0.04699647,0.032110628,-0.067232765,0.12623417,-0.5971524,-0.2503099,828.022,790.54944,801.02563,837.28937,643.0769,-0.2064208984375,0.0360107421875,0.98712158203125,5.674896240234375,-6.02630615234375,1.846771240234375,1,1.0,1.0,1.0,1.0,50.00
2021-04-29 10:17:10.382,0.89708924,0.7428368,0.5439263,0.6762566,0.5526106,0.42198172,0.16132212,0.5384094,0.69892967,0.5065907,0.3332331,0.4378097,0.09814881,0.66290325,0.023480106,-0.04031084,-0.05983991,0.1248403,-0.64219075,-0.1969613,809.4872,803.8461,801.4286,806.6667,793.36993,-0.1829833984375,0.0531005859375,0.98779296875,10.108642578125,-5.27862548828125,4.852447509765625,1,1.0,1.0,1.0,1.0,50.00
2021-04-29 10:17:10.913,1.0240415,0.73611194,0.56110275,0.6762566,0.6575294,0.39544383,0.15314947,0.5384094,0.6477656,0.53493196,0.32955304,0.4378097,0.16259778,0.6590467,-0.041066606,-0.04031084,-0.0920068,0.15103985,-0.68473744,-0.1969613,818.7546,808.2784,808.2784,822.7839,804.2491,-0.11090087890625,0.1246337890625,0.98114013671875,0.61309814453125,-7.917938232421875,39.918670654296875,1,1.0,1.0,1.0,1.0,50.00
2021-04-29 10:17:11.416,1.0240415,0.7238862,0.6975845,0.6762566,0.6575294,0.5266582,0.51834923,0.5384094,0.6477656,0.70633817,0.6811243,0.4378097,0.16259778,0.5821958,-0.036817905,-0.04031084,-0.0920068,0.2656763,-0.59263057,-0.1969613,801.4286,810.293,796.1905,806.26373,819.15753,-0.11627197265625,0.054931640625,0.990966796875,-27.35015869140625,-11.76849365234375,57.728424072265625,1,1.0,1.0,1.0,1.0,50.00
2021-04-29 10:17:11.855,,,,,,,,,,,,,,,,,,,,,,,,,,,,,,,,,,,,,,/muse/elements/blink
2021-04-29 10:17:11.920,1.2903055,0.9167363,0.93992436,0.6762566,1.1473914,0.80004096,0.89849764,0.5384094,0.9956079,0.83912903,0.73736906,0.4378097,0.25204924,0.57385164,0.10559941,-0.04031084,-0.06578651,0.2058331,-0.51506203,-0.1969613,818.3516,790.9524,821.1722,833.663,549.19415,-0.1495361328125,0.0081787109375,1.03564453125,4.486083984375,1.323394775390625,31.454925537109375,1,1.0,1.0,1.0,1.0,50.00
2021-04-29 10:17:12.444,1.4466771,1.0518544,1.0768492,0.6762566,1.2305366,0.88583183,0.9544345,0.5384094,1.2936467,0.8584367,0.742687,0.4378097,0.48749664,0.61653674,0.11148688,-0.04031084,-0.056276493,0.2064213,-0.40657654,-0.1969613,814.7253,821.1722,803.44324,829.6337,751.06226,-0.1170654296875,-0.02984619140625,0.994140625,-13.74237060546875,-5.72723388671875,23.64166259765625,1,1.0,1.0,1.0,1.0,50.00
2021-04-29 10:17:12.955,1.5902305,0.9472563,1.0027546,0.6762566,1.3849921,0.7868654,0.83655566,0.5384094,1.2936467,0.8203108,0.73287374,0.4378097,0.55050224,0.6334764,0.081157535,-0.04031084,-0.03745645,0.14661625,-0.33390433,-0.1969613,815.12823,809.4872,802.6374,852.6007,818.3516,-0.11126708984375,-0.0926513671875,0.99090576171875,3.2598876953125,-1.24114990234375,-11.6937255859375,1,1.0,1.0,1.0,1.0,50.00
2021-04-29 10:17:13.462,1.266776,0.67892814,0.76362544,1.063783,0.95138055,0.44984323,0.35509,0.47895655,1.2474424,0.64722496,0.44632456,0.6453994,0.65182877,0.58678883,-0.059558883,0.70640284,0.09972582,0.27548492,-0.3399242,0.27562004,840.9158,835.2747,789.34064,833.2601,759.92676,-0.05853271484375,0.03826904296875,0.89202880859375,26.026763916015625,-21.234130859375,-84.32342529296875,1,1.0,1.0,1.0,1.0,50.00
2021-04-29 10:17:13.989,1.1632646,0.7028072,0.6753536,1.2644794,0.69269645,0.5821215,0.41388857,0.59482425,0.82193756,0.51361537,0.61736387,0.8759482,0.5081145,0.5541469,-0.0886675,0.77832437,0.2815421,0.32065928,-0.40524372,0.34143645,792.96704,811.9048,802.6374,792.1612,646.7033,-0.06573486328125,0.21405029296875,1.02325439453125,18.654632568359375,-11.52923583984375,-7.484283447265625,1,1.0,1.0,1.0,1.0,50.00
2021-04-29 10:17:14.494,1.2058336,0.79834163,0.7645793,1.2984425,0.7381851,0.6631153,0.6201801,0.61940897,0.82193756,0.328929,0.6297855,0.8759482,0.50369096,0.5627374,-0.13007827,0.8111091,0.306659,0.30302373,-0.53121746,0.3520497,570.9524,776.04395,836.4835,583.8461,737.76556,-0.09112548828125,0.201904296875,1.0107421875,4.53094482421875,-5.21881103515625,9.757232666015625,1,1.0,1.0,1.0,1.0,50.00
2021-04-29 10:17:14.745,,,,,,,,,,,,,,,,,,,,,,,,,,,,,,,,,,,,,,/muse/elements/blink
2021-04-29 10:17:15.009,1.4692847,0.9332293,0.97488844,1.4262792,1.0171762,0.7773227,0.65815604,0.66845626,0.8182479,0.32909366,0.6297855,0.87166196,0.3998661,0.634427,-0.0379798,0.88723177,0.3933406,0.17352283,-0.59303933,0.4179144,785.7143,809.89014,803.0403,792.5641,708.7546,-0.0677490234375,0.21331787109375,0.97979736328125,5.659942626953125,-4.23187255859375,0.456085205078125,1,1.0,1.0,1.0,1.0,50.00
2021-04-29 10:17:15.534,1.4692847,0.9332293,1.1536735,1.4262792,1.0171762,0.7773227,0.5300514,0.66845626,0.8182479,0.32909366,0.6002212,0.87166196,0.3998661,0.634427,0.009510566,0.88723177,0.3933406,0.17352283,-0.6170109,0.4179144,792.96704,798.20514,799.011,799.41394,712.381,-0.035400390625,0.2042236328125,0.9830322265625,2.213134765625,-6.98333740234375,1.637420654296875,1,1.0,1.0,1.0,1.0,50.00
2021-04-29 10:17:15.802,,,,,,,,,,,,,,,,,,,,,,,,,,,,,,,,,,,,,,/muse/elements/blink
2021-04-29 10:17:16.061,1.4692847,0.5997323,1.1267728,1.4262792,1.0171762,0.14271352,0.2342064,0.66845626,0.8182479,0.3658938,0.3664858,0.87166196,0.3998661,0.664318,-0.018364629,0.88723177,0.3933406,-0.051707897,-0.5313744,0.4179144,821.5751,806.26373,797.8022,824.7985,698.2784,-0.00146484375,0.20587158203125,0.9827880859375,5.241241455078125,-4.007568359375,-2.609405517578125,1,1.0,1.0,1.0,1.0,50.00
2021-04-29 10:17:16.591,1.4692847,0.6564005,1.0757722,1.4262792,1.0171762,0.209679,0.23321281,0.66845626,0.8182479,0.3658938,0.5036656,0.87166196,0.3998661,0.6772676,-0.06295823,0.88723177,0.3933406,-0.12773336,-0.5158623,0.4179144,798.20514,811.0989,802.23444,805.4579,695.8608,-0.04119873046875,0.1680908203125,0.9833984375,-0.49346923828125,-2.452392578125,3.222503662109375,1,2.0,1.0,1.0,2.0,50.00
2021-04-29 10:17:17.102,1.4692847,0.48181015,0.8427409,1.4262792,1.0171762,0.08357602,0.20790397,0.66845626,0.8182479,0.3674768,0.5062032,0.87166196,0.3998661,0.5569253,0.029514622,0.88723177,0.3933406,0.07424926,-0.62088436,0.4179144,786.1172,801.02563,806.6667,786.52014,702.71063,-0.0511474609375,0.16656494140625,0.98089599609375,4.91973876953125,-6.83380126953125,-1.734619140625,1,2.0,1.0,1.0,2.0,50.00
2021-04-29 10:17:17.619,0.49903378,0.15629135,0.7179792,0.57974523,0.2909453,-1.5237978E-4,0.15974104,0.088346615,0.64335155,0.3316561,0.49691018,0.4113595,0.3734172,0.44019902,0.053714164,0.16224469,0.061905876,0.21434407,-0.7966085,-0.23012602,806.6667,817.5458,810.696,811.9048,884.0293,-0.013916015625,0.1885986328125,0.9896240234375,6.26556396484375,-7.67120361328125,3.96270751953125,1,1.0,1.0,1.0,1.0,50.00
2021-04-29 10:17:18.124,0.49903378,0.23310587,0.123545125,0.57974523,0.2909453,0.1431497,-0.054562982,0.088346615,0.64335155,0.42028913,0.4154076,0.4113595,0.3734172,0.5384815,0.0020324022,0.16224469,0.061905876,0.20896569,-0.8355439,-0.23012602,806.26373,799.81683,800.2198,797.8022,749.0476,0.0401611328125,0.17333984375,0.98870849609375,3.072967529296875,-5.301055908203125,3.66363525390625,1,1.0,1.0,1.0,1.0,50.00
2021-04-29 10:17:18.638,0.52263457,0.40045157,0.6449778,0.57974523,0.24230884,0.29909274,0.07501132,0.088346615,0.45896396,0.42899284,0.46048075,0.4113595,0.32254463,0.59869283,-0.17588694,0.16224469,0.05022346,0.31107774,-0.7130966,-0.23012602,681.75824,793.36993,813.5165,691.8315,846.1539,0.04888916015625,0.1732177734375,0.99267578125,4.523468017578125,-3.940277099609375,-0.67291259765625,1,1.0,1.0,1.0,1.0,50.00
2021-04-29 10:17:18.689,,,,,,,,,,,,,,,,,,,,,,,,,,,,,,,,,,,,,,/muse/elements/blink
2021-04-29 10:17:19.156,0.55549306,0.5133849,1.0013158,0.6029953,0.20069753,0.3634463,0.11619837,0.09503363,0.2292359,0.42236337,0.46048075,0.4113595,0.27560627,0.6517436,-0.30638662,0.123071715,0.042124707,0.3380892,-0.6683603,-0.21388566,815.5311,838.0952,799.41394,801.4286,750.65936,0.04046630859375,0.16552734375,0.99053955078125,-0.336456298828125,12.27691650390625,-0.964508056640625,1,1.0,1.0,1.0,1.0,50.00
2021-04-29 10:17:19.657,0.55549306,0.6118794,1.0697347,0.6029953,0.20069753,0.38442278,0.105605975,0.09503363,0.2292359,0.2433938,0.44980747,0.4113595,0.27560627,0.62080866,-0.302629,0.123071715,0.042124707,0.4279074,-0.5889003,-0.21388566,844.1392,819.5604,812.3077,841.31866,814.7253,-0.131591796875,0.12506103515625,0.98193359375,3.30474853515625,0.171966552734375,0.22430419921875,1,1.0,1.0,1.0,1.0,50.00
2021-04-29 10:17:20.177,0.55549306,0.4875625,0.9354799,0.6029953,0.20069753,0.0020862622,0.026123945,0.09503363,0.2292359,0.12676951,0.08935285,0.4113595,0.27560627,0.5573228,-0.25420478,0.123071715,0.042124707,0.22264658,-0.4901518,-0.21388566,792.1612,816.7399,811.0989,791.75824,712.381,-0.08489990234375,0.11358642578125,0.99237060546875,4.1571044921875,-8.964691162109375,-2.07855224609375,1,1.0,1.0,1.0,1.0,50.00
2021-04-29 10:17:20.700,1.0800308,0.55192643,0.6381806,0.8069113,0.43353996,0.07836535,0.09865838,0.28657782,0.40037417,0.21590292,0.17129114,0.6481606,0.29950583,0.6472929,-0.13023885,0.14888065,0.03498808,0.11291197,-0.33114052,-0.19346486,836.8865,823.5897,806.6667,832.0513,730.5128,-0.06365966796875,0.11572265625,1.00286865234375,5.8917236328125,-7.19268798828125,-0.695343017578125,1,1.0,1.0,1.0,1.0,50.00
2021-04-29 10:17:21.024,,,,,,,,,,,,,,,,,,,,,,,,,,,,,,,,,,,,,,/muse/elements/blink
2021-04-29 10:17:21.228,1.242354,0.74621785,0.7668179,1.0068183,0.5898141,0.15399729,0.10416575,0.53251064,0.5821775,0.24595346,0.19143607,0.6664439,0.32979435,0.64235115,-0.122391075,0.1303388,0.002168874,0.113672405,-0.29080167,-0.22328334,802.6374,798.60803,806.6667,812.3077,746.63007,-0.0355224609375,0.15240478515625,0.991943359375,7.6861572265625,-6.35528564453125,-0.874786376953125,1,1.0,1.0,1.0,1.0,50.00
2021-04-29 10:17:21.750,1.3752465,0.8567468,0.9804963,1.0970774,0.65943235,0.21880575,0.15913934,0.63832325,0.5773421,0.20295008,0.20184949,0.6564648,0.3613039,0.67772543,-0.1163688,0.0652999,-3.0385502E-4,0.064883046,-0.37229508,-0.23718624,806.26373,814.3223,804.65204,811.9048,736.55676,-0.006591796875,0.15826416015625,0.9964599609375,5.704803466796875,-7.738494873046875,0.740203857421875,1,1.0,1.0,1.0,1.0,50.00
2021-04-29 10:17:22.233,,,,,,,,,,,,,,,,,,,,,,,,,,,,,,,,,,,,,,/muse/elements/blink
2021-04-29 10:17:22.262,1.4765948,0.7203263,0.9452346,1.2264483,0.7469998,0.05623469,0.0500436,0.7737245,0.54772556,0.3923167,0.043430846,0.59747064,0.3579429,0.6040436,-0.11322232,0.024537494,-0.06093673,0.22713654,-0.5401576,-0.27750662,782.0879,804.65204,811.50183,783.2967,733.3333,-0.03131103515625,0.15869140625,0.99041748046875,3.222503662109375,0.007476806640625,1.712188720703125,1,1.0,1.0,1.0,1.0,50.00
2021-04-29 10:17:22.790,1.4765948,0.5035705,1.0059384,1.2264483,0.7469998,-0.12062646,0.16847728,0.7737245,0.54772556,0.32851014,0.06691911,0.59747064,0.3579429,0.6210996,-0.073675506,0.024537494,-0.06093673,0.38324097,-0.54263735,-0.27750662,811.9048,799.41394,805.05493,806.6667,760.7326,-0.0604248046875,0.13006591796875,0.98956298828125,3.27484130859375,-3.3795166015625,0.186920166015625,1,1.0,1.0,1.0,1.0,50.00
2021-04-29 10:17:23.292,1.4765948,0.37256652,0.8134282,1.2264483,0.7469998,-0.05675001,-0.017753722,0.7737245,0.54772556,0.38851026,0.04062157,0.59747064,0.3579429,0.6300007,-0.041595474,0.024537494,-0.06093673,0.306112,-0.5088146,-0.27750662,806.6667,807.0696,801.02563,791.75824,718.022,-0.0367431640625,0.1365966796875,0.99420166015625,4.71038818359375,-4.538421630859375,0.9271240234375,1,1.0,1.0,1.0,1.0,50.00
2021-04-29 10:17:23.812,0.76198006,0.44787824,0.76982707,0.7148617,0.044243295,0.110246204,-0.12623398,0.026911026,0.16251178,0.36322746,0.08472624,0.3410242,0.3985038,0.6607999,-0.02784757,-0.04911496,-0.23402332,0.16158992,-0.4700398,-0.24028312,806.6667,809.0842,804.2491,810.293,863.0769,-0.05535888671875,0.1396484375,0.9910888671875,4.29168701171875,-3.536529541015625,1.136474609375,1,2.0,1.0,1.0,2.0,50.00
2021-04-29 10:17:24.320,0.7485778,0.5397586,0.4659846,0.6936277,0.20569953,0.19027835,0.12990351,0.35479367,0.5270055,0.37954697,0.4888522,0.7097463,0.39581248,0.68578666,0.020837482,0.051346615,0.06563019,-0.056004107,-0.5095402,-0.20670421,818.7546,802.23444,804.65204,819.5604,787.326,-0.06011962890625,0.13677978515625,0.985107421875,3.850555419921875,-5.802001953125,0.201873779296875,1,1.0,1.0,1.0,1.0,50.00
2021-04-29 10:17:24.820,0.82772017,0.5417118,0.55545855,0.75442094,0.3266791,0.24012785,0.3230374,0.5720912,0.7392675,0.37954697,0.5035196,0.75027853,0.39162898,0.65553653,0.011885204,0.037126694,0.09642797,-0.10168708,-0.5539612,-0.20860247,904.57874,823.9927,789.7436,904.57874,684.17584,-0.036376953125,0.12591552734375,0.9923095703125,4.725341796875,-6.841278076171875,1.80938720703125,1,1.0,1.0,1.0,1.0,50.00
2021-04-29 10:17:24.843,,,,,,,,,,,,,,,,,,,,,,,,,,,,,,,,,,,,,,/muse/elements/blink
2021-04-29 10:17:25.339,0.8571997,0.64627856,0.9142306,0.7729265,0.4197728,0.28002545,0.54082227,0.70483375,0.7392675,0.38062337,0.5412946,0.75027853,0.38815033,0.618193,-0.03027868,0.07457407,0.1989904,-0.04100604,-0.5563805,-0.19358864,796.99634,804.2491,802.6374,793.7729,832.8571,-0.01959228515625,0.13616943359375,0.996337890625,4.6356201171875,-5.719757080078125,1.256103515625,1,1.0,1.0,1.0,1.0,50.00
2021-04-29 10:17:25.802,,,,,,,,,,,,,,,,,,,,,,,,,,,,,,,,,,,,,,/muse/elements/blink
2021-04-29 10:17:25.849,1.0069445,0.4887843,1.0067445,0.90292305,0.53782886,0.2677103,0.5497044,0.89050496,0.67452365,0.2782877,0.38089105,0.4481414,0.35472408,0.5715909,-0.105062164,0.016021907,0.20947354,0.029360244,-0.599948,-0.21896479,783.69965,814.3223,805.8608,786.1172,757.50916,-0.0443115234375,0.118408203125,0.990478515625,3.895416259765625,-3.416900634765625,-1.8243408203125,1,1.0,1.0,1.0,1.0,50.00
2021-04-29 10:17:26.356,1.0069445,0.6754724,1.2259858,0.90292305,0.53782886,0.2874907,0.5903616,0.89050496,0.67452365,0.15391982,0.27669588,0.4481414,0.35472408,0.62568724,-0.18051954,0.016021907,0.20947354,0.11674028,-0.5637658,-0.21896479,807.47253,821.978,799.81683,813.5165,644.68866,-0.0372314453125,0.1290283203125,0.99560546875,3.102874755859375,-3.985137939453125,1.009368896484375,1,1.0,1.0,1.0,1.0,50.00
2021-04-29 10:17:26.884,1.0069445,0.7673644,1.1603853,0.90292305,0.53782886,0.46535933,0.5275747,0.89050496,0.67452365,0.2023227,0.3004239,0.4481414,0.35472408,0.7170071,-0.15375288,0.016021907,0.20947354,0.09808042,-0.47068885,-0.21896479,792.96704,800.6227,788.93774,796.99634,832.0513,-0.0391845703125,0.12432861328125,1.00018310546875,4.344024658203125,-4.314117431640625,0.777587890625,1,1.0,1.0,1.0,1.0,50.00
2021-04-29 10:17:27.413,1.0069445,0.70529485,1.0540284,0.90292305,0.53782886,0.3984558,0.4602512,0.89050496,0.67452365,0.28862944,0.3910892,0.4481414,0.35472408,0.66767,-0.20208615,0.016021907,0.20947354,0.16243613,-0.37217698,-0.21896479,835.2747,824.7985,802.6374,830.84247,771.2088,-0.05718994140625,0.1192626953125,0.98992919921875,4.6356201171875,-4.725341796875,0.949554443359375,1,2.0,1.0,1.0,2.0,50.00
2021-04-29 10:17:27.928,1.3150991,0.5688086,0.5607246,1.4738271,0.6112083,0.40350512,0.37420517,0.68978,0.28434634,0.28864405,0.4528382,0.5599617,0.23677933,0.642463,-0.20302631,0.33130667,0.0890518,0.12871902,-0.34708002,-0.27346343,834.4689,815.5311,802.23444,813.5165,795.78754,-0.03887939453125,0.11077880859375,0.98822021484375,6.048736572265625,-5.99639892578125,1.188812255859375,1,1.0,1.0,1.0,1.0,50.00
2021-04-29 10:17:28.435,1.3150991,0.4547384,0.7081604,1.6545218,0.6112083,0.33752352,0.38882458,0.80498075,0.28434634,0.43954316,0.425958,0.65067303,0.23677933,0.5908473,-0.20043956,0.29977614,0.0890518,0.13760209,-0.4120001,-0.23150384,796.1905,825.6044,794.9817,780.87915,744.21246,-0.0421142578125,0.11517333984375,0.98291015625,2.46734619140625,-1.233673095703125,-3.192596435546875,1,1.0,1.0,1.0,1.0,50.00
2021-04-29 10:17:28.960,1.3998872,0.55842257,0.9528257,1.7800337,0.5167543,0.3954844,0.4938528,0.8404762,0.20744385,0.46026495,0.35972193,0.5680902,0.1550863,0.56817526,-0.17063957,0.24959448,0.15827462,0.18268725,-0.40532115,-0.1547492,802.23444,812.71063,802.6374,802.6374,679.7436,-0.04620361328125,0.13592529296875,0.98974609375,5.09918212890625,-2.46734619140625,0.590667724609375,1,1.0,1.0,1.0,1.0,50.00
2021-04-29 10:17:29.481,1.3998872,0.54915744,0.9046174,1.9241308,0.5167543,0.2784047,0.40746045,0.9778532,0.20744385,0.45271122,0.15443344,0.4522203,0.1550863,0.52383393,-0.18757758,0.19468,0.15827462,0.14808026,-0.47780418,-0.12940753,796.1905,794.9817,802.23444,801.4286,765.16486,-0.062744140625,0.14605712890625,0.99847412109375,5.390777587890625,-5.241241455078125,1.084136962890625,1,1.0,1.0,1.0,1.0,50.00
2021-04-29 10:17:30.007,1.3998872,0.3908398,0.66428506,1.9241308,0.5167543,0.16299154,0.21187858,0.9778532,0.20744385,0.20689014,0.13716109,0.4522203,0.1550863,0.49091458,-0.20619981,0.19468,0.15827462,0.113345884,-0.4799261,-0.12940753,773.6264,811.9048,814.7253,772.4176,720.0366,-0.06781005859375,0.13433837890625,0.993896484375,3.93280029296875,-0.777587890625,-0.276641845703125,1,1.0,1.0,1.0,1.0,50.00
2021-04-29 10:17:30.143,,,,,,,,,,,,,,,,,,,,,,,,,,,,,,,,,,,,,,/muse/elements/blink
2021-04-29 10:17:30.512,1.3998872,0.44406778,0.29096648,1.9241308,0.5167543,0.39981294,-0.11739949,0.9778532,0.20744385,0.19432396,0.1896763,0.4522203,0.1550863,0.5523813,-0.26497033,0.19468,0.15827462,0.010515223,-0.53437054,-0.12940753,827.2161,810.696,811.0989,826.4103,784.10254,-0.04754638671875,0.137939453125,0.98809814453125,4.254302978515625,-3.63372802734375,1.697235107421875,1,1.0,1.0,1.0,1.0,50.00
2021-04-29 10:17:31.029,1.3998872,0.3930319,0.40987122,1.9241308,0.5167543,0.39681804,-0.075560465,0.9778532,0.20744385,0.13006385,0.25093538,0.4522203,0.1550863,0.5955058,-0.19264796,0.19468,0.15827462,0.023059985,-0.48834595,-0.12940753,785.7143,794.57874,800.2198,779.67035,775.2381,-0.06072998046875,0.13885498046875,0.99188232421875,3.81317138671875,-3.701019287109375,1.92901611328125,1,2.0,1.0,1.0,2.0,50.00
2021-04-29 10:17:31.540,1.3998872,0.45313796,0.4487943,1.9241308,0.5167543,0.37299603,-0.13439888,0.9778532,0.20744385,0.43697044,0.2613345,0.4522203,0.1550863,0.6237724,-0.18201357,0.19468,0.15827462,-0.013086956,-0.5223418,-0.12940753,715.6044,811.0989,808.68134,722.4542,643.0769,-0.051025390625,0.12890625,0.993896484375,3.072967529296875,-4.029998779296875,0.171966552734375,1,2.0,1.0,1.0,2.0,50.00
2021-04-29 10:17:32.066,1.3998872,0.41104603,0.4879906,1.9241308,0.5167543,0.44296518,-0.101794064,0.9778532,0.20744385,0.78382206,0.21727763,0.4522203,0.1550863,0.5902957,-0.1001922,0.19468,0.15827462,0.117532395,-0.51810324,-0.12940753,807.47253,809.89014,807.47253,819.15753,769.59705,-0.0721435546875,0.11767578125,0.991943359375,3.349609375,-2.31781005859375,0.19439697265625,1,2.0,1.0,1.0,2.0,50.00
2021-04-29 10:17:32.594,1.3998872,0.4091709,0.49267736,1.9241308,0.5167543,0.41305286,-0.11048327,0.9778532,0.20744385,0.78281355,0.1366601,0.4522203,0.1550863,0.63252383,-0.066116646,0.19468,0.15827462,0.21714611,-0.44025823,-0.12940753,819.5604,809.89014,805.05493,813.91943,854.21246,-0.0435791015625,0.12994384765625,0.99560546875,3.70849609375,-4.7552490234375,1.772003173828125,1,2.0,1.0,1.0,2.0,50.00
2021-04-29 10:17:33.120,1.3998872,0.4277989,0.46941775,1.9241308,0.5167543,0.4574964,0.01394417,0.9778532,0.20744385,0.7845378,0.16495772,0.4522203,0.1550863,0.66987926,-0.09405042,0.19468,0.15827462,0.2754342,-0.45572755,-0.12940753,762.74725,826.4103,813.91943,765.9707,653.1502,-0.051025390625,0.13568115234375,0.99530029296875,3.596343994140625,-3.925323486328125,-1.158905029296875,1,2.0,1.0,1.0,2.0,50.00
2021-04-29 10:17:33.310,,,,,,,,,,,,,,,,,,,,,,,,,,,,,,,,,,,,,,/muse/elements/blink
2021-04-29 10:17:33.645,1.3998872,0.73991096,0.6458309,1.9241308,0.5167543,0.32198578,0.37595412,0.9778532,0.20744385,0.33262464,0.17456864,0.4522203,0.1550863,0.725624,-0.0722103,0.19468,0.15827462,0.2042034,-0.46932292,-0.12940753,813.1135,806.26373,807.47253,814.7253,869.92676,-0.0426025390625,0.12176513671875,0.9906005859375,5.323486328125,-7.633819580078125,0.19439697265625,1,2.0,1.0,1.0,2.0,50.00
2021-04-29 10:17:34.172,1.3998872,0.8904433,0.89751834,1.9241308,0.5167543,0.46017843,0.5204357,0.9778532,0.20744385,0.33262464,0.26537526,0.4522203,0.1550863,0.69952226,-0.09952211,0.19468,0.15827462,0.15381092,-0.56276417,-0.12940753,802.6374,815.12823,807.8755,800.6227,672.49084,-0.0107421875,0.12481689453125,0.9969482421875,4.658050537109375,-5.3533935546875,1.697235107421875,1,2.0,1.0,1.0,2.0,50.00
2021-04-29 10:17:34.634,,,,,,,,,,,,,,,,,,,,,,,,,,,,,,,,,,,,,,/muse/elements/blink
2021-04-29 10:17:34.699,1.3998872,0.88020813,0.9167386,1.9241308,0.5167543,0.40401012,0.47497982,0.9778532,0.20744385,0.16985965,0.25126496,0.4522203,0.1550863,0.68884563,-0.08874273,0.19468,0.15827462,0.22722566,-0.5925374,-0.12940753,769.59705,792.96704,801.02563,772.01465,702.71063,-0.02471923828125,0.1287841796875,0.99468994140625,3.581390380859375,0.142059326171875,3.3795166015625,1,2.0,1.0,1.0,2.0,50.00
2021-04-29 10:17:35.209,1.3998872,0.69743043,1.0533247,1.9241308,0.5167543,0.2949271,0.17061538,0.9778532,0.20744385,-0.026851365,0.14663985,0.4522203,0.1550863,0.62705785,-0.0924959,0.19468,0.15827462,0.35412082,-0.66988754,-0.12940753,802.23444,808.68134,798.60803,793.7729,654.35895,-0.1026611328125,0.095703125,0.991943359375,3.162689208984375,-1.383209228515625,2.504730224609375,1,2.0,1.0,1.0,2.0,50.00
2021-04-29 10:17:35.736,1.3998872,0.1482457,0.96693987,1.9241308,0.5167543,-0.081577055,-0.01779736,0.9778532,0.20744385,0.29822072,-0.007883202,0.4522203,0.1550863,0.5147658,-0.058422938,0.19468,0.15827462,0.38112545,-0.6372862,-0.12940753,810.696,816.7399,803.44324,799.41394,742.6007,-0.0457763671875,0.09405517578125,0.99774169921875,3.730926513671875,-5.121612548828125,-0.157012939453125,1,2.0,1.0,1.0,2.0,50.00
2021-04-29 10:17:36.259,1.3998872,-0.051110677,0.94226974,1.9241308,0.5167543,-0.23108411,-0.034889378,0.9778532,0.20744385,0.5428112,-0.08652403,0.4522203,0.1550863,0.4964777,-0.12665765,0.19468,0.15827462,0.31121048,-0.5750882,-0.12940753,783.69965,794.9817,801.02563,790.14655,859.45056,-0.05841064453125,0.1065673828125,0.99310302734375,6.05621337890625,-5.5926513671875,0.7476806640625,1,2.0,1.0,1.0,2.0,50.00
2021-04-29 10:17:36.769,1.1358963,-0.20353475,0.069355816,1.9241308,0.39036644,-0.19249512,-0.114079624,0.9778532,0.73375475,0.5863386,0.06374286,0.4522203,0.27504945,0.50928044,-0.15033153,0.19468,-0.06393608,0.29005048,-0.60971427,-0.12940753,822.7839,815.9341,796.5934,811.9048,793.36993,-0.0343017578125,0.088134765625,0.99481201171875,4.179534912109375,-7.25250244140625,-0.560760498046875,1,1.0,1.0,1.0,1.0,50.00
2021-04-29 10:17:37.275,1.26773,-0.18206805,-0.09417292,1.9241308,0.49300358,-0.09631617,-0.038004946,0.9778532,0.8741406,0.5713237,0.11484336,0.4522203,0.32332617,0.54941845,-0.1795381,0.19468,-0.13298905,0.2637259,-0.6153127,-0.12940753,801.8315,801.4286,801.4286,801.4286,723.2601,0.03619384765625,0.11639404296875,0.996337890625,4.613189697265625,-10.669403076171875,1.2261962890625,1,1.0,1.0,1.0,1.0,50.00
2021-04-29 10:17:37.791,1.512845,-0.06797499,0.068246864,1.9241308,0.7768596,-0.025243694,-0.09091022,0.9778532,0.9815815,0.48907733,0.21130896,0.4522203,0.41131225,0.5921773,-0.074942224,0.19468,-0.11203942,0.21370876,-0.67757076,-0.12940753,824.3956,802.23444,799.81683,807.8755,778.86444,0.051513671875,0.10614013671875,0.9979248046875,3.887939453125,-0.179443359375,0.01495361328125,1,1.0,1.0,1.0,1.0,50.00
2021-04-29 10:17:38.307,1.5305759,0.24501435,0.18593739,1.9241308,0.8293233,-0.032843504,-0.23377307,0.9778532,1.0082788,0.38473007,0.17615484,0.4522203,0.43287575,0.6506062,-0.15903135,0.19468,-0.09109669,0.24219061,-0.577662,-0.12940753,793.7729,813.1135,801.4286,783.2967,684.57874,-0.04571533203125,0.08709716796875,0.99139404296875,4.91973876953125,-2.8411865234375,0.515899658203125,1,1.0,1.0,1.0,1.0,50.00
2021-04-29 10:17:38.822,1.5556717,0.34530622,0.36158428,1.2617822,0.8103729,-0.17770721,-0.26869583,0.62370753,1.0071564,0.34024543,0.17490476,0.63795114,0.34705013,0.63420844,-0.21394113,0.19227037,-0.007658729,0.32480833,-0.59258807,-0.16124737,831.2454,811.9048,803.8461,829.2308,770.80585,-0.03839111328125,0.10174560546875,0.99871826171875,4.134674072265625,-4.134674072265625,1.921539306640625,1,1.0,1.0,1.0,1.0,50.00
2021-04-29 10:17:39.352,1.4044058,0.31403506,0.3538944,1.2496592,0.613828,-0.0973577,-0.1839664,0.6164733,0.7819161,0.37054482,0.03736519,0.64675725,0.23302917,0.5611073,-0.32332405,0.18785997,-0.030890053,0.3791826,-0.45469832,-0.17050222,821.5751,791.75824,802.23444,827.2161,757.50916,-0.021728515625,0.10894775390625,1.00054931640625,5.001983642578125,-5.443115234375,1.143951416015625,1,1.0,1.0,1.0,1.0,50.00
2021-04-29 10:17:39.879,1.3897022,0.23217481,0.5308387,1.2843114,0.5790996,-0.0043577487,-0.10009164,0.59398955,0.76492476,0.33937287,0.07274553,0.62526006,0.19271755,0.49748218,-0.24556334,0.19197452,-0.062412098,0.34657255,-0.4242263,-0.22593029,935.6044,849.3773,762.74725,909.011,649.5238,-0.01239013671875,0.10009765625,0.9913330078125,5.45806884765625,-5.81695556640625,0.216827392578125,1,1.0,1.0,1.0,1.0,50.00
2021-04-29 10:17:40.402,1.1930443,0.70631635,0.80685526,1.1989536,0.5893404,0.26851147,0.23388775,0.5275537,0.6776416,0.4540809,0.60076886,0.5263645,0.23851445,0.57032806,-0.15611048,0.214894,-0.15421912,0.23651662,-0.40465492,-0.2503345,807.8755,795.78754,806.26373,808.68134,876.3736,0.01129150390625,0.16180419921875,1.00927734375,6.0711669921875,-6.639404296875,7.155303955078125,1,1.0,1.0,1.0,1.0,50.00
2021-04-29 10:17:40.910,1.1930443,0.9340042,1.0395353,1.1989536,0.5893404,0.41446513,0.45362034,0.5275537,0.6776416,0.47498348,0.6077684,0.5263645,0.23851445,0.6241357,-0.051167235,0.214894,-0.15421912,0.12480653,-0.42384964,-0.2503345,826.0073,826.8132,808.2784,819.5604,892.8938,-0.00970458984375,0.13861083984375,0.99200439453125,3.06549072265625,-0.58319091796875,-2.459869384765625,1,1.0,1.0,1.0,1.0,50.00
2021-04-29 10:17:41.435,1.1930443,0.92472124,0.9569669,1.1989536,0.5893404,0.42433825,0.47699994,0.5275537,0.6776416,0.5052733,0.6077684,0.5263645,0.23851445,0.667122,-0.0995943,0.214894,-0.15421912,0.032456145,-0.5267228,-0.2503345,796.1905,806.6667,805.8608,792.1612,778.0586,9.765625E-4,0.19085693359375,0.99267578125,8.912353515625,-3.835601806640625,2.639312744140625,1,1.0,1.0,1.0,1.0,50.00
2021-04-29 10:17:41.967,0.909702,0.15410662,0.57110894,0.6102471,-0.19456583,-0.016598038,0.21649131,0.087821186,0.37539393,-0.0071635502,0.3773127,0.4737828,0.6413995,0.6067671,-0.12453564,0.1468471,0.11999241,0.027874697,-0.63932633,-0.2320486,680.54944,792.1612,830.0366,691.4286,746.63007,-0.00311279296875,0.19598388671875,0.9990234375,5.00946044921875,-4.05242919921875,4.77020263671875,1,1.0,1.0,1.0,1.0,50.00
2021-04-29 10:17:42.166,,,,,,,,,,,,,,,,,,,,,,,,,,,,,,,,,,,,,,/muse/elements/blink
2021-04-29 10:17:42.475,0.909702,0.38747546,0.74698234,0.6102471,-0.19456583,-0.07621254,0.03519153,0.087821186,0.37539393,0.071735494,0.03867479,0.4737828,0.6413995,0.6371002,-0.10992052,0.1468471,0.11999241,0.002237248,-0.65013874,-0.2320486,796.5934,825.6044,803.44324,789.34064,670.4762,-0.02740478515625,0.18609619140625,0.9971923828125,1.248626708984375,-0.022430419921875,0.2392578125,1,1.0,1.0,1.0,1.0,50.00
2021-04-29 10:17:42.985,0.74064976,0.44459,0.8989968,0.43313232,-0.40358737,-0.20529507,0.092273965,0.09345247,0.33422288,0.040111754,0.09514458,0.4737828,0.6712074,0.6193473,-0.065079,0.16663377,0.1495995,0.025507275,-0.60118514,-0.26404998,831.2454,814.3223,799.41394,835.2747,852.1978,-0.1097412109375,0.1531982421875,0.98370361328125,-0.07476806640625,6.452484130859375,3.2598876953125,1,1.0,1.0,1.0,1.0,50.00
2021-04-29 10:17:43.516,0.74064976,0.79164857,0.9452333,0.43313232,-0.40358737,0.0045827003,0.073648736,0.09345247,0.33422288,0.068011545,0.12483306,0.4737828,0.6712074,0.6198707,-0.089512475,0.16663377,0.1495995,-0.010174321,-0.48372912,-0.26404998,826.0073,812.71063,805.05493,818.7546,797.3993,-0.09912109375,0.16729736328125,0.970703125,5.084228515625,-5.5926513671875,0.171966552734375,1,1.0,1.0,1.0,1.0,50.00
2021-04-29 10:17:44.036,0.8174939,0.6094654,0.43321857,0.7188081,0.18380399,-0.22476232,-0.009490201,0.32534227,0.61115766,0.117298424,0.16734537,0.5191914,0.33658808,0.5899104,-0.17237832,0.22888508,0.12584996,0.05804529,-0.45738244,-0.25954312,813.5165,817.9487,800.6227,808.2784,707.1429,-0.05072021484375,0.14459228515625,0.97637939453125,6.377716064453125,-10.88623046875,7.843170166015625,1,1.0,1.0,1.0,1.0,50.00
2021-04-29 10:17:44.567,0.639091,0.654577,0.21094662,0.5492163,0.27073252,-0.058658544,-0.120639116,0.32414675,0.66281694,0.16969086,0.1301074,0.5201086,0.25475892,0.5682311,-0.20133974,0.21142991,0.121758066,0.14485455,-0.44396898,-0.24886015,801.02563,811.9048,801.8315,798.60803,676.52014,-0.07666015625,0.0906982421875,1.00225830078125,-3.715972900390625,-2.863616943359375,-9.353485107421875,1,1.0,1.0,1.0,1.0,50.00
2021-04-29 10:17:45.068,0.40963402,0.5833011,0.19936371,0.33298045,0.24917436,0.10742213,-0.17286737,0.30570576,0.66311324,0.18770692,0.15363154,0.608741,0.19801307,0.60110444,-0.20763604,0.22049576,0.025520524,0.1714876,-0.48672998,-0.25606093,837.28937,825.2015,793.7729,824.3956,1087.1062,-0.06024169921875,0.07952880859375,0.9993896484375,3.028106689453125,-6.930999755859375,2.564544677734375,1,1.0,1.0,1.0,1.0,50.00
2021-04-29 10:17:45.586,0.6144622,0.6145446,0.2165384,0.297591,0.3514148,0.23598546,-0.27786463,0.2817035,0.6427872,0.18979557,0.22526044,0.63321704,0.2766964,0.569782,-0.030168653,0.25982833,0.0044732736,0.18752311,-0.5179488,0.09629498,805.05493,794.17584,803.0403,790.9524,834.0659,-0.03778076171875,0.07147216796875,1.00152587890625,4.403839111328125,-4.134674072265625,-1.876678466796875,1,1.0,1.0,1.0,1.0,50.00
2021-04-29 10:17:45.924,,,,,,,,,,,,,,,,,,,,,,,,,,,,,,,,,,,,,,/muse/elements/blink
2021-04-29 10:17:46.091,0.76208365,0.48472917,0.19421676,0.36282635,0.3589576,0.19343987,-0.31294665,0.3201876,0.62921315,0.17135984,0.21410355,0.57517695,0.3610802,0.5612601,0.040141113,0.28278968,-0.014100784,0.17878495,-0.4838395,0.20513403,818.3516,806.6667,795.38464,813.5165,803.0403,0.0955810546875,0.0552978515625,1.0006103515625,4.927215576171875,-16.815338134765625,11.46942138671875,1,1.0,1.0,1.0,1.0,50.00
2021-04-29 10:17:46.596,0.89541733,0.4881481,0.24334122,0.4861163,0.4379425,0.039170872,-0.15033638,0.37612668,0.61348104,0.10261193,0.18419133,0.5373699,0.40814495,0.5356053,0.043023754,0.30920857,0.0751201,0.2366611,-0.43577284,0.36234686,795.78754,808.2784,806.26373,793.7729,608.8278,0.18743896484375,0.042236328125,0.9842529296875,1.966400146484375,-8.889923095703125,10.27313232421875,1,1.0,1.0,1.0,1.0,50.00
2021-04-29 10:17:47.105,0.9750099,0.46220636,0.2678504,0.611551,0.49891296,-0.1551751,0.119153254,0.45431513,0.59283483,0.15918468,-0.0017778318,0.4372946,0.48172265,0.5211904,-0.024248429,0.36512676,0.1823038,0.31708804,-0.49924174,0.4826909,799.011,808.2784,803.0403,797.8022,757.9121,0.19964599609375,0.0550537109375,0.9840087890625,6.347808837890625,-4.9945068359375,3.835601806640625,1,1.0,1.0,1.0,1.0,50.00
2021-04-29 10:17:47.624,0.13873874,0.49039572,0.1926619,0.611551,-0.06815146,-0.24860571,0.10342843,0.45431513,0.0798036,0.31038544,-0.0017778318,0.4372946,0.005313181,0.5109135,-0.110641554,0.36512676,-0.18907073,0.4066706,-0.52988744,0.4826909,793.7729,810.696,783.69965,780.07324,851.39197,0.2391357421875,0.0623779296875,0.98040771484375,2.52716064453125,-9.34600830078125,-11.476898193359375,1,1.0,1.0,1.0,1.0,50.00
2021-04-29 10:17:48.132,0.13873874,0.73899513,0.9111437,0.611551,-0.06815146,0.4743778,0.41764277,0.45431513,0.0798036,0.6994312,0.34852523,0.4372946,0.005313181,0.5406037,-0.11652401,0.36512676,-0.18907073,0.36685485,-0.5051943,0.4826909,786.9231,807.47253,807.0696,792.96704,670.87915,0.22711181640625,0.0672607421875,0.9703369140625,1.786956787109375,-7.73101806640625,-8.44879150390625,1,1.0,1.0,1.0,1.0,50.00
2021-04-29 10:17:48.532,,,,,,,,,,,,,,,,,,,,,,,,,,,,,,,,,,,,,,/muse/elements/blink
2021-04-29 10:17:48.658,0.13873874,0.8195406,1.0273094,0.611551,-0.06815146,0.6360305,0.4533348,0.45431513,0.0798036,0.71244687,0.34931675,0.4372946,0.005313181,0.63174754,-0.16939612,0.36512676,-0.18907073,0.34214762,-0.40260443,0.4826909,718.8278,793.7729,816.7399,730.5128,718.022,0.10736083984375,0.029296875,0.9896240234375,-0.22430419921875,10.669403076171875,-9.592742919921875,1,1.0,1.0,1.0,1.0,50.00
2021-04-29 10:17:49.187,0.13873874,0.9321111,1.2839558,0.611551,-0.06815146,0.80419827,0.6918064,0.45431513,0.0798036,0.71244687,0.45181566,0.4372946,0.005313181,0.690421,-0.12195698,0.36512676,-0.18907073,0.25035048,-0.34290212,0.4826909,759.92676,794.17584,805.4579,763.1502,799.41394,0.2073974609375,0.05859375,0.9979248046875,3.51409912109375,-5.854339599609375,-1.03179931640625,1,1.0,1.0,1.0,1.0,50.00
2021-04-29 10:17:49.713,0.13873874,0.851098,1.2362466,0.611551,-0.06815146,0.7299953,0.64120805,0.45431513,0.0798036,0.46935114,0.43410853,0.4372946,0.005313181,0.7703838,-0.12946403,0.36512676,-0.18907073,0.25739622,-0.32541028,0.4826909,722.0513,800.2198,813.5165,704.3223,738.1685,0.0950927734375,0.054443359375,0.98583984375,4.762725830078125,-18.340606689453125,-3.7982177734375,1,1.0,1.0,1.0,1.0,50.00
2021-04-29 10:17:49.947,,,,,,,,,,,,,,,,,,,,,,,,,,,,,,,,,,,,,,/muse/elements/blink
2021-04-29 10:17:50.213,0.13873874,0.851098,1.2793846,0.611551,-0.06815146,0.7299953,0.6682973,0.45431513,0.0798036,0.46935114,0.43848297,0.4372946,0.005313181,0.7703838,-0.089841,0.36512676,-0.18907073,0.25739622,-0.39486995,0.4826909,795.38464,801.8315,800.2198,800.2198,778.0586,0.04620361328125,0.0220947265625,0.98797607421875,6.871185302734375,-9.43572998046875,-3.7384033203125,1,1.0,1.0,1.0,1.0,50.00
2021-04-29 10:17:50.725,0.13873874,0.851098,1.339728,0.611551,-0.06815146,0.7299953,0.517701,0.45431513,0.0798036,0.46935114,0.05945444,0.4372946,0.005313181,0.7703838,-0.10949186,0.36512676,-0.18907073,0.25739622,-0.524087,0.4826909,792.96704,824.3956,801.4286,794.9817,702.3077,0.04180908203125,0.05328369140625,0.9984130859375,6.3702392578125,2.51220703125,4.747772216796875,1,2.0,1.0,1.0,2.0,50.00
2021-04-29 10:17:51.232,0.13873874,0.851098,1.1308109,0.611551,-0.06815146,0.7299953,0.379678,0.45431513,0.0798036,0.46935114,0.068258405,0.4372946,0.005313181,0.7703838,-0.19318911,0.36512676,-0.18907073,0.25739622,-0.6303007,0.4826909,600.3663,766.77655,837.28937,601.1722,689.41394,0.114013671875,0.087158203125,1.01025390625,3.491668701171875,0.37384033203125,4.9346923828125,1,2.0,1.0,1.0,2.0,50.00
2021-04-29 10:17:51.446,,,,,,,,,,,,,,,,,,,,,,,,,,,,,,,,,,,,,,/muse/elements/blink
2021-04-29 10:17:51.752,0.13873874,0.851098,1.1848419,0.611551,-0.06815146,0.7299953,0.4687931,0.45431513,0.0798036,0.46935114,0.28938216,0.4372946,0.005313181,0.7703838,-0.14799707,0.36512676,-0.18907073,0.25739622,-0.6776195,0.4826909,812.3077,785.31134,807.47253,809.4872,963.00366,0.0323486328125,0.068115234375,0.98382568359375,4.957122802734375,-5.091705322265625,4.94964599609375,1,2.0,1.0,1.0,2.0,50.00
2021-04-29 10:17:52.254,0.13873874,0.851098,1.013529,0.611551,-0.06815146,0.7299953,0.45562193,0.45431513,0.0798036,0.46935114,0.33381754,0.4372946,0.005313181,0.7703838,-0.0034740064,0.36512676,-0.18907073,0.25739622,-0.58044887,0.4826909,805.8608,806.6667,804.2491,811.50183,735.7509,0.0977783203125,0.0692138671875,0.9974365234375,0.575714111328125,0.6280517578125,-0.829925537109375,1,2.0,1.0,1.0,2.0,50.00
2021-04-29 10:17:52.763,0.13873874,0.8499088,0.9888655,0.611551,-0.06815146,0.16759495,0.4153724,0.45431513,0.0798036,0.28001,0.34782857,0.4372946,0.005313181,0.6524396,0.022685602,0.36512676,-0.18907073,0.39512146,-0.5233148,0.4826909,819.15753,821.978,796.1905,814.7253,751.8681,0.048583984375,0.0584716796875,0.99627685546875,5.121612548828125,6.826324462890625,-1.3458251953125,1,2.0,1.0,1.0,2.0,50.00
2021-04-29 10:17:53.280,1.4993354,0.71959186,0.72089446,1.4822804,0.9576418,-0.034673724,0.21256849,0.8170078,0.6120172,0.1978092,0.29828143,0.6579578,0.20369552,0.5592281,-0.031143842,0.23324774,-0.14474496,0.46769318,-0.5232484,-0.14457259,790.54944,805.05493,805.4579,791.3553,853.4066,0.0501708984375,0.0496826171875,1.00579833984375,5.719757080078125,-10.983428955078125,6.960906982421875,1,1.0,1.0,1.0,1.0,50.00
2021-04-29 10:17:53.790,1.3162811,0.64520293,0.057876833,1.3458623,0.8526704,0.03037551,-0.23306729,0.76670015,0.65790963,0.2197981,0.1234201,0.8135764,0.20290315,0.5360218,-0.13354194,0.28597873,-0.14096265,0.37546384,-0.4364119,-0.046246745,828.4249,805.8608,800.6227,816.7399,747.8388,0.03033447265625,0.009765625,1.001953125,-0.261688232421875,-8.61328125,15.850830078125,1,1.0,1.0,1.0,1.0,50.00
2021-04-29 10:17:54.295,1.1697204,0.44274145,0.4166118,1.3297921,0.7232001,0.19994943,-0.22365673,0.8292128,0.52738315,0.4015174,-0.12922451,0.9222673,0.16725647,0.473904,-0.12488784,0.307319,-0.18238989,0.34515318,-0.40879083,0.021857208,784.90845,801.02563,800.6227,784.90845,730.5128,0.01171875,-0.05816650390625,0.988037109375,2.534637451171875,-4.5758056640625,13.099365234375,1,1.0,1.0,1.0,1.0,50.00
2021-04-29 10:17:54.811,1.070056,0.5342415,0.46312588,1.273567,0.7873165,0.21848392,-0.19674727,0.89655423,0.5178673,0.426387,0.07262027,0.91283554,0.21143304,0.5317103,-0.13575724,0.36120984,-0.12767003,0.23157991,-0.41561297,0.08449271,781.685,803.0403,801.02563,771.2088,627.3626,0.087158203125,-0.03204345703125,1.0069580078125,5.061798095703125,-6.661834716796875,-0.95703125,1,1.0,1.0,1.0,1.0,50.00
2021-04-29 10:17:55.336,1.0938048,0.5204019,0.4363926,1.388106,0.9020459,0.23742619,-0.089564756,1.0632883,0.46557373,0.46756628,0.13610096,0.8716846,0.27375463,0.5393513,-0.14646749,0.46299115,-0.07144093,0.26156342,-0.47435826,0.1393288,808.68134,817.9487,806.6667,812.71063,722.4542,0.07891845703125,-0.02032470703125,0.994873046875,3.70849609375,-9.547882080078125,-1.906585693359375,1,1.0,1.0,1.0,1.0,50.00
2021-04-29 10:17:55.863,1.0938048,0.5708494,0.060264602,1.388106,0.9020459,0.05871405,0.16697834,1.0632883,0.46557373,0.35917726,0.20987858,0.8716846,0.27375463,0.5418485,-0.19431299,0.46299115,-0.07144093,0.16187854,-0.370297,0.1393288,800.6227,820.3663,799.011,793.7729,641.8681,0.01654052734375,-0.010009765625,0.99639892578125,6.631927490234375,1.435546875,-3.566436767578125,1,1.0,1.0,1.0,1.0,50.00
2021-04-29 10:17:56.376,1.6076845,0.40296677,0.20767476,1.388106,0.76679987,0.01233976,0.2580776,1.0632883,0.8996112,0.3217591,0.18918027,0.8716846,0.55971354,0.54886824,-0.19643481,0.46299115,-0.17040503,0.056650866,-0.35415378,0.1393288,877.5824,824.3956,784.90845,884.0293,775.2381,0.04437255859375,0.08233642578125,1.0108642578125,11.701202392578125,2.4224853515625,-24.95758056640625,1,1.0,1.0,1.0,1.0,50.00
2021-04-29 10:17:56.472,,,,,,,,,,,,,,,,,,,,,,,,,,,,,,,,,,,,,,/muse/elements/blink
2021-04-29 10:17:56.895,1.6076845,0.39234802,0.9396455,1.388106,0.76679987,-0.1934709,0.65069747,1.0632883,0.8996112,0.020494062,0.28689402,0.8716846,0.55971354,0.5518819,-0.10388382,0.46299115,-0.17040503,-0.046304602,-0.3932711,0.1393288,857.4359,835.2747,798.60803,844.5421,661.2088,-0.00970458984375,0.06890869140625,1.0181884765625,-2.385101318359375,1.323394775390625,9.757232666015625,1,1.0,1.0,1.0,1.0,50.00
2021-04-29 10:17:56.964,,,,,,,,,,,,,,,,,,,,,,,,,,,,,,,,,,,,,,/muse/elements/blink
2021-04-29 10:17:57.422,1.6076845,0.25524113,1.1260443,1.388106,0.76679987,-0.15712854,0.7481244,1.0632883,0.8996112,-0.008831346,0.280707,0.8716846,0.55971354,0.5914842,-0.028053753,0.46299115,-0.17040503,-0.02012501,-0.49336988,0.1393288,825.2015,789.7436,808.68134,821.5751,892.8938,0.0338134765625,0.10791015625,0.9840087890625,8.4637451171875,-11.2451171875,1.89910888671875,1,1.0,1.0,1.0,1.0,50.00
2021-04-29 10:17:57.949,1.6076845,0.25524113,1.2903827,1.388106,0.76679987,-0.15712854,0.88560885,1.0632883,0.8996112,-0.008831346,0.2128392,0.8716846,0.55971354,0.5914842,0.018393947,0.46299115,-0.17040503,-0.02012501,-0.38681042,0.1393288,807.0696,802.23444,801.8315,801.02563,901.75824,0.07232666015625,0.1134033203125,0.99481201171875,5.4132080078125,-2.99072265625,3.45428466796875,1,1.0,1.0,1.0,1.0,50.00
2021-04-29 10:17:58.380,,,,,,,,,,,,,,,,,,,,,,,,,,,,,,,,,,,,,,/muse/elements/blink
2021-04-29 10:17:58.454,1.6076845,0.086692,0.18915918,1.388106,0.76679987,-0.08281991,-0.29093838,1.0632883,0.8996112,0.27308792,-0.36023843,0.8716846,0.55971354,0.6468391,-0.16481675,0.46299115,-0.17040503,0.45203993,-0.40425855,0.1393288,833.2601,806.26373,806.26373,842.9304,718.4249,0.11651611328125,0.1104736328125,1.020751953125,4.605712890625,-17.293853759765625,10.086212158203125,1,2.0,1.0,1.0,2.0,50.00
2021-04-29 10:17:58.962,1.6076845,0.339814,0.52285546,1.388106,0.76679987,0.18361674,0.18169652,1.0632883,0.8996112,0.28023243,0.15842488,0.8716846,0.55971354,0.58122563,-0.17483367,0.46299115,-0.17040503,0.40845847,-0.502152,0.1393288,807.0696,817.1429,802.23444,797.8022,684.9817,0.038330078125,0.147216796875,0.99798583984375,5.5328369140625,2.34771728515625,2.609405517578125,1,2.0,1.0,1.0,2.0,50.00
2021-04-29 10:17:59.294,,,,,,,,,,,,,,,,,,,,,,,,,,,,,,,,,,,,,,/muse/elements/blink
2021-04-29 10:17:59.474,1.6076845,0.3880072,0.5696992,1.388106,0.76679987,0.23428716,0.22008856,1.0632883,0.8996112,0.25329143,0.1446121,0.8716846,0.55971354,0.55955946,-0.13022734,0.46299115,-0.17040503,0.39337555,-0.5956674,0.1393288,789.7436,819.15753,805.8608,772.01465,797.8022,0.12322998046875,0.1348876953125,0.9886474609375,-4.5458984375,-0.874786376953125,0.35888671875,1,2.0,1.0,1.0,2.0,50.00
2021-04-29 10:17:59.979,1.6076845,0.551712,1.0170472,1.388106,0.76679987,0.43396235,0.28183472,1.0632883,0.8996112,-0.08426201,0.15318197,0.8716846,0.55971354,0.41679916,-0.15335235,0.46299115,-0.17040503,0.3446552,-0.57501876,0.1393288,811.0989,810.696,812.3077,813.1135,721.2454,-0.01171875,0.064208984375,0.998046875,0.55328369140625,4.777679443359375,1.18133544921875,1,2.0,1.0,1.0,2.0,50.00
2021-04-29 10:18:00.492,1.6076845,0.551712,0.96924144,1.388106,0.76679987,0.43396235,0.029099043,1.0632883,0.8996112,-0.08426201,0.13318355,0.8716846,0.55971354,0.41679916,-0.049856935,0.46299115,-0.17040503,0.3446552,-0.44121784,0.1393288,814.3223,797.8022,797.3993,811.50183,888.46155,-0.047119140625,0.05291748046875,1.00469970703125,2.355194091796875,-2.699127197265625,-2.833709716796875,1,2.0,1.0,1.0,2.0,50.00
2021-04-29 10:18:00.996,0.9458308,0.20659181,0.95866233,0.8873478,0.7396942,0.35532957,-0.007534242,0.31233108,0.8396552,0.48348182,0.19736536,0.3903497,0.23075382,0.60505813,-0.041058827,0.25823855,0.1480423,0.18252453,-0.3723449,-0.15312642,756.7033,818.3516,806.6667,757.1062,704.7253,-0.11724853515625,0.0330810546875,1.0018310546875,5.749664306640625,-4.179534912109375,-1.697235107421875,1,1.0,1.0,1.0,1.0,50.00
2021-04-29 10:18:01.506,0.96161795,0.21591708,0.50414914,1.0388112,0.73419064,0.25177133,0.030014295,0.44654942,0.8443315,0.5316768,0.21438755,0.5294349,0.18693295,0.568105,-0.048364587,0.21880692,0.13038631,0.12702458,-0.43523067,-0.17034659,959.3773,830.0366,765.9707,938.022,809.89014,-0.10552978515625,-0.0205078125,0.989990234375,1.24114990234375,-10.3778076171875,-12.24700927734375,1,1.0,1.0,1.0,1.0,50.00
2021-04-29 10:18:01.669,,,,,,,,,,,,,,,,,,,,,,,,,,,,,,,,,,,,,,/muse/elements/blink
2021-04-29 10:18:02.013,0.96161795,0.2309455,0.8599127,1.0388112,0.73419064,0.28270656,0.2934558,0.44654942,0.8443315,0.52540445,0.2588094,0.5294349,0.18693295,0.54727536,-0.13427997,0.21880692,0.13038631,0.12614231,-0.4602221,-0.17034659,789.7436,794.9817,801.8315,804.65204,663.22345,-0.05535888671875,0.0423583984375,1.01177978515625,6.92352294921875,-3.910369873046875,1.07666015625,1,1.0,1.0,1.0,1.0,50.00
2021-04-29 10:18:02.523,0.9308354,0.22804724,1.1996311,1.1316081,0.7536776,0.058600113,0.46858215,0.5508546,0.80034184,0.29049382,0.14908345,0.47586176,0.10305171,0.5133683,-0.16689283,0.16369307,0.15589143,0.03990656,-0.44047976,-0.18050148,766.3736,807.0696,804.2491,755.89746,687.3993,0.0389404296875,0.06146240234375,0.9930419921875,6.9384765625,-3.0804443359375,9.368438720703125,1,1.0,1.0,1.0,1.0,50.00
2021-04-29 10:18:03.027,0.9308354,0.28632858,1.2826129,1.1316081,0.7536776,-0.13728811,0.5204446,0.5508546,0.80034184,0.14328456,0.21167968,0.47586176,0.10305171,0.49649343,-0.15008171,0.16369307,0.15589143,0.02839485,-0.41783816,-0.18050148,823.1868,803.0403,815.12823,821.978,771.6117,0.005126953125,0.02197265625,0.9986572265625,-3.461761474609375,-7.8955078125,28.8604736328125,1,1.0,1.0,1.0,1.0,50.00
2021-04-29 10:18:03.533,0.9308354,0.28632858,1.184283,1.1316081,0.7536776,-0.13728811,0.34297803,0.5508546,0.80034184,0.14328456,0.2687798,0.47586176,0.10305171,0.49649343,-0.1812903,0.16369307,0.15589143,0.02839485,-0.44456953,-0.18050148,819.9634,807.0696,791.3553,816.7399,695.8608,0.11090087890625,0.02093505859375,1.00579833984375,12.329254150390625,-9.233856201171875,-50.984344482421875,1,1.0,1.0,1.0,1.0,50.00
2021-04-29 10:18:04.051,0.9308354,0.58036584,0.7779809,1.1316081,0.7536776,0.2158088,0.031134224,0.5508546,0.80034184,0.10663228,0.08851308,0.47586176,0.10305171,0.52628034,-0.21420233,0.16369307,0.15589143,0.12901086,-0.45340833,-0.18050148,793.7729,815.9341,796.99634,790.54944,753.0769,0.11578369140625,0.0455322265625,0.99749755859375,-0.2691650390625,-1.98883056640625,41.324310302734375,1,2.0,1.0,1.0,2.0,50.00
2021-04-29 10:18:04.585,0.9308354,0.777738,0.8121095,1.1316081,0.7536776,0.06637678,0.2756398,0.5508546,0.80034184,0.14469847,0.046608828,0.47586176,0.10305171,0.5205003,-0.15804426,0.16369307,0.15589143,0.16410421,-0.48152626,-0.18050148,777.6557,774.0293,796.99634,784.5055,910.6227,0.03466796875,-0.0079345703125,0.9971923828125,19.5892333984375,-3.90289306640625,-67.01461791992188,1,2.0,1.0,1.0,2.0,50.00
2021-04-29 10:18:05.100,0.9308354,0.82108545,0.8627745,1.1316081,0.7536776,0.19400088,0.34783554,0.5508546,0.80034184,0.1273855,0.19564243,0.47586176,0.10305171,0.56187576,-0.08642386,0.16369307,0.15589143,0.24470016,-0.48896766,-0.18050148,806.26373,824.7985,788.1319,806.6667,835.2747,0.038818359375,0.040283203125,1.01776123046875,-8.605804443359375,-10.15350341796875,38.41583251953125,1,2.0,1.0,1.0,2.0,50.00
2021-04-29 10:18:05.606,0.9308354,0.8554084,0.91937417,1.1316081,0.7536776,0.46985522,0.5473338,0.5508546,0.80034184,0.056666356,0.53264594,0.47586176,0.10305171,0.5895663,0.009462162,0.16369307,0.15589143,0.18919711,-0.49661878,-0.18050148,796.99634,804.2491,802.6374,805.05493,769.19415,0.034423828125,-0.08453369140625,0.994873046875,6.960906982421875,-5.7720947265625,-23.499603271484375,1,2.0,1.0,1.0,2.0,50.00
2021-04-29 10:18:05.817,,,,,,,,,,,,,,,,,,,,,,,,,,,,,,,,,,,,,,/muse/elements/blink
2021-04-29 10:18:06.116,0.9308354,0.7849396,1.0306457,1.1316081,0.7536776,0.6149506,0.636187,0.5508546,0.80034184,0.056666356,0.5369511,0.47586176,0.10305171,0.61269987,-0.036803566,0.16369307,0.15589143,0.19623151,-0.4770799,-0.18050148,764.7619,808.68134,794.9817,762.74725,782.49084,-0.0059814453125,-0.04583740234375,1.00103759765625,5.7122802734375,2.1533203125,13.6376953125,1,2.0,1.0,1.0,2.0,50.00
2021-04-29 10:18:06.622,0.9308354,0.8321982,1.0500816,1.1316081,0.7536776,0.5260728,0.6748322,0.5508546,0.80034184,0.19622536,0.55299854,0.47586176,0.10305171,0.5611145,-0.07231903,0.16369307,0.15589143,0.19242264,-0.41230467,-0.18050148,811.0989,807.47253,798.60803,819.15753,695.4579,0.0443115234375,0.0018310546875,1.01220703125,5.03936767578125,-7.364654541015625,-0.874786376953125,1,2.0,1.0,1.0,2.0,50.00
2021-04-29 10:18:07.143,0.9308354,0.8896127,1.0132582,1.1316081,0.7536776,0.055716157,0.5569604,0.5508546,0.80034184,0.11375425,0.4410635,0.47586176,0.10305171,0.5540861,-0.113145776,0.16369307,0.15589143,0.22708817,-0.40090376,-0.18050148,854.21246,811.9048,797.3993,856.63007,801.8315,0.0081787109375,0.0172119140625,0.998046875,10.0189208984375,-4.508514404296875,-13.211517333984375,1,2.0,1.0,1.0,2.0,50.00
2021-04-29 10:18:07.670,0.9308354,0.8896127,0.90491414,1.1316081,0.7536776,0.055716157,0.5897183,0.5508546,0.80034184,0.11375425,0.4787788,0.47586176,0.10305171,0.5540861,-0.09820734,0.16369307,0.15589143,0.22708817,-0.30293444,-0.18050148,814.3223,806.26373,797.3993,823.9927,764.35895,0.0518798828125,0.03594970703125,0.99853515625,7.484283447265625,-13.465728759765625,-3.51409912109375,1,2.0,1.0,1.0,2.0,50.00
2021-04-29 10:18:08.192,1.8245702,0.90955955,0.9814317,1.6990968,1.2657984,-0.018585203,0.67026746,1.0011058,1.1921532,0.08763373,0.4531439,1.0746642,0.39456582,0.5845481,-0.049894292,0.28591752,-0.19806589,0.23118597,-0.30034176,-0.18272921,840.10986,812.3077,801.4286,843.73627,643.47986,-0.006103515625,0.0030517578125,0.98809814453125,-1.65985107421875,-5.75714111328125,12.344207763671875,1,1.0,1.0,1.0,1.0,50.00
2021-04-29 10:18:08.233,,,,,,,,,,,,,,,,,,,,,,,,,,,,,,,,,,,,,,/muse/elements/blink
2021-04-29 10:18:08.706,1.8245702,0.90955955,0.9379459,1.6990968,1.2657984,-0.018585203,0.6869472,1.0011058,1.1921532,0.08763373,0.44277972,1.0746642,0.39456582,0.5845481,-0.04159437,0.28591752,-0.19806589,0.23118597,-0.24275438,-0.18272921,791.75824,791.75824,797.3993,797.3993,723.663,0.027099609375,0.03387451171875,0.986328125,2.594451904296875,-4.2767333984375,-6.392669677734375,1,1.0,1.0,1.0,1.0,50.00
2021-04-29 10:18:09.218,1.8146747,0.4854441,0.6993028,1.7024575,1.2815272,-0.44220796,0.40644282,1.069148,1.1797144,-0.009194048,0.3482182,1.0234203,0.42041746,0.4810683,-0.05421707,0.25622743,-0.18365459,0.3060048,-0.3404928,-0.17433497,641.4652,811.0989,808.68134,634.21246,713.5897,0.04449462890625,0.09442138671875,1.00299072265625,6.05621337890625,-3.072967529296875,5.241241455078125,1,1.0,1.0,1.0,1.0,50.00
2021-04-29 10:18:09.446,,,,,,,,,,,,,,,,,,,,,,,,,,,,,,,,,,,,,,/muse/elements/blink
2021-04-29 10:18:09.740,1.8146747,0.53914744,0.55773336,1.7024575,1.2815272,-0.03942992,0.092038445,1.069148,1.1797144,0.3294064,0.3271838,1.0234203,0.42041746,0.4828459,-0.092207894,0.25622743,-0.18365459,0.28449357,-0.3999823,-0.17433497,867.9121,823.5897,801.02563,853.00366,657.1795,0.02911376953125,0.07000732421875,0.99609375,6.57958984375,-9.76470947265625,0.740203857421875,1,1.0,1.0,1.0,1.0,50.00
2021-04-29 10:18:10.267,1.8146747,0.5699737,0.64354,1.7024575,1.2815272,0.035591614,0.0033974508,1.069148,1.1797144,0.32093874,0.1523013,1.0234203,0.42041746,0.47394094,-0.1438404,0.25622743,-0.18365459,0.31017736,-0.54621744,-0.17433497,788.5348,782.49084,803.44324,797.8022,887.25275,0.0623779296875,0.10723876953125,0.99591064453125,5.0244140625,1.233673095703125,10.33294677734375,1,1.0,1.0,1.0,1.0,50.00
2021-04-29 10:18:10.681,,,,,,,,,,,,,,,,,,,,,,,,,,,,,,,,,,,,,,/muse/elements/blink
2021-04-29 10:18:10.779,1.8146747,0.62969166,0.83751744,1.7024575,1.2815272,0.2696339,0.16790634,1.069148,1.1797144,0.31522265,0.21417199,1.0234203,0.42041746,0.467425,-0.1007997,0.25622743,-0.18365459,0.24818094,-0.46093953,-0.17433497,770.0,809.4872,800.6227,780.07324,736.55676,0.06878662109375,0.10711669921875,1.00634765625,3.805694580078125,-1.51031494140625,8.5833740234375,1,2.0,1.0,1.0,2.0,50.00
2021-04-29 10:18:11.303,1.8146747,0.62969166,1.0839387,1.7024575,1.2815272,0.2696339,0.59480625,1.069148,1.1797144,0.31522265,0.42549327,1.0234203,0.42041746,0.467425,-0.040053263,0.25622743,-0.18365459,0.24818094,-0.27280664,-0.17433497,843.73627,820.7692,787.72894,833.663,767.1795,0.003173828125,-0.04290771484375,0.992431640625,5.90667724609375,-9.547882080078125,-13.7872314453125,1,2.0,1.0,1.0,2.0,50.00
2021-04-29 10:18:11.603,,,,,,,,,,,,,,,,,,,,,,,,,,,,,,,,,,,,,,/muse/elements/blink
2021-04-29 10:18:11.805,1.8146747,0.62969166,0.9239264,1.7024575,1.2815272,0.2696339,0.4635006,1.069148,1.1797144,0.31522265,0.4972314,1.0234203,0.42041746,0.467425,0.056174375,0.25622743,-0.18365459,0.24818094,-0.37594855,-0.17433497,825.2015,840.10986,792.5641,813.1135,748.6447,0.01220703125,0.056396484375,1.0054931640625,7.304840087890625,1.816864013671875,-11.6339111328125,1,2.0,1.0,1.0,2.0,50.00
2021-04-29 10:18:12.324,1.8146747,0.81165,0.8884688,1.7024575,1.2815272,0.091755494,0.45480222,1.069148,1.1797144,0.29892588,0.49966815,1.0234203,0.42041746,0.6004409,0.05051817,0.25622743,-0.18365459,0.2469416,-0.36760932,-0.17433497,791.75824,811.0989,816.337,797.8022,800.2198,-0.00860595703125,-0.0062255859375,0.99822998046875,-4.5159912109375,-10.00396728515625,28.24737548828125,1,2.0,1.0,1.0,2.0,50.00
2021-04-29 10:18:12.847,1.8146747,0.8693235,0.6963153,1.7024575,1.2815272,0.17445561,0.24838433,1.069148,1.1797144,0.38192376,0.40599668,1.0234203,0.42041746,0.53203994,0.0030867807,0.25622743,-0.18365459,0.2007732,-0.3694476,-0.17433497,813.1135,786.9231,799.81683,817.1429,796.99634,0.093505859375,-0.0889892578125,0.9945068359375,0.8673095703125,-9.458160400390625,8.545989990234375,1,2.0,1.0,1.0,2.0,50.00
2021-04-29 10:18:13.371,1.8146747,0.771101,0.6988842,1.7024575,1.2815272,0.2743168,0.12529291,1.069148,1.1797144,0.42603254,0.23009665,1.0234203,0.42041746,0.5055427,-0.031454876,0.25622743,-0.18365459,0.07427054,-0.28168046,-0.17433497,759.5238,825.6044,811.9048,750.2564,996.8498,0.175537109375,-0.146728515625,0.97784423828125,0.6878662109375,-5.38330078125,13.17413330078125,1,2.0,1.0,1.0,2.0,50.00
2021-04-29 10:18:13.880,1.8146747,0.7994451,0.62122774,1.4145128,1.2815272,0.34112602,-0.07695266,1.1043196,1.1797144,0.48288026,0.10359418,0.6054557,0.42041746,0.5047312,-0.034394477,0.36535367,-0.18365459,0.016809518,-0.26592207,-0.044038292,762.74725,826.8132,806.26373,784.5055,713.5897,0.1641845703125,-0.1656494140625,0.9730224609375,6.7291259765625,-3.15521240234375,-8.2244873046875,1,1.0,1.0,1.0,1.0,50.00
2021-04-29 10:18:14.398,1.8146747,0.69695854,0.48456478,1.4145128,1.2815272,0.43622252,-0.10328318,1.1043196,1.1797144,0.44505292,0.0016635618,0.6054557,0.42041746,0.5405204,-0.028213466,0.36535367,-0.18365459,-0.058313094,-0.2649292,-0.044038292,834.0659,808.2784,791.3553,835.6777,858.6447,0.10760498046875,-0.03131103515625,0.99517822265625,15.439605712890625,3.57391357421875,-39.61212158203125,1,1.0,1.0,1.0,1.0,50.00
2021-04-29 10:18:14.908,1.8146747,0.82840204,0.42073905,1.4145128,1.2815272,0.6077341,-0.008525802,1.1043196,1.1797144,0.44505292,0.34685633,0.6054557,0.42041746,0.6085519,-0.040603094,0.36535367,-0.18365459,0.078953825,-0.32853884,-0.044038292,811.9048,792.5641,795.78754,815.12823,738.1685,0.05291748046875,-0.01763916015625,1.00274658203125,-0.186920166015625,0.28411865234375,-5.360870361328125,1,1.0,1.0,1.0,1.0,50.00
2021-04-29 10:18:15.419,1.8146747,0.82840204,0.36844778,1.4145128,1.2815272,0.6077341,0.024752548,1.1043196,1.1797144,0.44505292,0.41621155,0.6054557,0.42041746,0.6085519,-0.09081974,0.36535367,-0.18365459,0.078953825,-0.3875602,-0.044038292,817.1429,794.9817,809.4872,826.0073,846.9597,-0.02508544921875,-0.06585693359375,1.0003662109375,9.25628662109375,-4.957122802734375,-4.725341796875,1,1.0,1.0,1.0,1.0,50.00
2021-04-29 10:18:15.715,,,,,,,,,,,,,,,,,,,,,,,,,,,,,,,,,,,,,,/muse/elements/blink
2021-04-29 10:18:15.942,1.8146747,0.82840204,0.52766794,1.4145128,1.2815272,0.6077341,0.33816075,1.1043196,1.1797144,0.44505292,0.4557629,0.6054557,0.42041746,0.6085519,-0.114153706,0.36535367,-0.18365459,0.078953825,-0.46480933,-0.044038292,799.41394,806.6667,805.8608,782.0879,768.3883,0.03472900390625,0.091064453125,1.03076171875,3.050537109375,0.246734619140625,8.5235595703125,1,2.0,1.0,1.0,2.0,50.00
2021-04-29 10:18:16.324,,,,,,,,,,,,,,,,,,,,,,,,,,,,,,,,,,,,,,/muse/elements/blink
2021-04-29 10:18:16.468,1.8146747,0.82840204,0.9803266,1.4145128,1.2815272,0.6077341,0.7259405,1.1043196,1.1797144,0.44505292,0.46737233,0.6054557,0.42041746,0.6085519,-0.22035156,0.36535367,-0.18365459,0.078953825,-0.46617168,-0.044038292,799.81683,823.1868,799.41394,803.8461,686.1905,-0.01788330078125,0.05419921875,1.00323486328125,6.003875732421875,-2.340240478515625,1.368255615234375,1,2.0,1.0,1.0,2.0,50.00
2021-04-29 10:18:16.991,1.8146747,0.26036015,1.1194235,1.4145128,1.2815272,-0.0849421,0.7314567,1.1043196,1.1797144,0.0029131796,0.35070312,0.6054557,0.42041746,0.5770492,-0.07631314,0.36535367,-0.18365459,0.16765925,-0.53633106,-0.044038292,813.1135,807.8755,795.38464,818.3516,835.2747,-0.04156494140625,0.05517578125,0.9962158203125,0.22430419921875,-9.308624267578125,24.03045654296875,1,2.0,1.0,1.0,2.0,50.00
2021-04-29 10:18:17.518,1.8146747,0.0771837,0.9525922,1.4145128,1.2815272,-0.1623796,0.4124612,1.1043196,1.1797144,0.12207417,0.35328087,0.6054557,0.42041746,0.58428806,-0.03472146,0.36535367,-0.18365459,0.26017192,-0.553083,-0.044038292,848.5714,827.2161,788.5348,845.7509,760.7326,-0.0179443359375,0.04144287109375,0.99285888671875,3.925323486328125,-0.37384033203125,-8.14971923828125,1,2.0,1.0,1.0,2.0,50.00
2021-04-29 10:18:17.591,,,,,,,,,,,,,,,,,,,,,,,,,,,,,,,,,,,,,,/muse/elements/blink
2021-04-29 10:18:17.974,,,,,,,,,,,,,,,,,,,,,,,,,,,,,,,,,,,,,,/muse/elements/blink
2021-04-29 10:18:18.022,1.8146747,0.27507445,0.7746694,1.4145128,1.2815272,-0.14920086,0.19207282,1.1043196,1.1797144,0.12207417,0.20227921,0.6054557,0.42041746,0.57272696,-0.08060149,0.36535367,-0.18365459,0.27734855,-0.4448743,-0.044038292,832.0513,807.8755,810.293,840.10986,734.1392,-0.03302001953125,0.0567626953125,0.993896484375,7.170257568359375,-7.955322265625,-8.545989990234375,1,2.0,1.0,1.0,2.0,50.00
2021-04-29 10:18:18.542,1.8146747,0.5648201,0.93991405,1.4145128,1.2815272,0.5302654,0.35282633,1.1043196,1.1797144,0.435648,0.19747034,0.6054557,0.42041746,0.5364762,-0.14722052,0.36535367,-0.18365459,0.31667978,-0.389861,-0.044038292,799.41394,790.54944,807.47253,801.02563,1080.6593,0.04058837890625,0.09649658203125,1.00811767578125,4.35150146484375,-10.101165771484375,5.9814453125,1,2.0,1.0,1.0,2.0,50.00
2021-04-29 10:18:18.904,,,,,,,,,,,,,,,,,,,,,,,,,,,,,,,,,,,,,,/muse/elements/blink
2021-04-29 10:18:19.050,1.8146747,0.82278794,1.022687,1.4145128,1.2815272,0.79242086,0.36538562,1.1043196,1.1797144,0.42873967,0.1775418,0.6054557,0.42041746,0.47542483,-0.16239251,0.36535367,-0.18365459,0.3111043,-0.37869716,-0.044038292,842.52747,827.619,802.23444,838.49817,766.77655,0.04522705078125,0.02099609375,1.00299072265625,2.332763671875,-0.13458251953125,-0.83740234375,1,2.0,1.0,1.0,2.0,50.00
2021-04-29 10:18:19.561,1.8146747,0.896493,1.067144,1.4145128,1.2815272,0.87911683,0.32789803,1.1043196,1.1797144,0.42873967,0.032911617,0.6054557,0.42041746,0.4656762,-0.14140686,0.36535367,-0.18365459,0.29764113,-0.43675682,-0.044038292,815.12823,807.8755,800.6227,815.9341,683.36993,0.07415771484375,0.0401611328125,0.9964599609375,5.256195068359375,-12.7703857421875,-0.7177734375,1,2.0,1.0,1.0,2.0,50.00
2021-04-29 10:18:20.072,1.8146747,0.896493,0.7010666,1.4145128,1.2815272,0.87911683,-0.06719116,1.1043196,1.1797144,0.42873967,-0.0127796205,0.6054557,0.42041746,0.4656762,-0.039437227,0.36535367,-0.18365459,0.29764113,-0.53651243,-0.044038292,821.978,825.2015,801.02563,811.0989,676.1172,0.061279296875,0.04913330078125,0.99853515625,2.803802490234375,-3.342132568359375,4.448699951171875,1,2.0,1.0,1.0,2.0,50.00
2021-04-29 10:18:20.596,1.8146747,0.34658977,0.18323497,1.4145128,1.2815272,0.31371486,-0.103837244,1.1043196,1.1797144,0.45049793,0.09515694,0.6054557,0.42041746,0.44185096,0.09760675,0.36535367,-0.18365459,0.28722197,-0.55717665,-0.044038292,827.619,815.9341,801.02563,819.15753,724.0659,0.0390625,0.04736328125,0.99237060546875,8.635711669921875,-5.99639892578125,3.431854248046875,1,2.0,1.0,1.0,2.0,50.00
2021-04-29 10:18:21.099,1.8146747,0.6820369,0.4860507,1.4145128,1.2815272,0.4689126,0.42737976,1.1043196,1.1797144,0.5942345,0.40330863,0.6054557,0.42041746,0.50736165,0.10595156,0.36535367,-0.18365459,0.28310376,-0.60148925,-0.044038292,813.91943,792.5641,800.2198,809.89014,845.7509,0.1182861328125,0.1214599609375,1.0010986328125,8.830108642578125,-13.600311279296875,2.03369140625,1,2.0,1.0,1.0,2.0,50.00
2021-04-29 10:18:21.536,,,,,,,,,,,,,,,,,,,,,,,,,,,,,,,,,,,,,,/muse/elements/blink
2021-04-29 10:18:21.614,1.8146747,0.78662026,0.5618323,1.4145128,1.2815272,0.545351,0.46804786,1.1043196,1.1797144,0.59235793,0.40659133,0.6054557,0.42041746,0.52637935,0.07183261,0.36535367,-0.18365459,0.29653335,-0.5461192,-0.044038292,794.9817,823.9927,793.7729,793.7729,747.4359,0.10089111328125,0.1072998046875,0.986083984375,2.10845947265625,3.9178466796875,1.831817626953125,1,2.0,1.0,1.0,2.0,50.00
2021-04-29 10:18:22.142,1.8146747,0.98745996,0.924647,1.4145128,1.2815272,0.6780768,0.60582036,1.1043196,1.1797144,0.5803736,0.3997098,0.6054557,0.42041746,0.6252565,0.056654833,0.36535367,-0.18365459,0.32599086,-0.54879135,-0.044038292,788.93774,826.8132,806.6667,784.5055,631.39197,0.0146484375,0.0904541015625,0.9974365234375,2.8411865234375,-1.136474609375,5.39825439453125,1,2.0,1.0,1.0,2.0,50.00
2021-04-29 10:18:22.573,,,,,,,,,,,,,,,,,,,,,,,,,,,,,,,,,,,,,,/muse/elements/blink
2021-04-29 10:18:22.666,1.8146747,0.98745996,0.9364345,1.4145128,1.2815272,0.6780768,0.20490685,1.1043196,1.1797144,0.5803736,0.19384561,0.6054557,0.42041746,0.6252565,0.06087453,0.36535367,-0.18365459,0.32599086,-0.23506138,-0.044038292,818.7546,803.0403,809.0842,821.978,803.0403,0.05621337890625,0.09027099609375,0.98828125,8.62823486328125,-7.140350341796875,-1.375732421875,1,2.0,1.0,1.0,2.0,50.00
2021-04-29 10:18:23.170,1.8146747,0.73197466,0.9765396,1.4145128,1.2815272,0.5012907,0.288998,1.1043196,1.1797144,0.28063253,0.2575451,0.6054557,0.42041746,0.4898296,0.07047131,0.36535367,-0.18365459,0.35452482,-0.20652662,-0.044038292,788.5348,830.0366,808.68134,777.25275,679.34064,0.0537109375,0.13677978515625,0.9891357421875,4.792633056640625,-9.76470947265625,-0.64300537109375,1,2.0,1.0,1.0,2.0,50.00
2021-04-29 10:18:23.688,1.8146747,0.6595135,0.7350849,1.4145128,1.2815272,0.35696813,0.1512735,1.1043196,1.1797144,0.41228014,0.25101456,0.6054557,0.42041746,0.47984815,0.042759027,0.36535367,-0.18365459,0.3677619,-0.26101124,-0.044038292,809.0842,811.50183,803.44324,814.3223,698.68134,0.10186767578125,0.15289306640625,0.99713134765625,7.813262939453125,-2.115936279296875,4.6954345703125,1,2.0,1.0,1.0,2.0,50.00
2021-04-29 10:18:24.206,0.37627155,0.5546507,0.5379075,0.4832906,0.269469,0.21161704,0.18224096,0.31161508,0.5552474,0.41228014,0.29691717,0.41843894,0.465411,0.5169165,-0.045703307,0.2170218,0.19355367,0.26972747,-0.49639255,-0.28133887,816.7399,807.8755,801.02563,817.1429,789.34064,0.07513427734375,0.14459228515625,0.97900390625,5.24871826171875,-3.028106689453125,-1.876678466796875,1,1.0,1.0,1.0,1.0,50.00
2021-04-29 10:18:24.725,0.408929,0.36113712,-0.045042228,0.3163407,0.26142335,-0.16750225,-0.016620059,0.25879267,0.6352522,0.41848305,0.2605136,0.46324372,0.39344463,0.5812497,-0.07366829,0.19012383,0.18586804,0.25119677,-0.5542045,-0.16204052,782.0879,812.71063,799.41394,774.83514,694.2491,0.09674072265625,0.156982421875,0.98004150390625,4.964599609375,-5.90667724609375,0.13458251953125,1,1.0,1.0,1.0,1.0,50.00
2021-04-29 10:18:25.239,0.30167943,0.18936862,-0.12782638,0.25414282,0.19743752,-0.20687795,-0.17670985,0.16543566,0.69402194,0.06207581,0.18104498,0.48027188,0.3331697,0.5997056,-0.1546629,0.22634313,0.14006291,0.23248959,-0.5258463,-0.12154243,813.1135,819.5604,801.4286,807.8755,693.8461,0.0986328125,0.1573486328125,0.9791259765625,4.605712890625,-2.87109375,4.643096923828125,1,1.0,1.0,1.0,1.0,50.00
2021-04-29 10:18:25.742,0.15036094,0.15497082,-0.14686231,0.026459737,0.08991968,-0.044555638,-0.3854536,0.033474274,0.6745945,0.17887792,-0.061610952,0.5034706,0.22569007,0.6035629,-0.120167784,0.26738948,0.16578235,0.36900225,-0.4762215,-0.084834605,801.4286,795.78754,805.4579,801.02563,739.7802,0.10321044921875,0.15240478515625,0.98699951171875,5.06927490234375,-5.45806884765625,1.158905029296875,1,1.0,1.0,1.0,1.0,50.00
2021-04-29 10:18:26.249,-9.6201006E-4,0.2152322,-0.11067027,0.23877674,-0.043050226,-0.021153867,-0.47565714,-0.13173965,0.49609488,0.20309381,0.105918534,0.41987383,0.16661994,0.61704785,-0.14887936,0.21757826,0.08169082,0.34336138,-0.5111536,-0.17371453,811.9048,807.47253,800.6227,816.337,864.2857,0.08819580078125,0.1383056640625,0.96990966796875,9.4207763671875,-3.715972900390625,1.9140625,1,1.0,1.0,1.0,1.0,50.00
2021-04-29 10:18:26.776,0.26845953,0.19572462,0.03325989,0.25310388,-0.039799206,0.013482526,-0.3627819,-0.23147984,0.40824577,0.3944105,0.107118994,0.40375417,0.16221817,0.6155321,-0.15229034,0.13574457,0.068139434,0.28923753,-0.55895144,-0.17454037,819.15753,833.2601,810.293,817.1429,740.58606,0.13226318359375,0.1346435546875,0.979248046875,4.673004150390625,-2.46734619140625,0.64300537109375,1,1.0,1.0,1.0,1.0,50.00
2021-04-29 10:18:27.283,0.59067875,0.17712419,0.22617336,0.42424783,0.09860669,-0.058214754,-0.17122255,-0.23381855,0.27527148,0.41509795,0.106609635,0.2599502,0.21839814,0.64216936,-0.20478731,0.017343977,-0.0037291863,0.14802401,-0.58248895,-0.21546516,795.38464,805.4579,796.99634,780.87915,770.80585,0.12396240234375,0.18896484375,0.99188232421875,2.3028564453125,-4.2169189453125,-1.682281494140625,1,1.0,1.0,1.0,1.0,50.00
2021-04-29 10:18:27.566,,,,,,,,,,,,,,,,,,,,,,,,,,,,,,,,,,,,,,/muse/elements/blink
2021-04-29 10:18:27.791,0.707041,0.23142734,0.4526513,0.36765787,0.16825905,0.01207573,-0.03966682,-0.24051681,0.27058303,0.44280806,0.005874136,0.2503831,0.25207657,0.63212883,-0.23287413,0.05189923,0.049444485,0.15243869,-0.55547154,-0.13595176,795.78754,806.6667,808.2784,793.7729,719.2308,0.06976318359375,0.14801025390625,0.97723388671875,2.811279296875,-2.848663330078125,4.6954345703125,1,1.0,1.0,1.0,1.0,50.00
2021-04-29 10:18:28.299,0.828248,0.35141915,0.74224037,0.50394714,0.26731458,0.03228523,0.10195963,-0.112274244,0.2565541,0.3211506,0.042219054,0.1359281,0.32338575,0.6675293,-0.17072004,0.07100766,0.10685532,0.17610647,-0.4437289,-0.22971329,812.3077,822.381,796.99634,807.8755,700.293,0.045654296875,0.089599609375,0.99273681640625,0.538330078125,0.0897216796875,-4.1571044921875,1,1.0,1.0,1.0,1.0,45.00
2021-04-29 10:18:28.493,,,,,,,,,,,,,,,,,,,,,,,,,,,,,,,,,,,,,,/muse/elements/blink
2021-04-29 10:18:28.819,0.7758396,0.5689048,0.95939076,0.50209814,0.2668542,0.11090803,0.24232616,-0.09474451,0.24633728,0.10060588,0.123159,0.039343376,0.31788874,0.6839024,-0.09336962,0.06450707,0.12416342,0.24399292,-0.37227446,-0.27307814,826.0073,817.1429,809.4872,823.9927,778.46155,0.0540771484375,0.0916748046875,0.9951171875,6.95343017578125,-6.691741943359375,0.55328369140625,1,1.0,1.0,1.0,1.0,45.00
2021-04-29 10:18:29.320,0.7758396,0.5689048,1.1925691,0.50209814,0.2668542,0.11090803,0.4074022,-0.09474451,0.24633728,0.10060588,0.14647087,0.039343376,0.31788874,0.6839024,-0.06744659,0.06450707,0.12416342,0.24399292,-0.38912156,-0.27307814,792.1612,817.5458,794.57874,796.5934,735.7509,0.0777587890625,0.1444091796875,1.002197265625,5.7421875,-4.104766845703125,4.53094482421875,1,1.0,1.0,1.0,1.0,45.00
2021-04-29 10:18:29.839,0.7758396,0.5689048,1.111011,0.50209814,0.2668542,0.11090803,0.38047576,-0.09474451,0.24633728,0.10060588,0.1211411,0.039343376,0.31788874,0.6839024,-0.11300853,0.06450707,0.12416342,0.24399292,-0.49937272,-0.27307814,811.0989,820.3663,805.05493,800.2198,661.2088,0.09991455078125,0.1634521484375,0.9886474609375,4.044952392578125,-0.441131591796875,2.51220703125,1,1.0,1.0,1.0,1.0,45.00
2021-04-29 10:18:30.344,0.7758396,0.25759313,0.9571801,0.50209814,0.2668542,0.0072039333,0.31332815,-0.09474451,0.24633728,0.08479787,0.1719811,0.039343376,0.31788874,0.57096857,-0.119000584,0.06450707,0.12416342,0.31934845,-0.6014564,-0.27307814,800.6227,805.8608,806.26373,799.81683,755.09155,0.05633544921875,0.150634765625,0.99835205078125,5.570220947265625,-2.10845947265625,3.12530517578125,1,2.0,1.0,1.0,2.0,45.00
2021-04-29 10:18:30.850,0.7758396,0.26716277,0.1994569,0.50209814,0.2668542,0.16660516,0.121630654,-0.09474451,0.24633728,0.19459416,0.12921576,0.039343376,0.31788874,0.57151335,-0.12172469,0.06450707,0.12416342,0.3835344,-0.5844021,-0.27307814,815.12823,826.0073,804.2491,803.8461,757.1062,0.049072265625,0.0966796875,1.0023193359375,-1.831817626953125,-10.40771484375,0.545806884765625,1,2.0,1.0,1.0,2.0,45.00
2021-04-29 10:18:31.362,0.7758396,0.42451122,0.34917286,0.50209814,0.2668542,0.26963225,0.33940536,-0.09474451,0.24633728,0.22687417,0.2865137,0.039343376,0.31788874,0.56227905,-0.037717503,0.06450707,0.12416342,0.3080676,-0.47435385,-0.27307814,799.81683,807.47253,804.65204,796.99634,666.04395,0.04998779296875,0.08941650390625,0.9930419921875,6.34033203125,-5.42816162109375,1.697235107421875,1,2.0,1.0,1.0,2.0,45.00
2021-04-29 10:18:31.870,0.7758396,0.34268984,0.27252957,0.50209814,0.2668542,0.25624987,0.2684645,-0.09474451,0.24633728,0.21351601,0.2639112,0.039343376,0.31788874,0.579182,-0.08770399,0.06450707,0.12416342,0.26294985,-0.54040825,-0.27307814,798.60803,802.23444,803.8461,804.65204,869.5238,0.052734375,0.1280517578125,0.98004150390625,17.4359130859375,-7.499237060546875,15.185394287109375,1,2.0,1.0,1.0,2.0,45.00
2021-04-29 10:18:32.377,0.71204233,0.27903828,0.2206573,0.73916966,0.11407325,0.10532568,0.18202998,0.31866673,0.6416805,0.12970954,0.29194352,0.6752305,0.203408,0.5722895,-0.07302127,0.34557694,0.19198506,0.1714405,-0.5575101,-0.17032276,796.99634,806.6667,793.7729,794.9817,917.8755,0.13812255859375,0.1585693359375,0.9832763671875,-0.844879150390625,-3.81317138671875,1.51031494140625,1,1.0,1.0,1.0,1.0,45.00
2021-04-29 10:18:32.898,0.71204233,0.28734857,0.6491953,0.73916966,0.11407325,-0.088171594,-0.25502256,0.31866673,0.6416805,0.27598125,0.03712391,0.6752305,0.203408,0.6222315,-0.103131585,0.34557694,0.19198506,0.24876967,-0.7189739,-0.17032276,766.3736,807.8755,807.47253,774.0293,547.1795,0.09576416015625,0.08599853515625,0.97998046875,6.2506103515625,-1.51031494140625,-0.67291259765625,1,1.0,1.0,1.0,1.0,45.00
2021-04-29 10:18:33.424,0.7545994,0.3922119,0.8064048,0.7833614,0.14477913,-0.11592244,-0.2341652,0.3414631,0.61354905,0.23195915,-0.059785463,0.6752305,0.2176576,0.6260329,-0.08337344,0.2989761,0.20411043,0.29382366,-0.617444,-0.20754409,797.8022,809.89014,803.44324,792.96704,724.87177,0.05352783203125,0.08441162109375,0.995849609375,2.10845947265625,-6.302947998046875,1.854248046875,1,1.0,1.0,1.0,1.0,45.00
2021-04-29 10:18:33.927,0.79716253,0.57643133,0.84102,0.8314556,0.17794871,0.053087242,-0.18131848,0.363448,0.5978839,0.5190496,-0.10652234,0.6686889,0.23234771,0.72052425,-0.14474867,0.25151253,0.20234235,0.28912526,-0.50218666,-0.23729794,902.96704,813.91943,798.20514,895.7143,770.0,0.13397216796875,0.0947265625,0.98870849609375,3.72344970703125,-9.517974853515625,8.074951171875,1,1.0,1.0,1.0,1.0,45.00
2021-04-29 10:18:33.963,,,,,,,,,,,,,,,,,,,,,,,,,,,,,,,,,,,,,,/muse/elements/blink
