TimeStamp,Delta_TP9,Delta_AF7,Delta_AF8,Delta_TP10,Theta_TP9,Theta_AF7,Theta_AF8,Theta_TP10,Alpha_TP9,Alpha_AF7,Alpha_AF8,Alpha_TP10,Beta_TP9,Beta_AF7,Beta_AF8,Beta_TP10,Gamma_TP9,Gamma_AF7,Gamma_AF8,Gamma_TP10,RAW_TP9,RAW_AF7,RAW_AF8,RAW_TP10,AUX_RIGHT,Accelerometer_X,Accelerometer_Y,Accelerometer_Z,Gyro_X,Gyro_Y,Gyro_Z,HeadBandOn,HSI_TP9,HSI_AF7,HSI_AF8,HSI_TP10,Battery,Elements
2021-04-14 09:37:01.622,1.8014482,0.10458304,-0.027950708,0.9729744,1.4322451,0.009435897,-0.20592593,0.52927375,1.0405626,-0.1479762,0.008201972,0.38742092,0.53366256,-0.09090346,-0.2743827,0.20398201,-0.24957238,-0.46401477,-0.5328794,-0.2606918,807.47253,801.4286,798.60803,792.96704,813.5165,-0.15081787109375,-0.00506591796875,0.9920654296875,5.12908935546875,-4.269256591796875,1.338348388671875,1,1.0,1.0,1.0,1.0,90.00
2021-04-14 09:37:01.736,,,,,,,,,,,,,,,,,,,,,,,,,,,,,,,,,,,,,,/muse/elements/blink
2021-04-14 09:37:02.130,1.8014482,-0.0892835,-0.046494886,0.9729744,1.4322451,-0.011315106,-0.13696136,0.52927375,1.0405626,0.156186,0.12774621,0.38742092,0.53366256,-0.10284952,-0.29672715,0.20398201,-0.24957238,-0.47628647,-0.6411994,-0.2606918,840.5128,800.2198,795.78754,818.7546,772.8205,-0.1519775390625,-0.00640869140625,0.99212646484375,5.091705322265625,-5.27862548828125,2.61688232421875,1,1.0,1.0,1.0,1.0,90.00
2021-04-14 09:37:02.639,1.8014482,0.0623259,0.020594563,0.9729744,1.4322451,0.2776487,0.15489353,0.52927375,1.0405626,0.42940557,0.18688394,0.38742092,0.53366256,-0.023429476,-0.24410883,0.20398201,-0.24957238,-0.50715286,-0.66824114,-0.2606918,804.65204,801.02563,807.0696,813.5165,734.94507,-0.148193359375,0.01556396484375,0.98876953125,5.8319091796875,-6.093597412109375,4.837493896484375,1,1.0,1.0,1.0,1.0,90.00
2021-04-14 09:37:02.920,,,,,,,,,,,,,,,,,,,,,,,,,,,,,,,,,,,,,,/muse/elements/blink
2021-04-14 09:37:03.148,1.8014482,0.19592771,0.05347997,0.9729744,1.4322451,0.22968087,0.18610618,0.52927375,1.0405626,0.42940557,0.20904107,0.38742092,0.53366256,-0.014415557,-0.20365527,0.20398201,-0.24957238,-0.5521922,-0.66305393,-0.2606918,778.46155,793.7729,817.5458,805.05493,589.4872,-0.13616943359375,0.03033447265625,0.99530029296875,1.786956787109375,-5.330963134765625,14.23583984375,1,1.0,1.0,1.0,1.0,90.00
2021-04-14 09:37:03.650,1.8014482,0.48769552,0.6920049,0.9729744,1.4322451,0.33526883,0.4527299,0.52927375,1.0405626,0.68525827,0.55845267,0.38742092,0.53366256,-0.0036794816,-0.10208446,0.20398201,-0.24957238,-0.5275973,-0.62883496,-0.2606918,760.7326,799.81683,798.60803,794.9817,738.5714,-0.16082763671875,0.01531982421875,0.98187255859375,-1.308441162109375,-2.848663330078125,8.32916259765625,1,1.0,1.0,1.0,1.0,90.00
2021-04-14 09:37:04.162,1.8014482,0.53930897,0.81006956,0.9729744,1.4322451,0.12945928,0.37172377,0.52927375,1.0405626,0.62017703,0.53882337,0.38742092,0.53366256,-0.11178335,-0.107318215,0.20398201,-0.24957238,-0.4846317,-0.6404469,-0.2606918,853.00366,800.6227,801.4286,822.381,859.0476,-0.11468505859375,-0.00634765625,1.004638671875,5.136566162109375,-8.321685791015625,-0.897216796875,1,2.0,1.0,1.0,2.0,90.00
2021-04-14 09:37:04.663,-0.4541752,0.4850176,0.8006731,0.3766623,-0.06042537,0.11842436,0.33151898,0.4273174,0.27202895,0.6197603,0.53882337,0.14174761,0.19209084,-0.16050336,-0.09446338,0.16267842,-0.16163932,-0.48235378,-0.64544636,0.23378417,740.58606,796.99634,790.9524,771.2088,653.1502,-0.07305908203125,-0.00323486328125,1.00201416015625,2.983245849609375,-8.3740234375,2.97576904296875,1,1.0,1.0,1.0,1.0,90.00
2021-04-14 09:37:05.170,-0.25910506,0.29268,0.56764114,0.23418066,-0.038246036,-0.083503105,0.08606726,0.31196427,0.27202895,0.58287024,0.4867862,0.2232012,0.2105429,-0.1437907,-0.11145109,0.20154575,-0.14540142,-0.5372576,-0.69568264,0.1631128,737.76556,796.1905,801.4286,779.67035,736.55676,-0.0738525390625,-0.01409912109375,1.000732421875,4.5159912109375,-4.3365478515625,2.130889892578125,1,1.0,1.0,1.0,1.0,90.00
2021-04-14 09:37:05.695,0.21030177,-0.17744048,-0.064815976,0.33277076,0.25922915,-0.12891977,-0.23398638,0.28097662,0.34344748,0.279161,-0.097403765,0.4067963,0.2626134,-0.07814051,-0.1211826,0.2225442,-0.18547323,-0.5903041,-0.65090513,0.09668445,824.3956,806.6667,794.57874,815.5311,779.2674,-0.08453369140625,-0.01141357421875,1.00213623046875,3.46923828125,-3.00567626953125,5.540313720703125,1,1.0,1.0,1.0,1.0,90.00
2021-04-14 09:37:06.199,0.4528042,-0.21762525,-0.08458347,0.3306532,0.34764984,-0.050722707,-0.05048865,0.22250016,0.39042535,0.2899882,0.13444903,0.5584128,0.3443731,0.024458302,-0.1162651,0.41227782,-0.20750017,-0.5676593,-0.6582813,0.0053003323,873.95605,813.1135,801.8315,817.9487,814.3223,-0.135009765625,-0.02581787109375,0.9874267578125,5.03936767578125,4.2767333984375,4.56085205078125,1,1.0,1.0,1.0,1.0,90.00
2021-04-14 09:37:06.715,0.67864484,-0.23325807,-0.17279851,0.42050666,0.3976968,-0.09209403,-0.17624466,0.34683794,0.59164876,0.16931465,0.16926846,0.69252366,0.37617406,-0.016544566,-0.17634298,0.4688564,-0.19414613,-0.57881534,-0.674346,-0.023908371,832.4542,807.0696,809.0842,817.9487,759.12085,-0.21337890625,-0.02752685546875,0.97808837890625,4.104766845703125,-7.01324462890625,-8.665618896484375,1,1.0,1.0,1.0,1.0,90.00
2021-04-14 09:37:07.218,0.6359856,-0.1119451,-0.029937733,0.37882492,0.4081372,-0.2008845,-0.09675465,0.4148546,0.6272222,0.12921187,0.1715658,0.67738354,0.30358672,0.008753899,-0.147884,0.5213661,-0.11445814,-0.5876826,-0.69425195,0.0032368298,742.6007,802.6374,801.8315,781.685,631.39197,-0.1298828125,-0.031494140625,0.99127197265625,4.119720458984375,-9.94415283203125,-3.925323486328125,1,1.0,1.0,1.0,1.0,90.00
2021-04-14 09:37:07.739,0.5913271,-0.024315288,0.042116396,0.38458127,0.3803706,-0.2500716,-0.12921086,0.45541167,0.61735815,0.07119995,0.14861168,0.6226613,0.29185122,-0.040767115,-0.16481236,0.49569103,-0.05189754,-0.6109663,-0.7378079,0.15931195,877.1795,810.293,805.4579,830.84247,798.20514,-0.077392578125,-0.03314208984375,1.00494384765625,3.81317138671875,-7.499237060546875,2.340240478515625,1,1.0,1.0,1.0,1.0,90.00
2021-04-14 09:37:08.244,0.5654258,-0.1068944,0.17991059,0.62358385,0.39050424,-0.20641226,-0.0066933366,0.5055329,0.5212864,-0.009518591,-0.12946045,0.56207216,0.26822004,-0.100115225,-0.10939033,0.55238616,0.047396317,-0.52351797,-0.778825,0.35400012,823.9927,804.65204,803.0403,809.0842,817.9487,-0.08795166015625,-0.03570556640625,0.99786376953125,4.32159423828125,-3.596343994140625,1.12152099609375,1,1.0,1.0,1.0,1.0,90.00
2021-04-14 09:37:08.756,0.5556125,-0.1502741,0.0542455,0.6095777,0.1703223,-0.2654128,-0.05350294,0.4206048,0.40024886,0.025397334,-0.1360302,0.52649564,0.2710626,-0.10873827,-0.17768468,0.54236495,-0.0032755716,-0.52829325,-0.77200353,0.38454884,758.71796,813.1135,797.3993,784.90845,692.6374,-0.08984375,-0.0413818359375,0.98822021484375,4.14215087890625,-4.14215087890625,0.635528564453125,1,1.0,1.0,1.0,1.0,90.00
2021-04-14 09:37:09.260,0.5480345,-0.08543668,-0.034449212,0.58912677,0.13622773,-0.2408162,-0.18242587,0.34140754,0.3853939,0.17358473,-0.059382357,0.524153,0.21740225,-0.0799682,-0.19638897,0.47891656,-0.07628308,-0.5458801,-0.61393356,0.25180355,740.989,801.8315,800.6227,786.9231,589.0842,-0.09222412109375,-0.042724609375,1.00152587890625,3.521575927734375,-5.7421875,2.49725341796875,1,1.0,1.0,1.0,1.0,90.00
2021-04-14 09:37:09.778,0.5542953,-0.099562235,-0.061500046,0.699952,0.5149439,-0.32666758,-0.23085009,0.5895535,0.6126657,0.11151226,0.0914174,0.80430186,0.16159225,-0.092099555,-0.16103198,0.47587657,-0.22028962,-0.6008916,-0.613468,0.027557708,794.57874,805.4579,800.2198,793.36993,813.91943,-0.0892333984375,-0.039306640625,1.0028076171875,4.7552490234375,-5.241241455078125,0.336456298828125,1,1.0,1.0,1.0,1.0,90.00
2021-04-14 09:37:10.286,0.49318534,-0.21350953,-0.020736707,0.68335164,0.54974276,-0.36147296,-0.14495023,0.5991389,0.6126657,0.041495103,0.08265218,0.7922387,0.15162057,-0.12216735,-0.055727065,0.4628714,-0.19995172,-0.58023566,-0.6159222,-0.13750848,877.1795,804.65204,811.50183,837.6923,847.76556,-0.0682373046875,-0.0369873046875,1.004638671875,3.768310546875,-5.704803466796875,1.36077880859375,1,1.0,1.0,1.0,1.0,90.00
2021-04-14 09:37:10.789,0.48140496,-0.32096666,0.16162358,0.76136625,0.60067636,-0.3846015,-0.083980076,0.7135153,0.62201977,-0.046374585,0.16423447,0.86993635,0.07821058,-0.119359136,0.010839964,0.44664478,-0.29645446,-0.6077259,-0.64233494,-0.16141686,832.4542,807.47253,793.36993,797.8022,840.10986,-0.0762939453125,-0.047119140625,1.00115966796875,2.908477783203125,-1.973876953125,4.583282470703125,1,1.0,1.0,1.0,1.0,90.00
2021-04-14 09:37:11.331,0.43905693,-0.06672156,0.13799235,0.6456697,0.4668822,-0.37061515,-0.05471538,0.6425792,0.43834737,-0.04090498,0.06270133,0.5998659,0.036909465,-0.064238675,-0.047821272,0.35873494,-0.32958534,-0.6603756,-0.521449,-0.101825766,769.19415,803.44324,804.65204,794.17584,674.90845,-0.1214599609375,-0.05914306640625,0.99969482421875,6.6094970703125,2.624359130859375,1.278533935546875,1,1.0,1.0,1.0,1.0,90.00
2021-04-14 09:37:11.868,0.5996019,0.14334008,0.19071098,0.76327366,0.5358339,-0.26317605,0.09202438,0.7101434,0.44633,0.042904887,0.08505262,0.6137736,0.029972164,-0.099627845,-0.14215316,0.34564993,-0.32240558,-0.61917263,-0.48165202,0.035812423,706.337,821.978,781.685,711.5751,622.9304,-0.2392578125,-0.0516357421875,0.96832275390625,8.979644775390625,-0.777587890625,-8.11981201171875,1,1.0,1.0,1.0,1.0,90.00
2021-04-14 09:37:12.400,0.73394275,0.40983957,0.37790507,0.97140354,0.5859264,0.10091253,0.2711954,0.8242106,0.44679338,0.22189611,0.44580087,1.0315892,0.1085304,-0.14086853,-0.2663134,0.47827855,-0.07046559,-0.57091737,-0.44055837,0.19951388,774.43225,797.3993,803.44324,793.7729,692.23444,-0.256591796875,-0.020751953125,0.9742431640625,16.920013427734375,4.605712890625,-23.379974365234375,1,1.0,1.0,1.0,1.0,90.00
2021-04-14 09:37:12.453,,,,,,,,,,,,,,,,,,,,,,,,,,,,,,,,,,,,,,/muse/elements/blink
2021-04-14 09:37:12.704,,,,,,,,,,,,,,,,,,,,,,,,,,,,,,,,,,,,,,/muse/elements/blink
2021-04-14 09:37:12.879,,,,,,,,,,,,,,,,,,,,,,,,,,,,,,,,,,,,,,/muse/elements/blink
2021-04-14 09:37:12.942,0.93533236,0.74300754,0.7767833,1.4816158,0.80209965,0.4705369,0.5815301,1.2854598,1.2153721,0.43966904,0.7670649,1.3984883,0.22252415,-0.18755102,-0.030849677,0.6381551,0.017302105,-0.46239144,-0.54473734,0.28058374,743.00366,800.6227,792.1612,762.3443,682.5641,-0.3555908203125,0.0191650390625,0.915771484375,6.033782958984375,0.10467529296875,-2.026214599609375,1,1.0,1.0,1.0,1.0,90.00
2021-04-14 09:37:13.467,1.1660168,0.73851866,0.8154346,1.6776389,1.0251321,0.4622543,0.61749816,1.4940077,1.2191473,0.43966904,0.77599967,1.4093353,0.41326803,-0.19316265,0.044133868,0.79062504,0.11004089,-0.40103695,-0.57141453,0.3316259,821.1722,809.4872,799.011,807.47253,820.7692,-0.37481689453125,0.0445556640625,0.923828125,8.4039306640625,-1.12152099609375,0.396270751953125,1,1.0,1.0,1.0,1.0,90.00
2021-04-14 09:37:13.837,,,,,,,,,,,,,,,,,,,,,,,,,,,,,,,,,,,,,,/muse/elements/blink
2021-04-14 09:37:13.995,1.1929177,0.72050506,0.7462036,1.7221038,1.0257297,0.32628793,0.5292034,1.5320014,1.2188728,0.40851685,0.771158,1.4042246,0.43719068,-0.074700795,0.041281175,0.72696745,-0.02277487,-0.35083646,-0.5219127,0.13327083,772.01465,805.4579,792.96704,785.7143,716.8132,-0.38385009765625,0.03985595703125,0.9281005859375,1.966400146484375,-2.564544677734375,-2.332763671875,1,1.0,1.0,1.0,1.0,90.00
2021-04-14 09:37:14.547,1.1929177,0.67222106,0.73642415,1.7221038,1.0257297,-0.035604045,0.36227098,1.5320014,1.2188728,0.19875045,0.28890607,1.4042246,0.43719068,1.7900387E-4,-0.10121547,0.72696745,-0.02277487,-0.31272525,-0.48928052,0.13327083,746.2271,803.8461,800.2198,773.22345,649.5238,-0.35235595703125,0.020263671875,0.9383544921875,4.792633056640625,-6.093597412109375,2.190704345703125,1,1.0,1.0,1.0,1.0,90.00
2021-04-14 09:37:15.101,1.1929177,0.66352975,0.6995822,1.7221038,1.0257297,0.06640183,0.31452975,1.5320014,1.2188728,0.21954343,0.27892262,1.4042246,0.43719068,0.08247463,-0.08524672,0.72696745,-0.02277487,-0.33626288,-0.52603936,0.13327083,780.4762,804.2491,795.38464,785.31134,701.9048,-0.350830078125,0.02532958984375,0.9381103515625,5.0543212890625,-3.8580322265625,-1.57012939453125,1,1.0,1.0,1.0,1.0,90.00
2021-04-14 09:37:15.604,0.44078633,0.524759,0.64956146,1.7221038,0.50026125,0.09434146,0.2584193,1.5320014,0.6465546,0.28595144,0.31823623,1.4042246,0.07862065,0.06625423,-0.12226102,0.72696745,-0.7220177,-0.43504274,-0.6749644,0.13327083,845.7509,804.65204,797.3993,818.7546,824.7985,-0.36083984375,0.014404296875,0.93402099609375,3.372039794921875,-4.38140869140625,2.58697509765625,1,1.0,1.0,1.0,1.0,90.00
2021-04-14 09:37:16.124,0.7039947,0.30762228,0.3380631,1.3218011,0.4393992,0.04980826,0.10146332,0.90858716,0.6506589,0.33537325,0.43204802,0.64071065,0.053086944,0.06929047,-0.18373886,0.21748745,-0.47695097,-0.48906773,-0.6971824,-0.33322465,786.9231,807.47253,785.31134,778.0586,806.6667,-0.369384765625,0.0155029296875,0.931884765625,7.0281982421875,-5.39825439453125,-4.164581298828125,1,1.0,1.0,1.0,1.0,90.00
2021-04-14 09:37:16.665,0.8271444,0.19455415,0.3299758,1.2871546,0.6522948,-0.04214763,0.09789181,0.9285848,1.1435165,0.29270062,0.40748793,1.1957321,0.20636708,-0.04280217,-0.24063274,0.36593586,-0.28538382,-0.55175656,-0.5345744,-0.1010443,858.24176,811.0989,805.8608,828.8278,813.5165,-0.3572998046875,0.01544189453125,0.937255859375,4.29168701171875,-3.730926513671875,1.614990234375,1,1.0,1.0,1.0,1.0,90.00
2021-04-14 09:37:17.091,,,,,,,,,,,,,,,,,,,,,,,,,,,,,,,,,,,,,,/muse/elements/blink
2021-04-14 09:37:17.169,0.97422755,0.083483614,0.29138884,1.210045,0.8346017,-0.08686276,0.119639196,0.8946194,1.1380795,0.18882152,0.37048563,1.2039506,0.34574383,-0.11677616,-0.13831197,0.48077404,-0.090483345,-0.54324186,-0.4691116,0.008439526,873.95605,813.5165,796.99634,863.0769,858.24176,-0.3638916015625,0.0101318359375,0.93115234375,4.97955322265625,-4.957122802734375,0.2392578125,1,1.0,1.0,1.0,1.0,90.00
2021-04-14 09:37:17.682,0.97333133,0.3712163,0.6231092,1.080092,0.9707278,0.1715616,0.34785753,0.85803175,1.1357828,0.37108228,0.34810215,1.2039506,0.45474017,-0.107810855,-0.09771953,0.5512227,-0.05476138,-0.5739934,-0.48499468,0.08484066,782.49084,795.78754,799.41394,793.7729,655.56775,-0.3642578125,0.00567626953125,0.93304443359375,3.611297607421875,-4.41131591796875,2.79632568359375,1,1.0,1.0,1.0,1.0,90.00
2021-04-14 09:37:18.192,0.99272215,0.50732404,0.63708913,1.0470735,0.95891875,0.15213244,0.33380726,0.8331569,1.1331933,0.44369116,0.30815232,1.1975417,0.46023244,-0.054745417,-0.10192358,0.55869234,-0.05894366,-0.5011291,-0.58571404,0.07461072,848.5714,805.8608,803.8461,824.3956,752.27106,-0.35614013671875,0.00469970703125,0.93475341796875,4.5159912109375,-4.598236083984375,-0.777587890625,1,1.0,1.0,1.0,1.0,90.00
2021-04-14 09:37:18.716,0.99272215,0.52692586,0.6343598,1.0470735,0.95891875,0.1397788,0.3942028,0.8331569,1.1331933,0.44369116,0.23782006,1.1975417,0.46023244,-0.06114261,-0.22405986,0.55869234,-0.05894366,-0.50639844,-0.7073878,0.07461072,806.26373,800.2198,797.8022,800.6227,812.3077,-0.35565185546875,0.0010986328125,0.93182373046875,4.26177978515625,-4.254302978515625,0.2691650390625,1,1.0,1.0,1.0,1.0,90.00
2021-04-14 09:37:19.274,0.42889386,0.27951664,0.18136765,0.48405492,0.36932978,-0.114128366,0.09676085,0.23087417,0.54613495,0.17362985,0.07269011,0.7114504,0.29581508,-0.13955832,-0.13279553,0.23122069,-0.25426894,-0.5423776,-0.7371519,-0.39484018,853.4066,809.4872,807.8755,830.4396,843.73627,-0.35797119140625,0.00372314453125,0.93487548828125,5.016937255859375,-4.3963623046875,-0.052337646484375,1,1.0,1.0,1.0,1.0,90.00
2021-04-14 09:37:19.807,0.41578913,-0.10711822,-0.15000257,0.47177485,0.3506108,-0.12299043,-0.0920058,0.31565946,0.5847779,0.04176439,0.16020685,0.7150349,0.30088872,-0.26401338,-0.012181077,0.27320072,-0.32997182,-0.59569985,-0.7591708,-0.45429727,828.4249,807.8755,808.68134,812.71063,859.0476,-0.35943603515625,0.00213623046875,0.92822265625,4.673004150390625,-4.852447509765625,1.15142822265625,1,1.0,1.0,1.0,1.0,90.00
2021-04-14 09:37:20.330,0.24395438,-0.1681762,-0.38174102,0.38363087,0.16415475,-0.20561731,-0.26467443,0.23041703,0.45427158,0.06839884,0.030269166,0.641735,0.25159296,-0.3510968,0.042943977,0.26787737,-0.36871123,-0.51948637,-0.8105524,-0.40440142,856.63007,804.2491,799.81683,830.4396,843.3333,-0.359375,0.00860595703125,0.93798828125,4.388885498046875,-5.3533935546875,2.310333251953125,1,1.0,1.0,1.0,1.0,90.00
2021-04-14 09:37:20.836,0.3020654,-0.0076707285,0.15479791,0.53068006,0.10793811,-0.15418337,0.068263926,0.24063621,0.44052792,0.22475351,0.18995225,0.5414982,0.0712611,-0.30823007,-0.008068366,0.2256797,-0.3419513,-0.5048061,-0.71902007,-0.32807085,819.5604,813.91943,800.2198,812.3077,685.38464,-0.35687255859375,0.00860595703125,0.93701171875,3.955230712890625,-4.47113037109375,1.772003173828125,1,1.0,1.0,1.0,1.0,90.00
2021-04-14 09:37:21.163,,,,,,,,,,,,,,,,,,,,,,,,,,,,,,,,,,,,,,/muse/elements/blink
2021-04-14 09:37:21.349,0.27051452,0.3579447,0.5499066,0.57873374,-0.0669865,0.10651509,0.34778935,0.100620545,0.4235693,0.2365481,0.02716138,0.45483437,-0.09976577,-0.27596313,-0.116925634,0.1696843,-0.28295156,-0.5936019,-0.6599964,-0.26144645,865.09155,809.4872,799.81683,842.52747,799.81683,-0.36590576171875,0.00848388671875,0.9320068359375,3.925323486328125,-3.910369873046875,4.18701171875,1,1.0,1.0,1.0,1.0,90.00
2021-04-14 09:37:21.863,0.49873602,0.577674,0.8783746,0.7571143,-0.12896582,0.26260582,0.5624665,0.044561442,0.14695492,0.16652931,0.03106677,0.45106104,-0.13206948,-0.22777845,-0.20031793,0.1449,-0.17443785,-0.56963885,-0.54164827,-0.23693977,762.74725,799.41394,802.6374,786.1172,717.619,-0.37017822265625,0.0118408203125,0.92938232421875,5.03936767578125,-4.6954345703125,-0.037384033203125,1,1.0,1.0,1.0,1.0,90.00
2021-04-14 09:37:22.400,0.53060395,0.5421568,0.8346895,0.77501076,-0.20290332,0.21574979,0.51187533,0.08551378,0.119556345,0.113010705,0.0089071235,0.43168026,-0.09888982,-0.19777396,-0.15308711,0.13078505,-0.17518814,-0.40885854,-0.43473855,-0.23086762,823.1868,811.50183,801.4286,811.9048,783.2967,-0.37841796875,0.0106201171875,0.92828369140625,4.044952392578125,-4.329071044921875,0.994415283203125,1,1.0,1.0,1.0,1.0,90.00
2021-04-14 09:37:22.946,0.59332436,0.38071236,0.69120055,0.89423007,0.19982573,0.117066324,0.38174155,0.122536644,0.47552854,0.11424105,-0.06863078,0.37207928,0.1813495,-0.17021482,-0.079105906,0.09625717,-0.21971324,-0.34900957,-0.44096845,-0.29021648,862.674,805.8608,803.0403,821.1722,861.06226,-0.3780517578125,0.01220703125,0.9271240234375,3.6187744140625,-5.301055908203125,2.6318359375,1,1.0,1.0,1.0,1.0,90.00
2021-04-14 09:37:23.502,0.5082915,-0.07621851,-0.14682026,0.6892644,0.37718603,-0.16705514,-0.1492372,0.34161678,0.7015691,0.065271065,0.28234234,0.85908425,0.2212586,-0.21353935,-0.099434815,0.33825606,-0.16090159,-0.36695328,-0.46321633,-0.39688623,748.24176,808.2784,800.6227,770.0,572.5641,-0.3770751953125,0.00103759765625,0.92431640625,4.209442138671875,-4.538421630859375,0.22430419921875,1,1.0,1.0,1.0,1.0,90.00
2021-04-14 09:37:24.016,0.4223067,0.04263922,-0.08285092,0.55007017,0.29558575,-0.21656553,-0.17646316,0.2916166,0.7043725,-0.008555458,0.35221282,0.85908425,0.25022376,-0.18515928,-0.082384065,0.36881256,-0.1524126,-0.47714308,-0.61658263,-0.4123885,788.1319,803.8461,797.3993,794.17584,872.74725,-0.3670654296875,0.00872802734375,0.93096923828125,5.30853271484375,-5.540313720703125,2.332763671875,1,1.0,1.0,1.0,1.0,90.00
2021-04-14 09:37:24.523,0.11778492,-0.009984282,-0.19462891,0.14089036,0.33065206,-0.41722542,-0.28220856,0.28252244,0.7277973,0.122898184,0.3633196,0.8405728,0.3098663,-0.10954459,-0.09258106,0.37023637,-0.09608909,-0.49365872,-0.54672915,-0.33776376,786.1172,807.8755,796.99634,789.7436,674.90845,-0.35943603515625,-0.003173828125,0.9398193359375,4.358978271484375,-4.104766845703125,1.39068603515625,1,1.0,1.0,1.0,1.0,90.00
2021-04-14 09:37:25.026,0.14174934,-0.034344748,-0.28975254,0.07791626,0.3722089,-0.34694675,-0.18201615,0.42467794,0.63867515,0.20841245,0.42478332,0.7422026,0.47961673,0.008225576,-0.03559834,0.43813086,-0.10654002,-0.49289656,-0.55716485,-0.24336576,798.20514,785.31134,833.2601,837.6923,603.5897,-0.354248046875,0.0069580078125,0.9366455078125,-0.3289794921875,-11.342315673828125,23.447265625,1,1.0,1.0,1.0,1.0,90.00
2021-04-14 09:37:25.536,0.94435036,0.41625547,0.7380781,1.3429842,0.6333023,0.0970952,0.17149569,0.90849686,0.87593967,0.2751744,0.40612718,1.2097266,0.51515216,0.052151922,-0.17710462,0.45957944,-0.076230936,-0.4988144,-0.47206226,-0.22514988,785.7143,807.8755,798.20514,794.57874,779.2674,-0.22119140625,0.008056640625,0.9759521484375,4.643096923828125,-10.40771484375,3.66363525390625,1,1.0,1.0,1.0,1.0,85.00
2021-04-14 09:37:26.042,,,,,,,,,,,,,,,,,,,,,,,,,,,,,,,,,,,,,,/muse/elements/blink
2021-04-14 09:37:26.049,1.1501174,0.5717123,0.87490517,1.5273329,0.7676805,0.18109679,0.33619976,1.0727419,0.8717972,0.2718138,0.4064023,1.2097266,0.59814465,-0.025066022,-0.18355124,0.57355523,-0.10980228,-0.5097006,-0.46994507,-0.23685406,834.0659,815.12823,794.9817,802.6374,825.2015,-0.30535888671875,-0.00396728515625,0.9036865234375,7.125396728515625,9.144134521484375,-9.293670654296875,1,1.0,1.0,1.0,1.0,85.00
2021-04-14 09:37:26.587,1.6029752,0.6489705,0.97451776,1.8206232,1.5586375,0.24531327,0.6045098,1.5998911,1.5152136,0.33200878,0.39392868,1.4921014,0.730882,-0.111758515,-0.14301786,0.6783117,-0.24358603,-0.55074203,-0.44769543,-0.25997114,865.4945,809.0842,799.41394,836.4835,779.2674,-0.3245849609375,0.02362060546875,0.95037841796875,5.18890380859375,3.54400634765625,-7.245025634765625,1,1.0,1.0,1.0,1.0,85.00
2021-04-14 09:37:27.099,1.5626981,0.44394642,0.50125885,1.6272149,1.6624476,-0.031157224,0.49508333,1.7076094,1.5152136,0.2648113,0.19391428,1.4531387,0.8091335,-0.0699303,-0.07183077,0.77081215,-0.33040676,-0.552649,-0.55816764,-0.22242288,815.5311,799.81683,803.44324,821.5751,733.73627,-0.42633056640625,0.01519775390625,0.91180419921875,6.302947998046875,11.3946533203125,-2.400054931640625,1,1.0,1.0,1.0,1.0,85.00
2021-04-14 09:37:27.613,1.3359442,0.35958183,0.31148905,1.345542,1.386738,-0.053228423,0.38420108,1.4192177,1.5152136,0.26980063,0.1977519,1.4531387,0.5641026,0.07305406,-0.085526735,0.5140825,-0.26501608,-0.5169497,-0.5954314,-0.30773044,736.1539,815.12823,802.23444,758.71796,660.40295,-0.38018798828125,0.0205078125,0.930419921875,2.1533203125,-7.46185302734375,0.590667724609375,1,1.0,1.0,1.0,1.0,85.00
2021-04-14 09:37:28.128,0.91667414,0.39112008,-0.31454653,0.8269308,0.5736393,0.07768144,-0.11811059,0.8011293,0.74681324,0.1237141,-0.14325273,0.6741708,0.005914021,0.10514553,-0.19662936,0.1474317,-0.25226715,-0.50720245,-0.71780664,-0.3605341,778.86444,805.05493,803.8461,793.36993,712.381,-0.37176513671875,-0.01214599609375,0.9315185546875,3.887939453125,-3.611297607421875,0.82244873046875,1,1.0,1.0,1.0,1.0,85.00
2021-04-14 09:37:28.668,0.92657506,0.3651912,-0.3055515,0.82009155,0.68820137,0.10853851,-0.27947247,0.71534586,0.780103,0.16524969,0.0021661571,0.6741708,0.024343822,-0.02900835,-0.20640221,0.13297981,-0.3117129,-0.49318105,-0.6048222,-0.30556333,747.8388,806.6667,804.65204,778.86444,581.02563,-0.35577392578125,-0.0140380859375,0.93536376953125,3.70849609375,-4.6954345703125,-0.85235595703125,1,1.0,1.0,1.0,1.0,85.00
2021-04-14 09:37:29.211,0.78722847,0.10406951,-0.27746284,0.6431312,0.6313537,-0.07601023,-0.39715073,0.5590787,0.7763178,0.13762178,0.06994014,0.66865283,0.07408437,-0.13114259,-0.17656632,0.13909708,-0.39684778,-0.42329693,-0.53574115,-0.30080512,787.72894,803.8461,799.41394,791.75824,693.44324,-0.35333251953125,-0.01922607421875,0.92913818359375,5.21881103515625,-5.2337646484375,2.325286865234375,1,1.0,1.0,1.0,1.0,85.00
2021-04-14 09:37:29.745,0.5376726,-0.25114283,-0.20923488,0.44577843,0.4141914,-0.4375706,-0.36098465,0.28087625,0.5225035,0.03756486,0.101554126,0.5195355,0.11630843,-0.18208587,-0.19394138,0.11710963,-0.36044824,-0.33884007,-0.52670467,-0.30794513,854.61536,810.293,805.4579,827.619,917.0696,-0.35931396484375,-0.0211181640625,0.93487548828125,4.134674072265625,-5.06927490234375,0.059814453125,1,1.0,1.0,1.0,1.0,85.00
2021-04-14 09:37:30.291,0.089386545,-0.45358905,-0.3012197,0.13312264,0.10687963,-0.4334547,-0.3129191,0.13477401,0.4982675,-0.029945914,0.0115701845,0.49307743,0.11831516,-0.05370745,-0.25429726,0.11307096,-0.29144958,-0.3284744,-0.6245851,-0.2547976,839.707,803.0403,795.78754,820.3663,708.7546,-0.3521728515625,-0.01605224609375,0.9449462890625,4.91973876953125,-4.613189697265625,1.921539306640625,1,1.0,1.0,1.0,1.0,85.00
2021-04-14 09:37:30.826,-0.12785888,-0.33960494,-0.16813047,-0.12521824,0.22256328,-0.27007732,-0.26666188,0.016101524,0.4446321,0.0719668,-0.07036094,0.4275627,0.09023792,-0.058547426,-0.33209628,0.037103616,-0.3063777,-0.48510897,-0.78394186,-0.2833451,743.8095,794.9817,800.2198,774.83514,685.78754,-0.3221435546875,-0.0128173828125,0.9468994140625,4.388885498046875,-5.405731201171875,0.411224365234375,1,1.0,1.0,1.0,1.0,85.00
2021-04-14 09:37:31.334,0.089339,-0.21639891,-0.18259038,-0.013158923,0.35371724,-0.13077925,-0.33625126,0.16035743,0.4266129,0.09871656,-0.23268558,0.3553844,0.052870534,-0.06322843,-0.3365387,0.03823683,-0.36412257,-0.6375238,-0.7633713,-0.27975217,821.5751,805.8608,802.23444,818.7546,791.3553,-0.33563232421875,-0.03082275390625,0.9434814453125,4.26177978515625,-1.9439697265625,-2.691650390625,1,1.0,1.0,1.0,1.0,85.00
2021-04-14 09:37:31.857,0.20503475,-0.09239832,-0.24807423,0.04614704,0.36751014,-0.087018676,-0.5378096,0.21851051,0.21587394,-0.050463617,-0.34469014,0.2482256,-0.0138772465,-0.23437302,-0.38708216,0.0035068681,-0.30841163,-0.67067844,-0.7013094,-0.3336403,870.32965,809.0842,805.05493,833.663,930.7692,-0.3389892578125,-0.02490234375,0.94696044921875,5.106658935546875,-2.968292236328125,0.291595458984375,1,1.0,1.0,1.0,1.0,85.00
2021-04-14 09:37:32.363,0.2084032,-0.023029312,-0.2596093,0.16707034,0.27099597,-0.13497554,-0.5040575,0.15259576,0.12462675,-0.18224387,-0.23676525,0.16339903,-0.013634555,-0.24817324,-0.28931093,0.07155849,-0.2911684,-0.5812622,-0.5310551,-0.31315035,822.381,809.0842,804.65204,821.978,716.4103,-0.3463134765625,-0.0269775390625,0.94073486328125,4.23187255859375,-3.69354248046875,0.725250244140625,1,1.0,1.0,1.0,1.0,85.00
2021-04-14 09:37:32.878,0.120899215,-0.100489095,-0.16570723,0.09507038,0.07606232,-0.073074594,-0.29416797,0.121203095,0.27032578,-0.086889215,-0.14246075,-0.04949982,-0.014681583,-0.17046966,-0.26024702,0.0740785,-0.3156997,-0.4570248,-0.44939694,-0.39792052,758.315,804.65204,800.2198,780.07324,588.2784,-0.34625244140625,-0.027099609375,0.9364013671875,4.388885498046875,-4.83001708984375,0.829925537109375,1,1.0,1.0,1.0,1.0,85.00
2021-04-14 09:37:33.413,-0.109293304,-0.22395138,-0.14288214,0.05710645,-0.035945263,-0.068700634,-0.254667,-0.005915215,0.4147968,-0.13453591,0.013632299,0.07923452,0.20866159,-0.1450082,-0.19994149,0.1449719,-0.44056833,-0.48001724,-0.44491637,-0.42097944,760.7326,797.3993,804.2491,788.1319,865.4945,-0.3482666015625,-0.03106689453125,0.9415283203125,4.50103759765625,-4.91973876953125,0.770111083984375,1,1.0,1.0,1.0,1.0,85.00
2021-04-14 09:37:33.955,-0.13930756,-0.38897592,-0.18203071,-0.04176175,-0.13507871,-0.1049491,-0.27102453,0.010551877,0.4434468,-0.026213126,0.015293834,0.3031585,0.2180841,-0.0852084,-0.2346971,0.18186486,-0.4141967,-0.5557987,-0.56794727,-0.35176986,819.5604,802.6374,799.81683,814.3223,811.50183,-0.349609375,-0.02606201171875,0.93939208984375,4.224395751953125,-4.089813232421875,0.6280517578125,1,1.0,1.0,1.0,1.0,85.00
2021-04-14 09:37:34.459,0.15161638,-0.079939395,-0.35151678,0.19808508,-0.05703228,-0.3367701,-0.43137136,-0.15439434,0.50257486,-0.08583408,-0.015560781,0.31496546,0.16004862,-0.10934097,-0.21705137,0.17049536,-0.32730335,-0.57575375,-0.6298384,-0.28775144,781.28204,804.65204,803.44324,789.7436,867.1062,-0.34466552734375,-0.03533935546875,0.93475341796875,5.076751708984375,-4.29168701171875,1.024322509765625,1,1.0,1.0,1.0,1.0,85.00
2021-04-14 09:37:34.984,0.17600617,0.019931063,-0.4587475,0.14638408,-0.1009863,-0.3530657,-0.4383155,-0.089830406,0.47848147,-0.05595743,-0.025679305,0.3272342,-0.04464465,-0.104404144,-0.2217685,0.13859731,-0.3370852,-0.5209066,-0.6288634,-0.2915865,819.9634,803.44324,799.011,811.9048,751.06226,-0.34527587890625,-0.03466796875,0.9425048828125,4.5458984375,-4.762725830078125,0.919647216796875,1,1.0,1.0,1.0,1.0,85.00
2021-04-14 09:37:35.504,0.10594874,0.068534076,-0.22364524,0.17814341,-0.07066976,-0.30980965,-0.4574263,0.09235585,0.47051013,0.17632964,-0.08475304,0.24486169,0.08872451,-0.097952,-0.15400518,0.0885871,-0.37906197,-0.43976498,-0.6143625,-0.28757048,849.7802,810.696,802.23444,829.2308,739.3773,-0.34637451171875,-0.033203125,0.94024658203125,4.403839111328125,-4.807586669921875,0.8673095703125,1,1.0,1.0,1.0,1.0,75.00
2021-04-14 09:37:36.048,-0.15818174,-0.010008809,0.10419781,-0.06311863,-0.1433482,-0.2491976,-0.2915897,0.13190141,0.43020403,0.28599495,-0.02767693,0.46099713,0.14365882,-0.10117528,-0.10209992,0.080176234,-0.44378835,-0.37541065,-0.67114365,-0.24297847,756.7033,802.6374,802.6374,781.28204,716.0073,-0.34283447265625,-0.032958984375,0.94140625,5.12908935546875,-5.42816162109375,2.04864501953125,1,1.0,1.0,1.0,1.0,75.00
2021-04-14 09:37:36.559,-0.17865962,-0.14101037,0.14376085,-0.043476585,-0.2413766,-0.3174184,-0.2956944,0.07582805,0.6272121,0.28599495,-0.05216219,0.47746184,0.14154446,-0.15601139,-0.0815447,0.100666195,-0.42515004,-0.3956749,-0.597533,-0.31144664,846.9597,804.65204,804.2491,829.6337,779.2674,-0.34027099609375,-0.031005859375,0.94219970703125,4.18701171875,-4.3365478515625,0.456085205078125,1,1.0,1.0,1.0,1.0,75.00
2021-04-14 09:37:37.089,-0.11129111,-0.2539306,-0.073640816,-0.115169525,-0.09265277,-0.40861455,-0.36761457,0.12838835,0.6281318,0.21527012,-0.056053746,0.50919735,0.005607809,-0.30593008,-0.17946877,0.10164493,-0.40283558,-0.52793425,-0.56310254,-0.3160832,780.07324,807.0696,799.81683,786.9231,683.7729,-0.3330078125,-0.02935791015625,0.94317626953125,5.12908935546875,-4.912261962890625,0.800018310546875,1,1.0,1.0,1.0,1.0,75.00
2021-04-14 09:37:37.625,-0.15212029,-0.38951284,-0.38056138,-0.04020752,0.06839958,-0.38687602,-0.57704204,0.17815655,0.6127334,0.12740442,-0.081153624,0.51359403,0.015104813,-0.2463799,-0.13958062,0.027476246,-0.39425164,-0.6249266,-0.58385354,-0.2910506,754.2857,803.44324,803.44324,782.8938,623.3333,-0.34112548828125,-0.03558349609375,0.94097900390625,4.508514404296875,-4.643096923828125,0.25421142578125,1,1.0,1.0,1.0,1.0,75.00
2021-04-14 09:37:38.128,-0.14794236,-0.40986264,-0.4229322,0.0653419,0.11692762,-0.34276316,-0.574677,0.14050014,0.33648956,0.12740442,-0.090306215,0.502685,0.051737193,-0.13798316,-0.11391741,0.044882003,-0.34785363,-0.62286395,-0.62325364,-0.27142942,859.0476,800.2198,796.99634,834.4689,803.8461,-0.3411865234375,-0.03192138671875,0.943115234375,4.7552490234375,-4.658050537109375,-0.441131591796875,1,1.0,1.0,1.0,1.0,75.00
2021-04-14 09:37:38.631,-0.2603514,-0.5209675,-0.33079234,0.15299252,0.10808119,-0.28632388,-0.5586311,0.06662931,0.37559044,-0.067330845,-0.023122935,0.37821275,0.09910421,-0.12134896,-0.09600606,0.11782543,-0.369932,-0.5510319,-0.64861614,-0.2762625,852.1978,800.6227,801.4286,827.2161,866.30035,-0.33648681640625,-0.03387451171875,0.9478759765625,4.493560791015625,-4.47113037109375,0.7476806640625,1,1.0,1.0,1.0,1.0,75.00
2021-04-14 09:37:39.135,-0.14258157,-0.53963745,-0.27306607,0.14942546,0.121423155,-0.445963,-0.38529897,0.17240158,0.27694252,-0.15593936,-0.058374725,0.5323634,0.12367706,-0.092457816,-0.19199452,0.10430765,-0.36645952,-0.5611683,-0.5743032,-0.27687258,727.6923,796.5934,794.57874,760.7326,611.2454,-0.33856201171875,-0.0347900390625,0.94293212890625,4.194488525390625,-4.71038818359375,1.09161376953125,1,1.0,1.0,1.0,1.0,75.00
2021-04-14 09:37:39.639,0.12737788,-0.5339323,-0.23382436,0.14794369,0.34806988,-0.48849696,-0.19518793,0.32328552,0.6179803,-0.2338256,-0.07765534,0.64400345,0.18907854,-0.16256647,-0.29615542,0.11111424,-0.46578696,-0.61451274,-0.521763,-0.19856049,762.74725,801.4286,799.41394,780.07324,616.8865,-0.33453369140625,-0.0352783203125,0.9366455078125,4.91973876953125,-4.71038818359375,1.039276123046875,1,1.0,1.0,1.0,1.0,75.00
2021-04-14 09:37:40.145,0.12611909,-0.56716126,0.014864337,0.24695003,0.4149427,-0.42481536,-0.08555054,0.37165105,0.580144,-0.39067465,-0.14428966,0.65287477,0.21814403,-0.10026568,-0.34260276,0.16723026,-0.4538329,-0.67876875,-0.5422018,-0.08838765,840.5128,798.60803,803.0403,822.381,845.34796,-0.3382568359375,-0.03948974609375,0.94305419921875,4.882354736328125,-4.134674072265625,1.099090576171875,1,1.0,1.0,1.0,1.0,75.00
2021-04-14 09:37:40.648,0.19515584,-0.3991023,7.763107E-4,0.32831717,0.42124528,-0.31897613,-0.12645777,0.28166255,0.5811829,-0.14742962,-0.28585348,0.65334356,0.22853492,-0.18435518,-0.19016962,0.23080656,-0.31467053,-0.74201083,-0.6123653,-0.121351674,857.4359,803.8461,800.6227,828.4249,865.4945,-0.3438720703125,-0.02581787109375,0.93804931640625,5.166473388671875,-5.24871826171875,0.067291259765625,1,1.0,1.0,1.0,1.0,75.00
2021-04-14 09:37:41.181,0.13365996,-0.25775868,-0.06322168,0.26899543,0.26410994,-0.2275763,-0.28544924,0.101213865,0.49100927,-0.09914255,-0.32899496,0.5651756,0.21578649,-0.13534154,-0.09875459,0.2459112,-0.18742278,-0.68126196,-0.6825235,-0.17172803,830.4396,793.7729,794.9817,808.2784,857.03296,-0.3468017578125,-0.02984619140625,0.94171142578125,4.224395751953125,-4.269256591796875,1.03179931640625,1,1.0,1.0,1.0,1.0,75.00
2021-04-14 09:37:41.685,0.21730268,-0.2574803,-0.08841863,0.20730345,0.15311018,-0.21411832,-0.3223184,0.12427466,0.35098127,-0.055363428,-0.2584233,0.31475294,0.14580238,-0.09662846,-0.07011775,0.19214529,-0.19310524,-0.6118831,-0.57722825,-0.30209726,763.1502,798.60803,799.81683,783.69965,710.7692,-0.35009765625,-0.03662109375,0.93804931640625,4.508514404296875,-4.38140869140625,0.351409912109375,1,1.0,1.0,1.0,1.0,75.00
2021-04-14 09:37:42.227,0.17103603,-0.22834864,-0.016785704,0.21615522,0.11579794,-0.24993096,-0.22552928,0.26175976,0.44072446,-0.006570379,-0.26881528,0.1704345,0.14620791,-0.07213537,-0.15391594,0.16389178,-0.30322322,-0.59417665,-0.56140304,-0.35502753,841.7216,811.0989,790.14655,815.12823,874.35895,-0.35028076171875,-0.032470703125,0.9400634765625,4.299163818359375,-4.015045166015625,1.2261962890625,1,1.0,1.0,1.0,1.0,75.00
2021-04-14 09:37:42.746,0.09026041,-0.13587695,0.05052982,0.48881978,0.19010073,-0.27803716,-0.11906584,0.36517,0.4005679,-0.0095787095,0.010461097,0.40830386,0.02574672,-0.05522227,-0.23943351,0.022655012,-0.46902034,-0.59397584,-0.51094687,-0.2681963,796.99634,801.8315,800.6227,793.7729,795.38464,-0.349609375,-0.03448486328125,0.94140625,4.867401123046875,-4.5458984375,1.0467529296875,1,1.0,1.0,1.0,1.0,75.00
2021-04-14 09:37:43.291,-0.020607254,0.002188052,-0.19608283,0.50060153,0.18458706,-0.21365997,-0.15241893,0.30845502,0.40199128,0.111527905,0.0096844975,0.46168083,0.019392734,-0.1037312,-0.19302785,0.012752106,-0.40080228,-0.65468866,-0.5020023,-0.25683144,851.79486,806.6667,794.9817,826.4103,943.2601,-0.34466552734375,-0.0343017578125,0.944091796875,4.284210205078125,-5.084228515625,0.5682373046875,1,1.0,1.0,1.0,1.0,75.00
2021-04-14 09:37:43.819,0.025355805,0.18229094,-0.38833293,0.47457838,0.233168,-0.1395962,-0.2920983,0.23620127,0.27655596,0.067426965,0.0096844975,0.58017135,-0.0791657,-0.09795532,-0.2798977,-0.054499496,-0.33214852,-0.6816156,-0.5201557,-0.20475186,809.4872,794.17584,798.60803,801.02563,728.9011,-0.34661865234375,-0.0283203125,0.9449462890625,4.119720458984375,-4.762725830078125,0.545806884765625,1,1.0,1.0,1.0,1.0,75.00
2021-04-14 09:37:44.325,0.30553564,0.17076461,-0.65751463,0.3421722,0.23979898,-0.092546016,-0.5439737,0.14697972,0.11293435,0.05985406,-0.13199137,0.60610294,-0.097011335,-0.14732064,-0.24522379,-0.0025641958,-0.2653415,-0.6029531,-0.66046363,-0.20238197,866.7033,815.5311,796.99634,830.84247,870.32965,-0.34344482421875,-0.03448486328125,0.94195556640625,4.6954345703125,-4.68048095703125,0.97198486328125,1,1.0,1.0,1.0,1.0,75.00
2021-04-14 09:37:44.862,0.31600392,0.14930005,-0.4705668,0.33334136,0.3142679,-0.13230227,-0.50641495,0.17103434,0.54480916,0.020145388,-0.13624677,0.6063446,-0.10659946,-0.14961664,-0.24361765,-0.07717164,-0.26982296,-0.5106866,-0.7445732,-0.1902376,817.1429,806.26373,799.011,803.8461,699.0842,-0.33929443359375,-0.03131103515625,0.94549560546875,5.166473388671875,-4.41131591796875,1.861724853515625,1,1.0,1.0,1.0,1.0,75.00
2021-04-14 09:37:45.379,0.26326597,0.013235058,-0.3218608,0.26977628,0.3141377,-0.018104663,-0.331674,0.22330533,0.6767337,0.19321646,-0.08196807,0.4417045,-0.079725906,-0.12541072,-0.1865561,-0.01642062,-0.27488136,-0.5020639,-0.61418366,-0.18695605,850.989,797.8022,803.44324,836.4835,820.7692,-0.33551025390625,-0.034423828125,0.94482421875,4.53094482421875,-5.60760498046875,0.73272705078125,1,1.0,1.0,1.0,1.0,75.00
2021-04-14 09:37:45.919,0.3902821,-0.021203578,-0.3030479,0.4211746,0.4243831,-0.0958386,-0.18315917,0.5007464,1.2631642,0.3475492,0.11490543,1.0669038,0.13629264,-0.04234774,-0.18569398,0.14042196,-0.3122605,-0.5607603,-0.525379,-0.2849543,738.5714,797.8022,795.78754,774.0293,604.7985,-0.3453369140625,-0.03387451171875,0.93707275390625,4.433746337890625,-3.671112060546875,0.127105712890625,1,1.0,1.0,1.0,1.0,85.00
2021-04-14 09:37:46.433,0.54567903,-0.06115148,-0.41686863,0.5103377,0.5347317,0.12043721,-0.18081251,0.56371886,1.2631642,0.35113403,0.11434176,1.0669038,0.34274915,-0.004777175,-0.17292446,0.22393975,-0.12225074,-0.5994414,-0.56781006,-0.17964017,765.16486,800.6227,801.8315,779.67035,641.06226,-0.342041015625,-0.0296630859375,0.9439697265625,4.598236083984375,-5.016937255859375,1.173858642578125,1,1.0,1.0,1.0,1.0,85.00
2021-04-14 09:37:46.963,0.7010492,-0.12639774,-0.44350058,0.63290614,0.5695083,0.07842473,-0.23155731,0.5727771,1.2631642,0.25954074,0.07108819,1.0669038,0.34692174,-0.029831933,-0.16625407,0.31135544,-0.07247952,-0.51831406,-0.5772435,-0.18569893,749.0476,802.23444,804.2491,777.6557,911.8315,-0.34100341796875,-0.0362548828125,0.9427490234375,4.74029541015625,-4.448699951171875,1.136474609375,1,1.0,1.0,1.0,1.0,85.00
2021-04-14 09:37:47.366,,,,,,,,,,,,,,,,,,,,,,,,,,,,,,,,,,,,,,/muse/elements/blink
2021-04-14 09:37:47.505,0.63455236,-0.02772122,-0.38173124,0.5250895,0.4987363,0.15428355,-0.32876727,0.3128175,0.7159424,0.08479841,-0.042046107,0.52918345,0.27981886,-0.10913267,-0.18351023,0.26576936,-0.008105934,-0.46304646,-0.6207731,-0.16319591,895.31134,800.6227,793.7729,894.10254,709.15753,-0.342041015625,-0.0321044921875,0.94183349609375,4.568328857421875,-4.284210205078125,1.697235107421875,1,1.0,1.0,1.0,1.0,85.00
2021-04-14 09:37:47.584,,,,,,,,,,,,,,,,,,,,,,,,,,,,,,,,,,,,,,/muse/elements/blink
2021-04-14 09:37:48.032,0.7382455,0.27204105,0.42693204,0.6119999,0.40125746,0.20112479,0.0802191,0.2850576,0.56255394,0.2969986,0.28547794,0.22243595,0.035795175,-0.10082389,-0.19007422,0.30464092,-0.18089183,-0.4438486,-0.5574071,-0.2487324,751.8681,795.78754,812.71063,786.1172,654.7619,-0.334716796875,-0.03570556640625,0.94708251953125,2.041168212890625,-4.015045166015625,9.85443115234375,1,1.0,1.0,1.0,1.0,85.00
2021-04-14 09:37:48.569,0.7104629,0.60832673,0.7715222,0.5867053,0.32888222,0.3960953,0.254156,0.18947028,0.25355652,0.6501462,0.3713172,0.21485968,-0.1531116,-0.10727799,-0.23095395,0.16650243,-0.1706002,-0.4510788,-0.55962616,-0.258575,847.3626,817.5458,798.60803,820.3663,763.5531,-0.3587646484375,-0.0269775390625,0.93505859375,1.846771240234375,-4.35150146484375,12.27691650390625,1,1.0,1.0,1.0,1.0,85.00
2021-04-14 09:37:49.112,0.5484225,0.68801683,0.88773316,0.5083386,0.31478113,0.41930988,0.33763474,0.39871934,0.5312654,0.6501462,0.3513396,0.6175883,0.38523,-0.11154482,-0.3267476,0.608861,-0.38374257,-0.5309229,-0.4665493,-0.124951586,762.3443,799.011,808.68134,789.34064,962.6007,-0.34796142578125,-0.01953125,0.9398193359375,4.224395751953125,-4.8150634765625,-0.411224365234375,1,1.0,1.0,1.0,1.0,85.00
2021-04-14 09:37:49.655,0.3051678,0.5364561,0.7397009,0.2941473,0.34310007,0.28320086,0.13916762,0.3081302,0.5681146,0.5984535,0.3182781,0.63568664,0.1388352,-0.1560103,-0.41237253,0.37164915,-0.36670926,-0.5573068,-0.42627078,-0.14457357,830.0366,806.6667,807.47253,822.7839,983.1502,-0.3614501953125,-0.01910400390625,0.9365234375,5.7421875,-3.671112060546875,-1.1065673828125,1,1.0,1.0,1.0,1.0,85.00
2021-04-14 09:37:50.198,0.18688826,0.20954357,0.31787962,0.23732008,0.25412625,-0.082150124,-0.13020866,0.23551787,0.5834427,0.26621285,0.18372916,0.63880295,0.08167955,-0.13634135,-0.2736269,0.26336136,-0.3806217,-0.59147245,-0.47273993,-0.20920137,780.07324,800.6227,805.8608,796.99634,857.8388,-0.341064453125,-0.0057373046875,0.94970703125,10.90118408203125,-1.83929443359375,-10.759124755859375,1,1.0,1.0,1.0,1.0,85.00
2021-04-14 09:37:50.719,0.31715512,0.6399294,0.4446382,0.3203626,0.21954226,0.25318626,0.13887535,0.32954025,0.5596813,0.35459623,0.40542832,0.5676713,-0.040226754,-0.091163956,-0.12831846,0.24188343,-0.34238046,-0.72087765,-0.61697274,-0.22624856,842.52747,809.89014,800.6227,819.15753,834.0659,-0.33935546875,-0.0145263671875,0.9444580078125,4.000091552734375,-4.5758056640625,1.21124267578125,1,1.0,1.0,1.0,1.0,85.00
2021-04-14 09:37:51.240,0.40785706,0.6883236,0.43854657,0.55807424,0.10303016,0.28471363,0.15737167,0.34362438,0.56476206,0.35459623,0.40542832,0.5608281,0.15634547,-0.10923732,-0.12595318,0.36385757,-0.31341508,-0.76371825,-0.70606226,-0.18900822,855.82416,807.47253,797.8022,826.8132,804.65204,-0.3475341796875,-0.02764892578125,0.942138671875,4.613189697265625,-3.7982177734375,1.233673095703125,1,1.0,1.0,1.0,1.0,85.00
2021-04-14 09:37:51.776,0.39810216,0.553805,0.30990595,0.5710268,0.087153815,0.15345675,0.086735114,0.30024868,0.52683693,0.33944726,0.37621757,0.51049393,0.1578969,-0.0896557,-0.23709854,0.38989717,-0.31927395,-0.80963725,-0.7548166,-0.2023792,797.8022,800.2198,800.2198,804.2491,687.8022,-0.33953857421875,-0.02447509765625,0.943603515625,4.65057373046875,-5.084228515625,1.7047119140625,1,1.0,1.0,1.0,1.0,85.00
2021-04-14 09:37:52.317,0.017578674,-0.086702965,-0.19424932,0.5192281,0.08890628,-0.24041317,-0.29412448,0.012382642,0.30130777,0.20113654,0.18791085,0.50474304,0.17343445,-0.14640719,-0.32451156,0.30949935,-0.40856323,-0.7134656,-0.71325254,-0.25758886,833.663,803.8461,797.3993,816.337,716.8132,-0.3436279296875,-0.0362548828125,0.9366455078125,4.478607177734375,-4.373931884765625,0.530853271484375,1,1.0,1.0,1.0,1.0,85.00
2021-04-14 09:37:52.847,-0.0411104,-0.31112793,-0.2399666,0.313021,0.13159943,-0.18624821,-0.2656891,-0.009244173,0.44509354,0.15603451,0.21032405,0.4611218,0.088229224,-0.14353774,-0.21493833,0.23194714,-0.4895641,-0.6952201,-0.62404597,-0.26529688,863.8828,807.0696,803.8461,839.707,896.9231,-0.3475341796875,-0.0384521484375,0.93975830078125,4.62066650390625,-4.605712890625,0.904693603515625,1,1.0,1.0,1.0,1.0,85.00
2021-04-14 09:37:53.393,0.004046387,-0.2587033,-0.19685422,0.42442256,0.116979495,-0.10346674,-0.19232044,0.077830404,0.4520442,0.12842213,0.18703479,0.46472237,0.14554612,-0.25862744,-0.15797512,0.20330012,-0.35703322,-0.5890889,-0.56399226,-0.25089476,821.978,807.8755,801.8315,817.5458,732.9304,-0.34613037109375,-0.0313720703125,0.93963623046875,4.329071044921875,-4.2169189453125,0.904693603515625,1,1.0,1.0,1.0,1.0,85.00
2021-04-14 09:37:53.919,0.3467146,-0.108051166,-0.20414011,0.44661134,0.09395086,-0.1353766,-0.20705809,0.12470633,0.4527096,-0.015020708,0.109715275,0.30615777,0.12920228,-0.1441565,-0.10753165,0.05983062,-0.28238776,-0.5257408,-0.47744352,-0.2950215,763.1502,803.44324,804.2491,789.7436,577.3993,-0.34222412109375,-0.02880859375,0.94244384765625,4.9346923828125,-5.203857421875,0.64300537109375,1,1.0,1.0,1.0,1.0,85.00
2021-04-14 09:37:54.454,0.7031322,-0.078328475,-0.23389313,0.6567028,0.27689794,-0.14925082,-0.1720402,0.29992214,0.50686914,-0.11279593,0.090641454,0.34040272,0.16413777,-0.10377058,-0.09555949,0.049826384,-0.18322986,-0.48773074,-0.5009376,-0.33223858,806.26373,801.02563,800.6227,803.44324,757.9121,-0.34271240234375,-0.03515625,0.94500732421875,4.269256591796875,-4.583282470703125,0.052337646484375,1,1.0,1.0,1.0,1.0,85.00
2021-04-14 09:37:54.958,0.7177222,-0.03047498,-0.12975365,0.6371776,0.26785395,-0.25420088,-0.13977987,0.38251498,0.46268463,-0.1510889,0.09035107,0.33953136,0.16099367,-0.010568486,-0.09097845,0.2185296,-0.25186345,-0.560626,-0.5251565,-0.29124284,751.4652,800.2198,802.23444,774.83514,557.6557,-0.344970703125,-0.03582763671875,0.947509765625,4.20196533203125,-4.246826171875,0.67291259765625,1,1.0,1.0,1.0,1.0,85.00
2021-04-14 09:37:55.478,0.6080555,-0.069780715,-0.14389436,0.6248993,0.15348417,-0.22070177,-0.1185226,0.32843444,0.44561636,-0.058413293,0.0725616,0.36841685,0.16882351,0.08547788,-0.035662834,0.3765172,-0.25917208,-0.5741165,-0.6434405,-0.28050822,749.85345,799.41394,795.78754,774.83514,699.4872,-0.3485107421875,-0.0364990234375,0.94073486328125,4.119720458984375,-4.119720458984375,0.904693603515625,1,1.0,1.0,1.0,1.0,85.00
2021-04-14 09:37:55.997,0.1435305,-0.009369855,-0.13242833,0.4094791,0.041753616,-0.23363413,-0.21513104,0.13262214,0.030726159,-0.020165043,0.10605792,0.29283342,0.18167594,0.082295865,-0.04747606,0.52310216,-0.436833,-0.59997463,-0.7035453,-0.3056346,828.4249,804.2491,798.60803,809.89014,836.4835,-0.34149169921875,-0.030029296875,0.9442138671875,5.151519775390625,-4.6356201171875,1.114044189453125,1,1.0,1.0,1.0,1.0,90.00
2021-04-14 09:37:56.531,0.2140272,-0.117146336,-0.18492803,0.32851794,0.23668993,-0.14830492,-0.33902475,0.14775553,0.19872808,0.013708782,0.065093376,0.27728495,0.14263852,0.03747653,-0.101862684,0.45990548,-0.48926833,-0.5782531,-0.69412374,-0.32703885,872.3443,809.4872,808.2784,840.10986,799.011,-0.33612060546875,-0.03057861328125,0.939208984375,4.26177978515625,-5.256195068359375,0.426177978515625,1,1.0,1.0,1.0,1.0,90.00
2021-04-14 09:37:57.061,0.254776,-0.12961547,-0.24231468,0.33447668,0.32388285,-0.18673414,-0.41716263,0.19397986,0.48125502,-0.031915143,0.045984738,0.28343523,0.030038,-0.13705707,-0.18527351,0.3396824,-0.513366,-0.62338287,-0.6193626,-0.34414804,836.08057,801.02563,799.41394,818.3516,834.0659,-0.336181640625,-0.03448486328125,0.94110107421875,4.50103759765625,-4.493560791015625,0.426177978515625,1,1.0,1.0,1.0,1.0,90.00
2021-04-14 09:37:57.605,0.30450973,-0.0831187,-0.29692343,0.44939172,0.3382395,-0.28396136,-0.42159617,0.21594444,0.4974641,-0.06649462,-0.04285738,0.23021314,-0.027217856,-0.150912,-0.2039327,0.06717975,-0.4906614,-0.59678566,-0.59835905,-0.2984713,855.42126,811.0989,807.8755,831.2454,792.5641,-0.3525390625,-0.037841796875,0.942138671875,4.284210205078125,-4.5159912109375,1.45050048828125,1,1.0,1.0,1.0,1.0,90.00
2021-04-14 09:37:58.150,0.20015076,-0.01882272,-0.3853712,0.41032618,0.18760076,-0.47630906,-0.3995653,0.08102411,0.48475194,-0.061346415,-0.038198415,0.2289987,0.13077581,-0.15019484,-0.22045174,0.08018595,-0.4255975,-0.6112525,-0.6359597,-0.28685942,800.2198,803.0403,802.23444,796.1905,713.5897,-0.3360595703125,-0.0404052734375,0.94384765625,5.38330078125,-4.56085205078125,1.136474609375,1,1.0,1.0,1.0,1.0,90.00
2021-04-14 09:37:58.637,,,,,,,,,,,,,,,,,,,,,,,,,,,,,,,,,,,,,,/muse/elements/blink
2021-04-14 09:37:58.694,0.096623726,-0.081825025,-0.35741326,0.26227567,0.377944,-0.4867481,-0.24069408,0.12948224,0.9239566,-0.09449109,0.024061838,0.3157241,0.2037454,-0.16221854,-0.13061184,0.123233445,-0.43342605,-0.56511116,-0.6795055,-0.27338162,742.1978,801.4286,799.41394,768.3883,677.72894,-0.34613037109375,-0.02825927734375,0.94482421875,4.553375244140625,-6.47491455078125,0.67291259765625,1,1.0,1.0,1.0,1.0,90.00
2021-04-14 09:37:59.221,0.7106022,-0.22060932,-0.12456728,-0.3041575,0.7977823,-0.30823922,-0.11115675,0.10323093,1.19809,-0.11051089,0.21352401,0.30397207,0.3752367,-0.24317038,-0.12047027,0.15813604,-0.40355405,-0.5310826,-0.6030162,-0.3009219,835.2747,808.2784,800.2198,813.1135,949.707,-0.32769775390625,-0.0670166015625,0.9422607421875,4.6954345703125,-5.166473388671875,-0.441131591796875,1,1.0,1.0,1.0,1.0,90.00
2021-04-14 09:37:59.456,,,,,,,,,,,,,,,,,,,,,,,,,,,,,,,,,,,,,,/muse/elements/blink
2021-04-14 09:37:59.765,0.8739021,0.17584033,-0.09609106,-0.2774428,0.93559545,-0.16602316,-0.16100296,0.18959217,1.19809,-0.10649366,0.2157362,0.28994873,0.38445404,-0.19040804,-0.09537106,0.15712903,-0.47336847,-0.43390417,-0.53768533,-0.30440366,833.663,809.4872,803.0403,823.1868,741.39197,-0.25579833984375,-0.0179443359375,0.97125244140625,5.330963134765625,-8.336639404296875,2.4224853515625,1,1.0,1.0,1.0,1.0,90.00
2021-04-14 09:38:00.285,1.0203285,0.5052254,0.051574353,-0.2774428,1.015705,-0.10563136,-0.20668757,0.18959217,1.1772027,-0.27675167,0.19280918,0.28994873,0.42510748,-0.13540241,-0.14866647,0.15712903,-0.45348373,-0.44333887,-0.5755967,-0.30440366,505.27472,772.01465,808.68134,514.5421,635.42126,-0.249267578125,-0.03521728515625,0.97412109375,0.73272705078125,-0.83740234375,0.575714111328125,1,1.0,1.0,1.0,1.0,90.00
2021-04-14 09:38:00.464,,,,,,,,,,,,,,,,,,,,,,,,,,,,,,,,,,,,,,/muse/elements/blink
2021-04-14 09:38:00.822,0.9104912,0.9344286,0.105437845,-0.2774428,0.84852815,0.23604038,0.033914972,0.18959217,1.023441,-0.061052684,0.121827416,0.28994873,0.23454057,-0.036046572,-0.11927635,0.15712903,-0.4802985,-0.491088,-0.62897253,-0.30440366,819.9634,804.2491,803.8461,813.91943,731.31866,-0.29296875,-0.059814453125,0.9583740234375,6.138458251953125,-2.31781005859375,1.278533935546875,1,1.0,1.0,1.0,1.0,90.00
2021-04-14 09:38:01.367,0.9104912,1.0782146,0.21688639,-0.2774428,0.84852815,0.369434,0.2649076,0.18959217,1.023441,0.0672447,0.10875112,0.28994873,0.23454057,-0.013461096,-0.046368327,0.15712903,-0.4802985,-0.5524392,-0.5350292,-0.30440366,792.1612,800.6227,808.68134,809.4872,649.12085,-0.30474853515625,-0.0648193359375,0.95745849609375,3.70849609375,-3.7384033203125,5.226287841796875,1,1.0,1.0,1.0,1.0,90.00
2021-04-14 09:38:01.912,0.9104912,1.0219738,0.1964787,-0.2774428,0.84852815,0.40331087,0.30316183,0.18959217,1.023441,0.20901257,0.1485907,0.28994873,0.23454057,-0.0686263,-0.010107164,0.15712903,-0.4802985,-0.5624931,-0.33490732,-0.30440366,834.87177,809.89014,800.6227,823.1868,763.1502,-0.31048583984375,-0.0347900390625,0.95538330078125,6.20574951171875,-3.648681640625,1.084136962890625,1,1.0,1.0,1.0,1.0,90.00
2021-04-14 09:38:02.459,0.9104912,0.55565274,0.3167509,0.9428348,0.84852815,0.12732933,0.1648023,1.0577725,1.023441,0.20099469,0.22005863,0.85675985,0.23454057,-0.046807405,-0.06290544,0.31487685,-0.4802985,-0.490547,-0.29196057,-0.035593033,835.6777,802.23444,799.81683,815.5311,781.685,-0.31988525390625,-0.04608154296875,0.95184326171875,4.523468017578125,-2.88604736328125,-0.64300537109375,1,2.0,1.0,1.0,2.0,90.00
2021-04-14 09:38:02.975,0.37891415,0.10004214,0.25062874,0.62763476,0.8196729,-0.028520932,-0.021576528,0.97025865,0.5833128,0.10550503,0.23098014,0.85675985,0.23938882,-0.086392306,-0.11497775,0.18790315,-0.10111688,-0.47329837,-0.3855627,-0.09909716,816.7399,807.47253,805.4579,809.0842,718.022,-0.31005859375,-0.039306640625,0.95599365234375,4.42626953125,-5.555267333984375,2.190704345703125,1,1.0,1.0,1.0,1.0,90.00
2021-04-14 09:38:03.482,0.32371202,-0.10012037,0.035129827,0.5245638,0.76859856,-0.10479289,-0.06650974,0.82974607,0.6661477,0.11646628,0.1928059,0.85675985,0.17853813,-0.11447105,-0.06790305,0.22821449,-0.21448314,-0.5071654,-0.546565,-0.17090553,781.28204,809.0842,805.8608,797.3993,786.9231,-0.3089599609375,-0.03912353515625,0.94659423828125,3.925323486328125,-2.863616943359375,5.1141357421875,1,1.0,1.0,1.0,1.0,90.00
2021-04-14 09:38:03.995,0.2712441,-0.4356925,-0.56311584,0.11405511,0.8299415,0.048632372,-0.28411618,0.7604232,0.7622182,0.3476212,0.3263809,0.6766257,0.2058258,-0.18107575,-0.05672003,0.24987455,-0.40243626,-0.6055215,-0.61301285,-0.26088154,765.16486,799.41394,805.4579,779.67035,708.3516,-0.31500244140625,-0.0289306640625,0.95098876953125,3.491668701171875,-4.463653564453125,0.590667724609375,1,1.0,1.0,1.0,1.0,90.00
2021-04-14 09:38:04.550,0.452641,-0.27546805,-0.43002638,0.19317205,0.97574246,0.2315001,-0.1279516,0.80375755,0.8898312,0.44344708,0.35734206,0.72956747,0.19011557,-0.06104426,-0.0911552,0.26958954,-0.47834155,-0.6767152,-0.71758395,-0.37369734,777.6557,802.23444,802.23444,788.5348,687.8022,-0.32586669921875,-0.0242919921875,0.94989013671875,4.194488525390625,-1.996307373046875,-0.381317138671875,1,1.0,1.0,1.0,1.0,90.00
2021-04-14 09:38:05.092,0.47907677,-0.2947766,-0.24748538,0.11981556,0.9624577,0.19150615,-0.24812202,0.8190131,0.926844,0.46423286,0.3536792,0.73383975,0.15454274,-0.059696395,-0.16874155,0.16253296,-0.40260166,-0.5802579,-0.60254973,-0.38893062,773.6264,813.5165,785.31134,767.1795,718.4249,-0.341064453125,-0.0267333984375,0.94366455078125,3.36456298828125,-3.5589599609375,-1.09161376953125,1,1.0,1.0,1.0,1.0,90.00
2021-04-14 09:38:05.594,0.48932257,-0.1574616,-0.05510438,0.4943458,0.86712927,0.10597946,-0.05256762,0.73911375,0.9465027,0.31899384,0.100860916,0.93104446,0.1466129,-0.12996833,-0.20699616,0.08043119,-0.32239324,-0.5821813,-0.5574802,-0.42955872,809.89014,808.68134,802.23444,805.05493,864.68866,-0.33843994140625,-0.03533935546875,0.93896484375,3.529052734375,-3.24493408203125,-2.07855224609375,1,1.0,1.0,1.0,1.0,90.00
2021-04-14 09:38:06.119,0.48246053,-0.018881489,0.17355174,0.71357554,0.6664924,-0.13656485,0.12152073,0.700266,0.8738318,0.09525275,0.11315181,0.97054005,0.17179725,-0.17869093,-0.1820994,0.121538505,-0.25790438,-0.49538183,-0.5184265,-0.39685017,791.75824,801.4286,804.65204,798.20514,826.4103,-0.34259033203125,-0.0296630859375,0.93817138671875,4.127197265625,-3.162689208984375,2.4822998046875,1,1.0,1.0,1.0,1.0,90.00
2021-04-14 09:38:06.460,,,,,,,,,,,,,,,,,,,,,,,,,,,,,,,,,,,,,,/muse/elements/blink
2021-04-14 09:38:06.629,0.53396744,0.18570642,0.14658523,0.87046784,0.5824917,-0.15745534,0.25730532,0.7775888,0.75751936,0.100108184,0.12635621,0.97054005,0.20337385,-0.05689269,-0.09541712,0.20096256,-0.27387404,-0.45160007,-0.51094127,-0.40698546,819.5604,805.4579,809.89014,809.89014,792.96704,-0.3385009765625,-0.041748046875,0.94635009765625,4.463653564453125,-5.316009521484375,0.88226318359375,1,1.0,1.0,1.0,1.0,85.00
2021-04-14 09:38:06.895,,,,,,,,,,,,,,,,,,,,,,,,,,,,,,,,,,,,,,/muse/elements/blink
2021-04-14 09:38:07.174,0.6919863,0.36685124,0.35618836,0.8849382,0.6664402,0.0274746,0.25779355,0.8700472,0.98474395,0.32985777,0.20144902,0.9393312,0.17721301,-0.013784051,-0.054095536,0.22324261,-0.34037068,-0.3956154,-0.5266941,-0.38587388,782.8938,802.6374,799.41394,794.9817,622.52747,-0.35467529296875,-0.01397705078125,0.935791015625,8.007659912109375,-2.953338623046875,0.897216796875,1,1.0,1.0,1.0,1.0,85.00
2021-04-14 09:38:07.706,0.784493,0.71868294,0.77979773,0.8849382,0.5678118,0.33491614,0.33337986,0.8700472,0.9745218,0.37045628,0.17310171,0.9393312,0.0917409,-0.0938892,-0.080645636,0.22324261,-0.2902704,-0.41758513,-0.5667718,-0.38587388,792.96704,800.6227,798.60803,799.41394,705.9341,-0.35693359375,-0.0318603515625,0.9395751953125,1.74957275390625,-6.198272705078125,-0.10467529296875,1,1.0,1.0,1.0,1.0,85.00
2021-04-14 09:38:08.223,0.784493,0.69947106,0.77475286,0.8849382,0.5678118,0.3170844,0.26324803,0.8700472,0.9745218,0.37045628,0.012286026,0.9393312,0.0917409,-0.2679876,-0.07487213,0.22324261,-0.2902704,-0.5151933,-0.6432936,-0.38587388,770.80585,804.2491,802.6374,783.69965,668.86444,-0.376953125,-0.02374267578125,0.9322509765625,2.40753173828125,-3.18511962890625,2.94586181640625,1,1.0,1.0,1.0,1.0,85.00
2021-04-14 09:38:08.744,0.15224753,0.5276888,0.5716163,0.62496096,0.42288885,0.16600342,0.07316069,-0.1405614,0.4083523,0.061086245,-0.11531557,-0.07838429,0.11514984,-0.19962561,-0.0039023706,0.30287126,0.006574669,-0.5140898,-0.587449,0.1524307,791.3553,801.8315,799.011,798.60803,645.09155,-0.37548828125,-0.00775146484375,0.9305419921875,4.91973876953125,-1.517791748046875,-0.471038818359375,1,1.0,1.0,1.0,1.0,85.00
2021-04-14 09:38:09.251,0.6232585,-0.09265425,-0.3856287,0.69496685,0.40865123,-0.13547407,-0.5471294,0.21572329,0.51522565,-0.06862144,-0.073863074,0.271094,0.2062399,-0.119009644,-0.0021603187,0.36952785,0.06010097,-0.44761568,-0.48423117,0.18039429,757.1062,803.44324,801.02563,774.0293,748.24176,-0.382080078125,-0.0115966796875,0.92633056640625,5.4730224609375,-1.951446533203125,1.42059326171875,1,1.0,1.0,1.0,1.0,85.00
2021-04-14 09:38:09.796,0.7598587,-0.06992355,-0.22090782,0.7082659,0.4234182,-0.06799122,-0.35128742,0.23713447,0.5358379,0.11685401,0.030731032,0.271094,0.25150147,-0.07648707,-0.0416356,0.37151024,0.14678824,-0.40572104,-0.4927891,0.21007264,835.2747,807.8755,802.23444,820.7692,701.50183,-0.366943359375,-0.0079345703125,0.936279296875,2.863616943359375,-5.809478759765625,0.530853271484375,1,1.0,1.0,1.0,1.0,85.00
2021-04-14 09:38:10.317,0.7767615,-0.09697212,-0.14449081,0.57031703,0.33589533,-0.14345087,-0.36756384,0.311903,0.54895395,0.16558535,0.06258461,0.29318815,0.31566077,-0.10969846,-0.18563405,0.35168338,0.047222443,-0.41128,-0.55726737,0.06296784,816.337,801.8315,801.02563,803.8461,826.0073,-0.3624267578125,-0.00921630859375,0.9361572265625,5.450592041015625,-5.4730224609375,-0.43365478515625,1,1.0,1.0,1.0,1.0,85.00
2021-04-14 09:38:10.845,0.5978021,-0.14708571,-0.08073773,0.28603187,0.33911234,-0.19501272,-0.25226426,0.52423614,0.5171717,0.16558535,0.13288343,0.38470328,0.41803384,-0.12446075,-0.21145868,0.45542762,-0.09271962,-0.5069254,-0.65860105,-0.21694098,767.5824,801.02563,800.2198,787.326,672.49084,-0.36175537109375,-0.0181884765625,0.9344482421875,3.401947021484375,-5.3533935546875,-0.186920166015625,1,1.0,1.0,1.0,1.0,85.00
2021-04-14 09:38:11.388,0.34268284,-0.19305827,-0.1799008,0.2799896,0.23144703,-0.44245866,-0.25194144,0.4676886,0.5392501,-0.020186286,0.11200432,0.49782524,0.29415214,-0.16117157,-0.24589895,0.34496042,-0.35101485,-0.53757674,-0.6319447,-0.2745075,803.0403,811.0989,807.47253,803.44324,697.8755,-0.36334228515625,-0.0174560546875,0.9306640625,4.837493896484375,-2.983245849609375,0.097198486328125,1,1.0,1.0,1.0,1.0,85.00
2021-04-14 09:38:11.893,0.39060575,-0.039713856,-0.17106746,0.42561102,0.3484731,-0.2067447,-0.23748504,0.5582809,0.52490443,-0.021420492,-0.05730112,0.51746553,0.17053063,-0.20173779,-0.23525298,0.29608858,-0.37994707,-0.5276157,-0.70094126,-0.38402715,826.8132,808.68134,803.0403,816.337,738.1685,-0.36767578125,-0.0218505859375,0.93084716796875,3.30474853515625,-3.297271728515625,0.22430419921875,1,1.0,1.0,1.0,1.0,85.00
2021-04-14 09:38:12.402,0.2902719,-0.053161953,-0.35852486,0.3702348,0.3220156,-0.19403408,-0.35388047,0.4059522,0.41001353,-0.012117428,-0.27041888,0.4687464,0.013377118,-0.18962763,-0.31744722,0.091457956,-0.5133045,-0.5515119,-0.69878817,-0.41805565,779.67035,807.0696,806.26373,779.67035,730.10986,-0.37744140625,-0.035888671875,0.9312744140625,3.93280029296875,-5.15899658203125,0.76263427734375,1,1.0,1.0,1.0,1.0,85.00
2021-04-14 09:38:12.939,0.3916809,-0.12461338,-0.39022762,0.49349213,0.32887515,-0.185361,-0.3612275,0.40922767,0.28241733,-0.08083134,-0.11727611,0.3316929,0.052488428,-0.14805986,-0.2884856,0.14940786,-0.49649152,-0.5302439,-0.70811754,-0.36648563,759.92676,797.8022,803.0403,780.4762,652.3443,-0.36517333984375,-0.03057861328125,0.9324951171875,4.254302978515625,-5.0543212890625,1.4654541015625,1,1.0,1.0,1.0,1.0,85.00
2021-04-14 09:38:13.443,0.29638028,-0.26061437,-0.4910811,0.36619788,0.19273004,-0.34628823,-0.4064684,0.2646694,0.28063065,-0.13009034,-0.14185703,0.12710324,0.116222255,-0.14875396,-0.29533178,0.1673828,-0.5014119,-0.5660834,-0.6536119,-0.2866779,794.57874,803.44324,805.4579,784.10254,772.8205,-0.3779296875,-0.03704833984375,0.92010498046875,4.015045166015625,-5.480499267578125,-0.605621337890625,1,1.0,1.0,1.0,1.0,85.00
2021-04-14 09:38:13.962,0.29941693,-0.3170396,-0.35993636,0.34599164,0.090473,-0.32190964,-0.42023918,0.3385154,0.2812493,-0.036207717,-0.19120768,0.23998788,0.010156635,-0.18517838,-0.2256622,0.14475758,-0.47051218,-0.57574177,-0.6575656,-0.29735357,843.73627,807.8755,808.68134,835.2747,820.3663,-0.3687744140625,-0.02777099609375,0.93402099609375,6.4898681640625,-3.0804443359375,2.056121826171875,1,1.0,1.0,1.0,1.0,85.00
2021-04-14 09:38:14.476,0.08438829,-0.46587837,-0.069023915,0.11679466,0.22167996,-0.1893394,-0.5382478,0.39851183,0.51186025,-0.010219829,-0.28771684,0.38822582,0.040551934,-0.23339088,-0.20839918,0.097291425,-0.49378338,-0.603683,-0.61578244,-0.3432565,838.49817,806.26373,806.6667,826.8132,801.4286,-0.3712158203125,-0.0218505859375,0.93731689453125,5.794525146484375,-2.938385009765625,0.171966552734375,1,1.0,1.0,1.0,1.0,85.00
2021-04-14 09:38:14.904,,,,,,,,,,,,,,,,,,,,,,,,,,,,,,,,,,,,,,/muse/elements/blink
2021-04-14 09:38:15.013,0.07048423,-0.27153343,0.06656428,0.14406784,0.3219426,-0.12287224,-0.42024258,0.4795909,0.5078159,0.02166748,-0.21155326,0.37589386,0.04461981,-0.22193362,-0.16561736,0.08445562,-0.46639606,-0.5827661,-0.61057055,-0.3501138,892.8938,816.7399,802.6374,876.3736,757.9121,-0.3555908203125,-0.03778076171875,0.93359375,4.912261962890625,-5.839385986328125,1.1962890625,1,1.0,1.0,1.0,1.0,85.00
2021-04-14 09:38:15.529,0.051190745,0.36725956,0.68967205,0.17870031,0.40936792,0.015021666,-0.040119424,0.4312818,0.49730593,0.14946097,-0.0948795,0.3575128,-8.0720783E-4,-0.21191747,-0.096495904,0.10016559,-0.41644293,-0.4985222,-0.5983457,-0.3125669,767.98535,809.0842,805.8608,782.0879,685.78754,-0.35186767578125,-0.03167724609375,0.9400634765625,3.551483154296875,-4.927215576171875,0.82244873046875,1,1.0,1.0,1.0,1.0,85.00
2021-04-14 09:38:16.046,-0.15306552,0.37451845,0.69158137,0.15709701,0.41454694,0.05350862,0.03167697,0.33873025,0.42510435,-0.014324257,-0.0948795,0.27517518,-0.112251095,-0.22363776,-0.10162752,0.10755276,-0.33917156,-0.4305207,-0.48400536,-0.25979078,798.60803,803.8461,805.05493,798.60803,884.83514,-0.3497314453125,-0.03533935546875,0.9293212890625,4.224395751953125,-5.226287841796875,0.7476806640625,1,1.0,1.0,1.0,1.0,85.00
2021-04-14 09:38:16.562,0.8801525,0.3326219,0.66120946,0.9656118,0.65855277,0.009290958,2.5041361E-5,0.39834023,0.65407383,-0.014324257,-0.16930708,0.709096,0.4709509,-0.23736663,-0.04163524,0.49416485,-0.43842155,-0.46015197,-0.4445285,-0.11316086,840.5128,806.6667,808.68134,828.4249,815.5311,-0.34844970703125,-0.03118896484375,0.9466552734375,4.80010986328125,-4.568328857421875,1.697235107421875,1,1.0,1.0,1.0,1.0,85.00
2021-04-14 09:38:17.098,0.763927,-0.517364,-0.034586806,0.75778335,0.576337,-0.1852532,-0.27774668,0.38532227,0.815659,-0.046035707,-0.24360676,0.709096,0.27814522,-0.27328682,-0.04257973,0.35014006,-0.42901453,-0.50406533,-0.4189542,-0.16068399,841.7216,808.2784,802.6374,826.0073,827.2161,-0.355224609375,-0.02215576171875,0.93707275390625,5.51788330078125,-2.0037841796875,1.443023681640625,1,1.0,1.0,1.0,1.0,85.00
2021-04-14 09:38:17.604,0.65452784,-0.5604606,-0.16829102,0.69197863,0.5599515,-0.43344793,-0.45969847,0.35023156,0.815659,-0.08676159,-0.30802563,0.7109676,0.22551091,-0.19126807,-0.0079618525,0.3249348,-0.40737563,-0.62471324,-0.5414405,-0.20823754,846.1539,811.9048,799.011,830.4396,871.53845,-0.37646484375,-0.0345458984375,0.929931640625,5.7720947265625,-1.637420654296875,2.983245849609375,1,1.0,1.0,1.0,1.0,85.00
2021-04-14 09:38:18.113,0.48158082,-0.38395995,-0.09740105,0.47856945,0.50193465,-0.41049647,-0.48087323,0.30754924,0.7200505,-0.049004484,-0.15865639,0.52276397,0.08559309,-0.17012642,-0.07417231,0.2465679,-0.37124982,-0.5580349,-0.6018951,-0.24712992,846.1539,805.8608,796.5934,823.9927,798.60803,-0.39111328125,0.042236328125,0.9244384765625,9.9591064453125,-1.5252685546875,3.028106689453125,1,1.0,1.0,1.0,1.0,85.00
2021-04-14 09:38:18.631,0.32845557,-0.22614856,0.059540745,0.51148736,0.50098646,-0.18914023,-0.18773772,0.23360735,0.39094305,0.23158059,-0.014781928,0.43941686,0.13001548,-0.11748792,-0.1218486,0.3004001,-0.33333418,-0.54792035,-0.5817143,-0.2656275,785.31134,790.54944,811.0989,810.696,997.25275,-0.3984375,0.02777099609375,0.91473388671875,3.342132568359375,-4.299163818359375,-1.495361328125,1,1.0,1.0,1.0,1.0,85.00
2021-04-14 09:38:19.180,0.32834083,0.2481688,0.28142598,0.50225246,0.45023948,0.12933055,-0.05412452,0.039828885,0.038981847,0.3057964,0.09258949,0.3316772,0.1748153,-0.15433669,-0.12686108,0.35090682,-0.262525,-0.5254089,-0.5994614,-0.16876331,826.0073,809.89014,796.1905,804.65204,684.9817,-0.38421630859375,0.0244140625,0.92425537109375,4.14215087890625,-6.1309814453125,0.590667724609375,1,1.0,1.0,1.0,1.0,85.00
2021-04-14 09:38:19.690,0.32834083,0.89991146,0.7833625,0.50225246,0.45023948,0.35019422,0.23160015,0.039828885,0.038981847,0.39952713,0.22171219,0.3316772,0.1748153,-0.18406539,-0.0196021,0.35090682,-0.262525,-0.5450697,-0.5482115,-0.16876331,888.86444,803.8461,794.9817,890.4762,856.63007,-0.369873046875,0.0185546875,0.92889404296875,4.38140869140625,-5.8319091796875,1.443023681640625,1,1.0,1.0,1.0,1.0,85.00
2021-04-14 09:38:19.753,,,,,,,,,,,,,,,,,,,,,,,,,,,,,,,,,,,,,,/muse/elements/blink
2021-04-14 09:38:20.214,0.32834083,0.94217634,0.78436536,0.50225246,0.45023948,0.31195408,0.24296325,0.039828885,0.038981847,0.37045264,0.20848545,0.3316772,0.1748153,-0.23500402,0.011894896,0.35090682,-0.262525,-0.5892717,-0.58006763,-0.16876331,793.36993,806.6667,802.23444,799.41394,653.95605,-0.38336181640625,0.0130615234375,0.92474365234375,4.329071044921875,-2.27294921875,-0.37384033203125,1,1.0,1.0,1.0,1.0,85.00
2021-04-14 09:38:20.762,0.32834083,0.8686951,0.7214142,0.50225246,0.45023948,0.15082496,0.1993904,0.039828885,0.038981847,0.3182678,0.17841172,0.3316772,0.1748153,-0.20256636,-0.03538858,0.35090682,-0.262525,-0.53643167,-0.5259126,-0.16876331,815.9341,803.0403,801.8315,804.2491,837.6923,-0.39093017578125,0.01123046875,0.924560546875,5.00946044921875,-5.0543212890625,1.278533935546875,1,2.0,1.0,1.0,2.0,85.00
2021-04-14 09:38:21.269,0.32834083,0.19534825,0.089417994,0.50225246,0.45023948,-0.17263173,-0.11218766,0.039828885,0.038981847,0.0585758,-0.05361577,0.3316772,0.1748153,-0.20562467,-0.18208979,0.35090682,-0.262525,-0.4987757,-0.5813912,-0.16876331,860.2564,809.89014,804.2491,834.4689,837.6923,-0.3863525390625,0.02520751953125,0.9229736328125,5.779571533203125,-8.673095703125,2.25799560546875,1,2.0,1.0,1.0,2.0,85.00
2021-04-14 09:38:21.802,0.036225006,-0.11025527,-0.43465272,0.4278943,-0.32886088,-0.12448681,-0.45278355,-0.15724981,0.024491398,-0.025954314,-0.3337894,0.08783144,-0.15191913,-0.19845574,-0.33020937,0.12558274,-0.6006099,-0.52965736,-0.58018667,-0.47798938,819.5604,813.1135,807.47253,805.4579,678.1319,-0.3792724609375,0.01446533203125,0.92779541015625,3.170166015625,-4.882354736328125,-0.082244873046875,1,1.0,1.0,1.0,1.0,85.00
2021-04-14 09:38:22.304,0.094694704,-0.20594685,-0.6577973,0.5231744,-0.039840467,-0.1143224,-0.44784573,0.32941943,0.30539843,0.0332246,-0.19886707,0.550245,0.03575937,-0.1818739,-0.29953352,0.22728147,-0.45079193,-0.69790775,-0.6585376,-0.54522187,756.30035,801.4286,805.4579,784.90845,619.304,-0.3760986328125,0.015869140625,0.93304443359375,4.807586669921875,-4.598236083984375,1.42059326171875,1,1.0,1.0,1.0,1.0,85.00
2021-04-14 09:38:22.815,0.16944245,-0.24444665,-0.66044766,0.55487156,0.07979333,-0.15180016,-0.2783915,0.41472262,0.3020998,0.04663242,0.16175857,0.553941,0.050953306,-0.13228065,-0.2505399,0.21890032,-0.356835,-0.64752334,-0.58548087,-0.5223832,757.50916,804.65204,796.1905,779.2674,681.75824,-0.3670654296875,0.00396728515625,0.93194580078125,4.38140869140625,-5.21881103515625,-0.157012939453125,1,1.0,1.0,1.0,1.0,85.00
2021-04-14 09:38:23.336,0.21063651,-0.44799966,-0.60172117,0.48667434,0.18397836,-0.26123172,-0.2510223,0.51652026,0.32084525,0.064302035,0.16175857,0.60243404,0.12999249,-0.10180139,-0.18357958,0.23955119,-0.32420012,-0.5449423,-0.5729521,-0.50381345,830.84247,803.8461,806.26373,811.50183,810.293,-0.3658447265625,0.00421142578125,0.93353271484375,4.658050537109375,-5.405731201171875,0.22430419921875,1,1.0,1.0,1.0,1.0,85.00
2021-04-14 09:38:23.850,0.24946126,-0.18586712,-0.39945522,0.27590856,0.1271828,-0.34689292,-0.23878232,0.39042142,0.23585442,-0.16699298,0.23417838,0.5077769,0.038992394,-0.15706946,-0.16161424,0.16443002,-0.38063142,-0.51409876,-0.5729216,-0.45985124,834.0659,791.75824,806.6667,818.7546,861.4652,-0.365478515625,0.0037841796875,0.93194580078125,4.605712890625,-4.41131591796875,0.994415283203125,1,1.0,1.0,1.0,1.0,85.00
2021-04-14 09:38:24.051,,,,,,,,,,,,,,,,,,,,,,,,,,,,,,,,,,,,,,/muse/elements/blink
2021-04-14 09:38:24.395,0.4844649,0.38016784,-0.17887402,0.44684112,0.76745075,0.12963808,-0.23110463,0.84142166,1.1652261,0.11157806,0.23558842,1.0597656,0.13413079,-0.12467619,-0.07845107,0.22204159,-0.39111653,-0.5789623,-0.612443,-0.34570825,741.39197,801.02563,800.6227,776.4469,657.98535,-0.3690185546875,4.2724609375E-4,0.9354248046875,4.35150146484375,-4.792633056640625,0.650482177734375,1,1.0,1.0,1.0,1.0,85.00
2021-04-14 09:38:24.903,0.8999294,0.6344502,0.008100283,0.7237703,1.3524538,0.39415175,-0.0090954825,1.1116722,1.2506021,0.21906412,0.26452714,1.1229029,0.22405244,-0.09675016,-0.0012735146,0.24430747,-0.24072818,-0.5419267,-0.69020724,-0.29679307,765.16486,810.696,801.4286,782.0879,645.89746,-0.36846923828125,4.2724609375E-4,0.93121337890625,5.09918212890625,-4.254302978515625,0.82244873046875,1,1.0,1.0,1.0,1.0,85.00
2021-04-14 09:38:25.408,1.1248733,0.7581622,0.11478506,0.82635987,1.3849615,0.41810524,0.07078118,1.1084449,1.2561957,0.21906412,0.17824617,1.1185728,0.3310764,-0.09616375,-0.013895591,0.27493232,-0.22478087,-0.43824592,-0.6684329,-0.25710335,755.4945,803.0403,802.6374,771.2088,769.19415,-0.35723876953125,0.00494384765625,0.93402099609375,4.942169189453125,-5.585174560546875,0.979461669921875,1,1.0,1.0,1.0,1.0,85.00
2021-04-14 09:38:25.914,0.9289228,0.52136815,0.096623115,0.75174195,1.0194588,0.11295607,-0.0039584,0.7430704,1.2049849,0.20406549,0.05185377,1.0250604,0.22926465,-0.12847792,-0.13037167,0.20466124,-0.33907232,-0.45310754,-0.6237091,-0.32906,823.5897,811.50183,800.2198,806.26373,765.56775,-0.364013671875,-0.010986328125,0.9312744140625,4.044952392578125,-3.78326416015625,0.07476806640625,1,1.0,1.0,1.0,1.0,85.00
2021-04-14 09:38:26.429,0.8085049,0.31549567,0.017545726,0.66094494,0.5162586,-0.193429,-0.19360787,0.23607594,0.641386,-0.08815683,-0.20130044,0.572598,0.24321313,-0.122458585,-0.22591709,0.19788982,-0.39609826,-0.6325949,-0.6254437,-0.34549692,858.6447,804.65204,804.2491,829.2308,882.01465,-0.35748291015625,-0.0042724609375,0.93548583984375,4.486083984375,-4.299163818359375,0.478515625,1,1.0,1.0,1.0,1.0,85.00
2021-04-14 09:38:26.939,0.4317597,-0.33378148,-0.25106615,0.51282746,0.35905042,-0.5059237,-0.41421685,0.34063217,0.46876535,-0.11577643,-0.25548223,0.5368217,0.19292076,-0.13248286,-0.24140781,0.20032,-0.42367995,-0.78462344,-0.60758716,-0.4426788,811.0989,805.8608,798.60803,808.2784,755.09155,-0.35943603515625,-0.00439453125,0.9344482421875,4.5159912109375,-4.628143310546875,0.19439697265625,1,1.0,1.0,1.0,1.0,85.00
2021-04-14 09:38:27.471,0.37650833,-0.37403503,-0.40572017,0.3553471,0.12058889,-0.46133447,-0.40251765,0.27603146,0.44046777,-0.050530847,-0.15353784,0.5103839,0.15301418,-0.10399659,-0.24829754,0.20075725,-0.4659104,-0.77166784,-0.6029124,-0.4853148,757.9121,813.1135,803.0403,786.9231,509.30402,-0.36175537109375,-0.011474609375,0.93475341796875,4.5758056640625,-4.44122314453125,0.478515625,1,1.0,1.0,1.0,1.0,85.00
2021-04-14 09:38:27.990,0.15412569,-0.39174968,-0.4156542,0.08408283,0.016837908,-0.39238274,-0.40390646,0.26014826,0.18941486,-0.12747794,-0.078166716,0.32412508,-7.621528E-4,-0.08176042,-0.22324273,0.14399637,-0.58997005,-0.67848504,-0.6200969,-0.41710687,755.4945,801.8315,798.20514,773.6264,734.5421,-0.3651123046875,-0.0059814453125,0.9366455078125,4.553375244140625,-4.29168701171875,0.95703125,1,1.0,1.0,1.0,1.0,85.00
2021-04-14 09:38:28.523,0.27715123,-0.26204765,-0.28450686,0.33834055,0.40491375,-0.17471936,-0.17810428,0.6161166,0.47186306,-0.11134647,-0.11511643,0.6559208,-0.062397942,-0.037603628,-0.21408547,0.09411069,-0.5383101,-0.65107954,-0.7042337,-0.3338908,830.84247,805.8608,792.5641,809.0842,784.90845,-0.36297607421875,-0.00567626953125,0.93438720703125,4.14215087890625,-4.269256591796875,1.099090576171875,1,1.0,1.0,1.0,1.0,85.00
2021-04-14 09:38:29.070,0.19682577,-0.27700758,-0.3881521,0.31836942,0.48466045,-0.086773664,-0.07803924,0.6686801,0.6122711,0.12065979,-0.16689019,0.6830695,-0.0495865,-0.047751352,-0.22849026,0.11939859,-0.47345853,-0.62920624,-0.67959535,-0.34346417,843.3333,806.6667,794.57874,819.5604,829.6337,-0.3721923828125,-0.00885009765625,0.93377685546875,4.725341796875,-4.3963623046875,0.919647216796875,1,1.0,1.0,1.0,1.0,85.00
2021-04-14 09:38:29.580,0.17473766,-0.2941907,-0.33653474,0.3537045,0.4509891,-0.16168582,-0.08850662,0.62273264,0.6147853,0.118761234,-0.09052484,0.692112,0.039905865,-0.048082504,-0.2873092,0.19106342,-0.43472388,-0.5463176,-0.5142239,-0.39512306,851.79486,810.293,793.36993,819.15753,822.7839,-0.364501953125,-0.0093994140625,0.93927001953125,4.583282470703125,-4.9346923828125,1.024322509765625,1,1.0,1.0,1.0,1.0,85.00
2021-04-14 09:38:30.084,-0.057299543,-0.28689343,-0.2530674,-0.006021983,0.16253425,-0.19090965,-0.18070498,0.18033612,0.6332396,0.16462284,-0.025196413,0.66057175,0.109381855,0.057144094,-0.18390308,0.21983117,-0.48005196,-0.48523486,-0.43114737,-0.38332963,844.94507,800.2198,805.05493,823.9927,827.619,-0.3646240234375,-0.0096435546875,0.93402099609375,4.508514404296875,-4.403839111328125,0.9271240234375,1,1.0,1.0,1.0,1.0,85.00
2021-04-14 09:38:30.588,-0.109824106,-0.15581436,0.11200341,0.050167486,0.16154793,-0.20347059,-0.2475382,0.05772742,0.55230266,0.16088308,0.08269497,0.40770978,0.18300207,0.06855002,-0.10804439,0.30578476,-0.48986396,-0.4724084,-0.42625412,-0.43676603,758.315,794.9817,797.8022,776.04395,777.25275,-0.3658447265625,-0.00439453125,0.94036865234375,3.21502685546875,-5.443115234375,0.5084228515625,1,1.0,1.0,1.0,1.0,85.00
2021-04-14 09:38:31.095,0.42284474,-0.13969219,0.123632446,0.46103385,0.36001414,-0.11631553,-0.22054295,0.24033844,0.6774317,0.17002086,0.08817015,0.3564959,0.25787443,0.04498633,-0.10073108,0.28912267,-0.46868944,-0.5635165,-0.5353025,-0.44261232,752.674,802.23444,803.0403,777.6557,601.1722,-0.3580322265625,-0.005615234375,0.94097900390625,4.20196533203125,-4.18701171875,1.218719482421875,1,1.0,1.0,1.0,1.0,85.00
2021-04-14 09:38:31.617,0.6761587,-0.17720217,0.04926804,0.7185333,0.36909184,-0.16290303,-0.25348195,0.35151216,0.6460176,0.15045154,0.042427037,0.3341239,0.222019,-0.11514863,-0.22548634,0.2521439,-0.46806595,-0.61088824,-0.57672375,-0.3429777,806.6667,812.71063,801.02563,807.0696,769.59705,-0.36541748046875,-0.01055908203125,0.93231201171875,5.30853271484375,-3.529052734375,-0.276641845703125,1,1.0,1.0,1.0,1.0,85.00
2021-04-14 09:38:32.144,0.85424465,-0.03941988,-0.2308238,0.88669664,0.3896092,-0.16351339,-0.342589,0.4431689,0.6019363,0.062185857,-0.024730125,0.272885,0.21425778,-0.23129761,-0.30609745,0.13799852,-0.42818844,-0.546581,-0.6284384,-0.17080821,846.55676,794.57874,808.2784,831.2454,1224.5055,-0.38134765625,-0.00152587890625,0.92572021484375,4.329071044921875,-2.773895263671875,1.622467041015625,1,1.0,1.0,1.0,1.0,85.00
2021-04-14 09:38:32.673,0.7121352,0.08637353,-0.17729798,0.7495539,0.16309476,-0.23469625,-0.3503178,0.33231023,0.41270712,0.024734847,-0.10175496,0.49036852,0.10024172,-0.21906921,-0.31012604,0.13425739,-0.27054188,-0.47459143,-0.5486907,-0.025881194,751.06226,805.8608,796.5934,766.77655,673.2967,-0.37457275390625,-0.0037841796875,0.9312744140625,4.0972900390625,-5.211334228515625,1.084136962890625,1,1.0,1.0,1.0,1.0,85.00
2021-04-14 09:38:33.216,0.10851767,0.2542988,-0.20295253,0.08320532,-0.14513706,-0.2774607,-0.076362886,0.20424508,0.3313208,0.011484151,-0.0773017,0.5161584,0.0984785,-0.26506934,-0.2793245,0.1592317,-0.15634976,-0.40378326,-0.47607398,-0.037841223,787.326,797.3993,801.02563,801.8315,678.5348,-0.380615234375,-0.00335693359375,0.9300537109375,4.3963623046875,-3.87298583984375,0.844879150390625,1,1.0,1.0,1.0,1.0,85.00
2021-04-14 09:38:33.758,0.0011343083,0.1595632,-0.2590548,-0.0074563534,-0.20744744,-0.52006096,0.07178866,0.284929,0.4773904,0.022665605,-0.05940058,0.554063,0.08237356,-0.22826225,-0.26490086,0.19266388,-0.2295574,-0.41625163,-0.41066232,-0.010707605,713.9927,796.1905,811.9048,732.52747,662.01465,-0.3795166015625,-0.00555419921875,0.93145751953125,4.725341796875,-4.314117431640625,0.94207763671875,1,1.0,1.0,1.0,1.0,85.00
2021-04-14 09:38:33.925,,,,,,,,,,,,,,,,,,,,,,,,,,,,,,,,,,,,,,/muse/elements/blink
2021-04-14 09:38:34.266,-0.057267334,0.46777025,0.590347,-0.04291982,-0.29297638,-0.16613984,0.46647733,0.3718577,0.39332914,0.2493626,0.046541303,0.5249463,0.045801148,-0.103024594,-0.15565102,0.25274408,-0.31523925,-0.4473944,-0.46490785,-0.024315067,850.58606,799.41394,801.02563,829.6337,855.42126,-0.377685546875,-0.01153564453125,0.92535400390625,4.23187255859375,-4.90478515625,0.590667724609375,1,1.0,1.0,1.0,1.0,85.00
2021-04-14 09:38:34.799,-0.432016,0.44592968,0.6792367,-0.32832414,-0.3926176,-0.1158382,0.45972416,0.42527246,0.32867783,0.2490087,0.06846363,0.45813718,0.043793183,-0.07358216,-0.09526714,0.2596257,-0.4610054,-0.5057288,-0.5200387,0.044775072,755.09155,805.8608,790.14655,776.8498,743.8095,-0.37939453125,-0.00714111328125,0.92822265625,4.306640625,-4.762725830078125,1.00189208984375,1,1.0,1.0,1.0,1.0,85.00
2021-04-14 09:38:35.351,0.58254075,0.55181164,0.74184024,-0.32832414,0.11110841,-0.052187975,0.45052382,0.42527246,0.28617385,0.22005582,0.048898473,0.45813718,0.17898951,-0.11857366,-0.032945484,0.2596257,-0.41585797,-0.58914626,-0.6089877,0.044775072,865.89746,809.89014,799.81683,885.2381,582.6374,-0.33184814453125,-0.0277099609375,0.94061279296875,3.21502685546875,-16.62841796875,6.23565673828125,1,1.0,1.0,1.0,1.0,85.00
2021-04-14 09:38:35.877,0.58254075,0.26399666,0.43388185,-0.32832414,0.11110841,-0.2485577,0.02491309,0.42527246,0.28617385,0.08624385,0.10138682,0.45813718,0.17898951,-0.18205465,-0.009231665,0.2596257,-0.41585797,-0.6656808,-0.54888684,0.044775072,452.49084,768.3883,812.71063,455.31134,781.28204,-0.2520751953125,0.01922607421875,0.9779052734375,2.504730224609375,4.42626953125,3.715972900390625,1,1.0,1.0,1.0,1.0,85.00
2021-04-14 09:38:36.152,,,,,,,,,,,,,,,,,,,,,,,,,,,,,,,,,,,,,,/muse/elements/blink
2021-04-14 09:38:36.412,0.58254075,0.87391764,0.33143175,-0.32832414,0.11110841,0.50514597,0.18329075,0.42527246,0.28617385,0.37267342,0.30752397,0.45813718,0.17898951,-0.16955535,-0.032066304,0.2596257,-0.41585797,-0.7342843,-0.48336917,0.044775072,776.4469,803.0403,798.20514,790.14655,725.6777,-0.36181640625,0.01220703125,0.93701171875,4.762725830078125,-0.919647216796875,0.814971923828125,1,1.0,1.0,1.0,1.0,85.00
2021-04-14 09:38:36.916,0.58254075,1.0142908,0.2530353,-0.32832414,0.11110841,0.6254631,0.24000046,0.42527246,0.28617385,0.37781668,0.31068248,0.45813718,0.17898951,-0.18118708,-0.08981188,0.2596257,-0.41585797,-0.6340755,-0.4453935,0.044775072,789.34064,794.9817,807.47253,805.8608,747.8388,-0.3602294921875,-0.00341796875,0.932861328125,4.508514404296875,-6.108551025390625,1.8243408203125,1,1.0,1.0,1.0,1.0,85.00
2021-04-14 09:38:37.423,0.58254075,1.0072083,0.16307527,-0.32832414,0.11110841,0.62623936,0.25367895,0.42527246,0.28617385,0.38841885,0.31763425,0.45813718,0.17898951,-0.24338064,-0.15510124,0.2596257,-0.41585797,-0.6184931,-0.48128402,0.044775072,807.47253,805.8608,797.3993,809.4872,749.85345,-0.362060546875,0.009765625,0.93939208984375,4.35150146484375,-4.059906005859375,1.338348388671875,1,1.0,1.0,1.0,1.0,85.00
2021-04-14 09:38:37.958,0.083512045,0.6244718,0.06828025,-0.043170154,-0.182504,0.23417027,0.03602823,0.18921052,0.28302598,0.27618247,0.22517972,0.30643684,0.16060552,-0.08542746,-0.12344018,0.30860302,-0.33795577,-0.5942426,-0.5044845,-0.53597444,828.4249,813.5165,793.36993,810.293,730.5128,-0.37738037109375,0.009521484375,0.932861328125,4.246826171875,-4.433746337890625,-1.218719482421875,1,1.0,1.0,1.0,1.0,85.00
2021-04-14 09:38:38.467,0.17965734,-0.26057112,-0.066210434,-0.0075483737,0.15527587,-0.14899217,-0.085172296,0.106945805,0.4321049,0.12336857,0.1575441,0.4302849,0.13667665,-0.012866362,-0.06677023,0.31174642,-0.31339234,-0.6078058,-0.5522406,-0.47956896,801.8315,800.6227,795.78754,812.3077,954.1392,-0.36810302734375,0.00164794921875,0.92694091796875,4.553375244140625,-3.431854248046875,4.66552734375,1,1.0,1.0,1.0,1.0,85.00
2021-04-14 09:38:39.024,0.25628397,-0.38019872,-0.075504705,0.10128985,0.29325673,-0.1348335,-0.18022248,0.105299935,0.37958494,0.027268233,0.096158884,0.44001263,0.07784246,0.048689056,-0.056933742,0.25776413,-0.30670124,-0.6270718,-0.62225974,-0.5265097,754.68866,811.50183,796.1905,773.22345,678.5348,-0.34564208984375,0.01507568359375,0.943603515625,4.20196533203125,-5.420684814453125,0.231781005859375,1,1.0,1.0,1.0,1.0,85.00
2021-04-14 09:38:39.557,0.21554187,-0.5396604,-0.07945897,0.124018826,0.2621476,-0.26462355,-0.2872778,0.021723093,0.41874394,0.040581893,0.08191123,0.49008915,0.07739331,-0.0037762623,-0.111872144,0.14248516,-0.29949674,-0.5441528,-0.69311273,-0.45320702,784.90845,798.60803,794.57874,788.93774,609.2308,-0.35986328125,-0.00701904296875,0.9359130859375,2.70660400390625,-3.09539794921875,-0.964508056640625,1,1.0,1.0,1.0,1.0,85.00
2021-04-14 09:38:40.076,0.13340862,-0.38910553,-0.13027954,0.115731955,0.32248545,-0.29590324,-0.54159534,0.18327178,0.44823354,0.061793465,-0.039531205,0.56473476,0.09316136,-0.024969148,-0.121809,0.083508424,-0.31736237,-0.52600044,-0.66065556,-0.4916677,752.674,805.4579,799.011,770.40295,688.20514,-0.3536376953125,-0.001220703125,0.93585205078125,4.127197265625,-4.66552734375,0.6280517578125,1,1.0,1.0,1.0,1.0,85.00
2021-04-14 09:38:40.628,0.007680496,-0.32682803,-0.32609788,0.10246089,0.2709375,-0.3417963,-0.5718649,0.3406066,0.43700802,0.06192038,-0.115408294,0.5399368,0.10213603,-0.06351661,-0.14839374,0.1231004,-0.31703877,-0.44107231,-0.65940714,-0.37577882,766.77655,802.23444,809.89014,785.7143,570.14655,-0.35205078125,-0.0028076171875,0.9349365234375,4.807586669921875,-4.78515625,0.022430419921875,1,1.0,1.0,1.0,1.0,85.00
2021-04-14 09:38:41.156,0.102160916,-0.23284361,-0.34691623,0.16176736,0.34294158,-0.37944072,-0.5058806,0.34212717,0.460677,0.035659354,-0.012336383,0.5421419,0.027026022,-0.13831621,-0.21541433,0.09907539,-0.34033117,-0.46486676,-0.6753564,-0.34935653,766.77655,799.011,805.05493,793.36993,653.1502,-0.353759765625,-0.00506591796875,0.9381103515625,4.38140869140625,-4.6954345703125,0.34393310546875,1,1.0,1.0,1.0,1.0,85.00
2021-04-14 09:38:41.659,0.14932376,-0.12306425,-0.47540012,0.11367678,0.0055844286,-0.3988253,-0.31878194,0.24070872,0.10116484,0.078376904,0.014558551,0.41160485,-0.08351281,-0.1953924,-0.41132277,0.02003395,-0.3747923,-0.4800001,-0.6497449,-0.33229396,757.1062,805.05493,805.05493,784.10254,525.0183,-0.359130859375,-0.00518798828125,0.93780517578125,4.463653564453125,-4.104766845703125,0.829925537109375,1,1.0,1.0,1.0,1.0,85.00
2021-04-14 09:38:42.201,0.12501566,-0.1860861,-0.45051455,0.013437428,-0.09506786,-0.42407167,-0.24575002,0.101502635,0.16902466,-0.0018867198,0.07634941,0.4243499,-0.1526892,-0.22341563,-0.4126266,0.027625876,-0.38489395,-0.5313914,-0.60855335,-0.38553107,787.326,805.05493,801.02563,781.685,637.8388,-0.35870361328125,-0.0098876953125,0.939697265625,4.493560791015625,-4.403839111328125,0.6878662109375,1,1.0,1.0,1.0,1.0,85.00
2021-04-14 09:38:42.737,-0.22646476,-0.17930947,-0.29117414,-0.053457566,-0.33744958,-0.29165968,-0.28532827,0.10602369,0.30870095,-0.017318629,0.018119002,0.4824679,-0.11735425,-0.16655856,-0.24367234,0.13935839,-0.41449696,-0.61584395,-0.6384387,-0.40205544,826.4103,801.8315,804.2491,809.4872,830.84247,-0.3597412109375,-0.0137939453125,0.93487548828125,4.493560791015625,-4.329071044921875,0.740203857421875,1,1.0,1.0,1.0,1.0,85.00
2021-04-14 09:38:43.255,-0.17958607,-0.33012938,-0.20602994,0.11543541,-0.33680612,-0.28811166,-0.3326077,0.032496225,0.30870095,0.05575431,-0.01993436,0.31166682,-0.07990286,-0.1965636,-0.108199984,0.100311026,-0.4361484,-0.7247183,-0.7256433,-0.36208108,845.7509,800.6227,806.6667,817.9487,770.0,-0.35772705078125,-0.01263427734375,0.931640625,4.5458984375,-4.844970703125,0.9271240234375,1,1.0,1.0,1.0,1.0,85.00
2021-04-14 09:38:43.784,-0.04437311,-0.13041125,-0.22631887,0.16154934,-0.2979883,-0.23635693,-0.40540415,0.011838294,0.33523932,0.022836158,0.10607857,0.28924713,-0.012586209,-0.23701906,-0.11080372,0.0073341634,-0.4555845,-0.6170367,-0.73635733,-0.34995872,811.50183,806.6667,801.4286,806.6667,723.2601,-0.35650634765625,-0.01324462890625,0.93524169921875,4.373931884765625,-4.912261962890625,0.411224365234375,1,1.0,1.0,1.0,1.0,85.00
2021-04-14 09:38:44.303,0.08668352,-0.10624853,-0.3111125,0.13639835,-0.4017747,-0.33711898,-0.38924715,0.028897481,0.29653004,-0.0062616956,0.10568783,0.23481546,0.0044639297,-0.17770655,-0.15776072,-0.048179742,-0.5354519,-0.5822095,-0.72481513,-0.4000639,758.71796,799.011,799.41394,786.52014,571.75824,-0.35980224609375,-0.0093994140625,0.94110107421875,5.203857421875,-3.132781982421875,1.203765869140625,1,1.0,1.0,1.0,1.0,85.00
2021-04-14 09:38:44.807,0.10887579,-0.089537635,-0.3408312,-0.015666474,-0.24459913,-0.46381286,-0.35028273,0.084261365,0.26826996,-0.10276191,-0.023569267,0.29194334,-0.009388831,-0.20368314,-0.30685088,-0.048418358,-0.5416571,-0.5610528,-0.76877725,-0.45229235,756.30035,799.41394,797.8022,774.0293,714.3956,-0.36260986328125,-0.018310546875,0.9342041015625,4.38140869140625,-4.42626953125,0.889739990234375,1,1.0,1.0,1.0,1.0,85.00
2021-04-14 09:38:45.317,0.4197063,-0.16395773,-0.26947278,0.15220714,0.018407958,-0.32470644,-0.32982424,0.16496454,0.35172936,0.1195162,-0.11936827,0.4349381,-0.059892066,-0.13611293,-0.35452467,-0.007592597,-0.46067742,-0.6552881,-0.7536369,-0.321148,822.7839,803.44324,806.6667,813.91943,799.81683,-0.35662841796875,-0.01434326171875,0.93853759765625,4.403839111328125,-4.598236083984375,0.560760498046875,1,1.0,1.0,1.0,1.0,85.00
2021-04-14 09:38:45.876,0.4849049,-0.36807147,-0.19541855,0.21604337,0.08364322,-0.11366048,-0.30730695,0.22292544,0.4206349,0.1279963,-0.011703081,0.7132852,0.0037221014,-0.11923427,-0.362301,0.1475046,-0.4003184,-0.5234032,-0.6212908,-0.2358171,764.7619,794.9817,799.41394,785.7143,649.92676,-0.35284423828125,-0.0162353515625,0.94110107421875,4.2169189453125,-4.448699951171875,0.261688232421875,1,1.0,1.0,1.0,1.0,85.00
2021-04-14 09:38:46.386,0.38354272,-0.43585443,-0.13606247,0.29147208,0.1082921,-0.1178403,-0.24317476,0.34009713,0.4206349,0.12994982,0.029179214,0.7132852,0.13112228,-0.07962403,-0.257595,0.17779522,-0.3328322,-0.4936837,-0.55528146,-0.2218013,831.6484,807.8755,801.4286,818.3516,891.685,-0.35504150390625,-0.01470947265625,0.93719482421875,4.613189697265625,-4.583282470703125,0.67291259765625,1,1.0,1.0,1.0,1.0,85.00
2021-04-14 09:38:46.905,0.09261554,-0.32495925,-0.10816913,0.33697277,0.083800964,-0.23506,-0.17459622,0.4517642,0.31295982,0.10315272,0.050519943,0.68321335,0.13354555,-0.13339704,-0.24533387,0.1260126,-0.3733439,-0.5058019,-0.6358301,-0.2585097,847.3626,798.60803,804.65204,832.0513,820.3663,-0.3603515625,-0.0166015625,0.9344482421875,4.38140869140625,-4.358978271484375,0.635528564453125,1,1.0,1.0,1.0,1.0,85.00
2021-04-14 09:38:47.426,0.02323734,-0.19889012,-0.07965111,0.3612518,0.2152562,-0.18272321,-0.20198117,0.4161985,0.26117665,0.0039350647,-0.09132305,0.5338329,0.13797435,-0.19547746,-0.20495261,0.11198282,-0.33327842,-0.5890772,-0.7253542,-0.2854928,809.0842,802.6374,797.8022,811.0989,735.34796,-0.3519287109375,-0.0244140625,0.93096923828125,3.349609375,-5.241241455078125,-0.426177978515625,1,1.0,1.0,1.0,1.0,85.00
2021-04-14 09:38:47.966,0.10506007,-0.13622755,-0.001663782,0.40642884,0.23248565,0.019341335,-0.27053854,0.33875647,0.32825887,-0.044407822,-0.10768944,0.36269,0.018594487,-0.21737608,-0.18051998,0.10435884,-0.4018228,-0.52962214,-0.69743204,-0.3153256,838.9011,804.65204,796.99634,859.85345,731.7216,-0.3350830078125,0.01202392578125,0.94366455078125,4.822540283203125,-3.521575927734375,0.6280517578125,1,1.0,1.0,1.0,1.0,85.00
2021-04-14 09:38:47.983,,,,,,,,,,,,,,,,,,,,,,,,,,,,,,,,,,,,,,/muse/elements/blink
2021-04-14 09:38:48.488,0.14425159,-0.09610844,0.2861622,0.37796783,0.27685755,0.050495658,-0.07582404,0.12926285,0.21695806,-0.022258878,-0.035566766,0.29430217,0.028209843,-0.21419859,-0.17700498,0.14862849,-0.37196273,-0.47654387,-0.5817255,-0.38527006,783.2967,792.96704,810.293,799.011,723.663,-0.3406982421875,-0.018798828125,0.94171142578125,4.1571044921875,-2.280426025390625,0.538330078125,1,1.0,1.0,1.0,1.0,85.00
2021-04-14 09:38:49.001,0.066163644,0.30584085,0.3918342,0.41458285,0.22430657,0.072521,0.14499696,0.23513508,0.21695806,0.26593176,0.07855595,0.22450428,-0.10352824,-0.13721687,-0.11632247,-0.08244973,-0.40760636,-0.43541226,-0.6052219,-0.39095357,797.8022,816.337,786.1172,792.5641,740.18317,-0.36602783203125,-0.0140380859375,0.93402099609375,4.68048095703125,-3.237457275390625,1.218719482421875,1,1.0,1.0,1.0,1.0,85.00
2021-04-14 09:38:49.512,0.47709915,0.56363255,0.5806899,0.053343605,0.05314365,0.20326306,0.33348757,0.4384669,0.43921733,0.36237448,0.310652,0.5115825,-0.050834022,-0.07039946,-0.04128533,0.23135476,-0.56582683,-0.4858055,-0.71031094,-0.314461,777.6557,799.81683,789.34064,780.07324,709.5604,-0.36968994140625,-0.01922607421875,0.9295654296875,4.927215576171875,-4.05242919921875,0.55328369140625,1,1.0,1.0,1.0,1.0,85.00
2021-04-14 09:38:50.045,0.38559386,0.5993952,0.51202226,0.070719615,0.009878491,0.24112909,0.2957862,0.3166073,0.44927844,0.36267418,0.31999967,0.5177031,-0.100023076,-0.07805095,-0.021429561,0.10939346,-0.41755623,-0.5297707,-0.7618935,-0.24556273,822.381,802.6374,801.4286,805.8608,809.0842,-0.3572998046875,-0.02294921875,0.9342041015625,4.97955322265625,-6.3104248046875,1.532745361328125,1,1.0,1.0,1.0,1.0,85.00
2021-04-14 09:38:50.577,0.22872312,0.44165418,0.4168255,0.10098071,-0.0030430874,0.14009726,0.1878896,0.20954801,0.45910183,0.2689491,0.31999967,0.5177031,-0.09353235,-0.19634911,-0.12639977,0.15260722,-0.434626,-0.5411628,-0.76175576,-0.28657234,828.8278,800.6227,797.3993,815.12823,888.46155,-0.35015869140625,-0.01947021484375,0.9373779296875,4.306640625,-5.764617919921875,0.291595458984375,1,1.0,1.0,1.0,1.0,85.00
2021-04-14 09:38:51.115,-0.06712058,-0.04046567,-0.007347531,0.09189132,-0.05317171,-0.20480241,-0.18505923,-0.09293199,0.17997743,0.071079336,0.16612042,0.41219002,-0.09335337,-0.26207328,-0.20181209,0.14236835,-0.39904195,-0.5370456,-0.711436,-0.3499094,825.6044,801.4286,799.011,826.4103,808.68134,-0.34442138671875,-0.01904296875,0.94134521484375,4.44122314453125,-4.987030029296875,0.657958984375,1,1.0,1.0,1.0,1.0,85.00
2021-04-14 09:38:51.658,-0.40458134,-0.4201727,-0.5631136,-0.041883994,-0.118366085,-0.35682568,-0.4859476,-0.2554274,0.12035742,-0.0038193993,-0.2706176,0.31002223,-0.03425344,-0.26356772,-0.2057987,0.22504404,-0.4927528,-0.54742616,-0.6139729,-0.40232474,822.7839,803.8461,799.41394,810.293,885.64105,-0.34234619140625,-0.02294921875,0.94061279296875,4.59075927734375,-4.658050537109375,0.01495361328125,1,1.0,1.0,1.0,1.0,85.00
2021-04-14 09:38:52.200,-0.050225034,-0.55587554,-0.5527934,0.10440715,0.008321107,-0.3543149,-0.4029186,0.0038641726,0.435268,-0.035080336,-0.26440993,0.37486532,0.069876224,-0.17851324,-0.16900767,0.14146383,-0.51518804,-0.518035,-0.53662515,-0.32718408,798.20514,803.0403,803.8461,801.02563,751.4652,-0.350830078125,-0.0223388671875,0.9393310546875,4.583282470703125,-5.2337646484375,1.278533935546875,1,1.0,1.0,1.0,1.0,85.00
2021-04-14 09:38:52.714,0.17885746,-0.29725775,-0.40609708,0.1177298,0.14792174,-0.16642816,-0.16008024,0.06751138,0.5176971,0.20243762,0.18505952,0.50079525,0.16985598,-0.13761757,-0.16467151,0.12815215,-0.36583468,-0.52531165,-0.48321557,-0.3269667,825.6044,809.89014,796.5934,813.1135,878.3883,-0.34698486328125,-0.02880859375,0.940185546875,3.81317138671875,-4.8150634765625,0.37384033203125,1,1.0,1.0,1.0,1.0,85.00
2021-04-14 09:38:53.232,0.30560324,0.46982494,0.24898838,0.18061787,0.40705293,0.12869267,0.15658171,0.13990639,0.6435012,0.2611024,0.27132818,0.51580405,0.25023264,-0.04397281,-0.17602892,0.11365735,-0.21033718,-0.5102951,-0.5167606,-0.37190908,792.1612,804.65204,801.8315,787.326,701.9048,-0.3529052734375,-0.02532958984375,0.938720703125,4.23187255859375,-3.327178955078125,0.740203857421875,1,1.0,1.0,1.0,1.0,85.00
2021-04-14 09:38:53.736,0.51151896,0.7054941,0.43781674,0.21450819,0.4226962,0.25568837,0.1849855,0.19093713,0.65487504,0.28649402,0.27132818,0.48214212,0.1393913,-0.017032461,-0.21006136,0.18329465,-0.1232825,-0.5648944,-0.49452364,-0.44703022,779.2674,804.2491,801.8315,779.67035,640.65936,-0.35400390625,-0.02978515625,0.9412841796875,4.822540283203125,-4.493560791015625,0.874786376953125,1,1.0,1.0,1.0,1.0,85.00
2021-04-14 09:38:54.249,0.46637025,0.68599635,0.49321428,0.32576457,0.36321416,0.19013888,0.120423205,0.35160375,0.61633533,0.28407356,0.2561216,0.38854316,0.050371233,-0.097392164,-0.32908434,0.18607283,-0.1834262,-0.5569264,-0.5394079,-0.4264138,793.36993,801.4286,801.02563,789.7436,750.2564,-0.355224609375,-0.0252685546875,0.93658447265625,4.88983154296875,-4.792633056640625,1.786956787109375,1,1.0,1.0,1.0,1.0,85.00
2021-04-14 09:38:54.790,0.45062336,0.39675966,0.25341237,0.4735926,0.11936411,-0.10768146,-0.3656556,0.5036662,0.29676628,0.012933203,0.095925815,0.3675232,-0.09597183,-0.20460266,-0.37554857,0.15121312,-0.35351667,-0.6211621,-0.5825083,-0.4615853,809.89014,803.8461,800.6227,808.68134,851.79486,-0.35333251953125,-0.02886962890625,0.9361572265625,5.0543212890625,-5.555267333984375,2.40753173828125,1,1.0,1.0,1.0,1.0,85.00
2021-04-14 09:38:55.296,0.37565672,-0.22770815,-0.070167296,0.48901913,0.24263443,-0.36808154,-0.71906066,0.45084804,0.23288596,-0.1885107,-0.012219564,0.22607407,0.14606422,-0.215871,-0.35566962,0.16799922,-0.57172173,-0.7012029,-0.69216955,-0.52193934,831.2454,806.26373,802.23444,815.9341,769.59705,-0.34735107421875,-0.02587890625,0.94000244140625,4.658050537109375,-6.452484130859375,1.54022216796875,1,1.0,1.0,1.0,1.0,85.00
2021-04-14 09:38:55.824,0.44423753,-0.06264556,-0.21035655,0.5633148,0.33632734,-0.27094796,-0.430578,0.39068198,0.15903012,-0.08505982,0.23448889,0.24122755,0.24128914,-0.15622967,-0.2590356,0.249273,-0.53006834,-0.6645136,-0.68047744,-0.47990507,796.5934,803.0403,802.23444,804.2491,730.9158,-0.34490966796875,-0.020751953125,0.94171142578125,4.3963623046875,-4.538421630859375,0.82244873046875,1,1.0,1.0,1.0,1.0,85.00
2021-04-14 09:38:56.338,0.51067406,0.37084392,0.45469546,0.5986983,0.52389926,0.23198739,0.026768995,0.27294007,0.21530503,0.15044765,0.4795448,0.25667113,0.28193876,-0.015391108,-0.10267805,0.30514824,-0.4550554,-0.6637694,-0.6225604,-0.37444413,784.10254,801.4286,800.2198,793.7729,608.4249,-0.34954833984375,-0.029052734375,0.93267822265625,4.000091552734375,-4.478607177734375,-0.2093505859375,1,1.0,1.0,1.0,1.0,85.00
2021-04-14 09:38:56.842,0.4982747,0.46948227,0.548405,0.5271547,0.41904908,0.2782626,0.16962108,0.27981788,0.17810124,0.16272447,0.48346308,0.3566834,0.21880281,0.0064703235,-0.049136747,0.27532494,-0.38593844,-0.5575012,-0.5840294,-0.3140423,786.52014,802.23444,799.011,787.72894,731.7216,-0.35064697265625,-0.0262451171875,0.94305419921875,4.433746337890625,-4.3365478515625,1.24114990234375,1,1.0,1.0,1.0,1.0,85.00
2021-04-14 09:38:57.386,0.55735624,0.48046857,0.5515784,0.5680328,0.49718776,0.29823196,0.13077737,0.28906405,0.8299649,0.206725,0.48346308,0.6726781,0.20340335,0.044399373,-0.059697486,0.20853977,-0.37993878,-0.4789449,-0.5310767,-0.25918856,823.9927,801.4286,803.44324,818.3516,798.20514,-0.34765625,-0.02227783203125,0.9385986328125,4.403839111328125,-5.316009521484375,1.27105712890625,1,1.0,1.0,1.0,1.0,85.00
2021-04-14 09:38:57.922,0.73008,0.1819856,0.13296953,0.688928,0.48676774,-0.06906718,-0.18026859,0.19974807,0.8691245,0.09670386,0.02020497,0.7156201,0.20038252,-0.03302738,-0.21078716,0.090568036,-0.40494654,-0.38788086,-0.6017386,-0.2397142,784.90845,800.2198,794.17584,783.69965,711.5751,-0.35455322265625,-0.0240478515625,0.93414306640625,4.598236083984375,-3.1103515625,0.49346923828125,1,1.0,1.0,1.0,1.0,85.00
2021-04-14 09:38:58.485,0.7320564,-0.015985807,-0.166827,0.85632306,0.5624597,-0.30277446,-0.5675224,0.22765253,0.8691245,0.06449743,-0.41134605,0.7145651,0.19438171,-0.093246214,-0.3323936,0.09616789,-0.4777108,-0.47268918,-0.6894015,-0.22624671,770.80585,800.2198,801.8315,794.17584,664.43225,-0.365966796875,-0.02276611328125,0.9334716796875,4.254302978515625,-4.059906005859375,1.2261962890625,1,1.0,1.0,1.0,1.0,85.00
2021-04-14 09:38:58.999,0.5689934,-0.15270342,-0.059858665,0.7090617,0.39917865,-0.36073974,-0.4513603,0.071035214,0.61828506,0.03205006,-0.31243056,0.41277194,0.12126457,-0.08823146,-0.30407825,0.17125598,-0.5851559,-0.5501707,-0.8278031,-0.29263622,802.23444,804.2491,799.41394,792.96704,681.75824,-0.37689208984375,-0.02484130859375,0.93280029296875,4.5758056640625,-4.418792724609375,3.6187744140625,1,1.0,1.0,1.0,1.0,85.00
2021-04-14 09:38:59.503,0.31967413,-0.20278594,-0.12431992,0.46535996,0.21461622,-0.5422203,-0.3600799,0.0061213,0.35250896,-0.17254189,-0.28891087,0.21866427,0.16068089,-0.08962695,-0.27815464,0.17738192,-0.49603721,-0.6085617,-0.80818415,-0.3279532,794.57874,805.4579,800.2198,801.4286,707.1429,-0.36431884765625,-0.02642822265625,0.935546875,5.3533935546875,-6.527252197265625,1.084136962890625,1,1.0,1.0,1.0,1.0,85.00
2021-04-14 09:39:00.041,-0.008476222,-0.27703837,-0.06349406,0.19165388,-0.038654026,-0.510719,-0.2766665,0.11498225,0.11640879,-0.13086943,-0.112040356,0.2137973,0.1298769,-0.05284334,-0.2500373,0.1302232,-0.465982,-0.59928566,-0.7561311,-0.2975064,767.1795,803.44324,801.4286,785.7143,905.38464,-0.3675537109375,-0.00140380859375,0.93182373046875,6.08612060546875,-7.07305908203125,3.910369873046875,1,1.0,1.0,1.0,1.0,85.00
2021-04-14 09:39:00.545,-0.014958905,-0.048455458,-0.15002398,0.27979374,-0.091665216,-0.37645677,-0.36896288,0.26845255,0.23795672,-0.17327368,-0.12170039,0.20414868,0.084982656,-0.1367854,-0.24730368,0.056425665,-0.46187356,-0.5017233,-0.67191356,-0.2992538,778.86444,799.41394,799.81683,788.93774,650.32965,-0.3609619140625,-0.02227783203125,0.93109130859375,4.9945068359375,-1.039276123046875,0.2691650390625,1,1.0,1.0,1.0,1.0,85.00
2021-04-14 09:39:01.100,-0.13302307,-0.107854515,-0.15630369,0.15224643,0.06175051,-0.36242068,-0.4787683,0.22667307,0.1534711,-0.10965003,0.015482149,-0.017092315,-0.075565994,-0.15176785,-0.27148753,0.072485544,-0.48897132,-0.46483332,-0.6640459,-0.19714168,822.381,805.4579,809.89014,813.91943,759.5238,-0.37152099609375,-0.01226806640625,0.92987060546875,4.9346923828125,-4.807586669921875,1.80938720703125,1,1.0,1.0,1.0,1.0,85.00
2021-04-14 09:39:01.605,-0.12211867,-0.21728872,-0.27031848,0.019099236,0.16280386,-0.20158753,-0.81273437,0.12070288,0.16009009,-0.14274083,0.01702203,0.11186393,-0.12868944,-0.12640236,-0.35422474,0.020684589,-0.505044,-0.4590155,-0.69920707,-0.24239518,763.1502,804.65204,799.81683,786.9231,619.304,-0.36639404296875,-0.00872802734375,0.9327392578125,5.151519775390625,-4.91973876953125,1.128997802734375,1,1.0,1.0,1.0,1.0,85.00
2021-04-14 09:39:02.160,0.18967983,-0.38162413,-0.29678658,0.15224248,0.3774274,-0.17734462,-0.85265,0.23274519,0.088478275,0.049833763,0.030444399,0.06096033,-0.074101396,-0.11068425,-0.23795593,0.04046824,-0.438799,-0.52860075,-0.7149849,-0.2069193,769.59705,808.2784,806.6667,795.78754,685.38464,-0.370361328125,-0.01263427734375,0.9266357421875,4.388885498046875,-4.5758056640625,0.34393310546875,1,1.0,1.0,1.0,1.0,85.00
2021-04-14 09:39:02.665,0.33484575,-0.31734505,-0.31133336,0.27766317,0.34347036,-0.09089666,-0.6812765,0.21639672,0.088478275,0.061680082,-0.009566433,0.117873624,0.061369553,-0.13299148,-0.07581872,0.08333768,-0.47792783,-0.5441066,-0.6738616,-0.35659435,809.89014,804.65204,809.0842,812.3077,806.6667,-0.3717041015625,-0.00994873046875,0.927734375,4.7552490234375,-3.768310546875,0.19439697265625,1,1.0,1.0,1.0,1.0,85.00
2021-04-14 09:39:03.208,0.5075074,-0.29056653,-0.35085562,0.4677905,0.37433815,-0.16209021,-0.27967504,0.36191112,0.2964667,0.04263536,-0.019099684,0.23072787,0.10011202,-0.1560895,-0.03790975,0.086475246,-0.53484994,-0.5790553,-0.61823493,-0.34344417,830.84247,806.26373,801.02563,809.89014,809.0842,-0.37249755859375,-0.01495361328125,0.9296875,4.2169189453125,-4.05242919921875,0.83740234375,1,1.0,1.0,1.0,1.0,85.00
2021-04-14 09:39:03.717,0.42375323,-0.28582123,-0.43857676,0.52005255,0.4292562,-0.19627832,-0.21818793,0.4229446,0.74595934,0.04140331,0.017334716,0.9019589,0.15291648,-0.11835355,-0.13861701,0.16904853,-0.5627332,-0.65691274,-0.61184657,-0.41270623,824.3956,803.44324,801.4286,820.3663,852.6007,-0.37530517578125,-0.01849365234375,0.92974853515625,4.77020263671875,-4.448699951171875,0.85235595703125,1,1.0,1.0,1.0,1.0,85.00
2021-04-14 09:39:04.248,0.35761905,-0.32920498,-0.56593853,0.5562498,0.47076952,-0.25512785,-0.29298255,0.479119,0.74595934,0.030722108,-0.014226842,0.9019589,0.17407991,-0.11834359,-0.35867772,0.2745655,-0.5827588,-0.6338877,-0.5767981,-0.38998845,757.1062,801.4286,802.6374,774.83514,689.011,-0.37603759765625,-0.01873779296875,0.930419921875,4.209442138671875,-4.90478515625,0.471038818359375,1,1.0,1.0,1.0,1.0,85.00
2021-04-14 09:39:04.779,0.066794574,-0.5127173,-0.6029086,0.41835096,0.4578146,-0.37678424,-0.7628509,0.43100175,0.74770844,0.018720457,-0.08998571,0.9047272,0.2978577,-0.15712854,-0.406986,0.3747951,-0.5467756,-0.61278874,-0.60527307,-0.43304732,817.9487,803.44324,806.6667,820.3663,944.87177,-0.379150390625,-0.023193359375,0.9283447265625,4.687957763671875,-3.730926513671875,-0.22430419921875,1,1.0,1.0,1.0,1.0,85.00
2021-04-14 09:39:05.299,0.0045878934,-0.64263415,-0.37808374,0.3278839,0.26280656,-0.3322578,-0.65980077,0.29900974,0.53805774,0.013673456,-0.21430404,0.631567,0.23448251,-0.21886404,-0.40165645,0.25091574,-0.47383976,-0.6089252,-0.6334343,-0.373657,762.74725,797.3993,794.57874,778.46155,656.3736,-0.41168212890625,-0.0206298828125,0.9254150390625,3.102874755859375,-2.056121826171875,-0.85235595703125,1,1.0,1.0,1.0,1.0,85.00
2021-04-14 09:39:05.804,0.048049774,-0.14083257,-0.22137539,0.26771873,0.22267006,-0.22676215,-0.6337292,0.27255508,0.51869357,-0.05634028,-0.3168746,0.56718314,0.17951828,-0.20318103,-0.33147836,0.17246906,-0.4456389,-0.67020327,-0.6246268,-0.38819933,762.3443,802.6374,805.8608,781.28204,699.4872,-0.3817138671875,0.01873779296875,0.9556884765625,9.3609619140625,-5.794525146484375,7.29736328125,1,1.0,1.0,1.0,1.0,85.00
2021-04-14 09:39:06.307,0.40027913,0.050037615,-0.022936665,0.36488688,0.27273995,-0.1622929,-0.513168,0.19750449,0.32804376,-0.05634028,-0.2182314,0.50506765,-0.026390366,-0.23965222,-0.28070855,0.09000555,-0.45046622,-0.6639762,-0.65138113,-0.4716877,749.0476,805.05493,799.41394,766.77655,662.8205,-0.3861083984375,-0.004150390625,0.92205810546875,4.822540283203125,-11.005859375,-5.869293212890625,1,1.0,1.0,1.0,1.0,85.00
2021-04-14 09:39:06.816,0.5040662,0.12685698,-0.054581363,0.81149775,0.23266491,-0.1817551,-0.53132164,0.037605964,0.23709513,-0.14942767,-0.2303386,0.31213984,-0.13185954,-0.24907418,-0.29328623,0.11425418,-0.5092643,-0.6529644,-0.6393939,-0.5272907,845.7509,807.0696,794.17584,832.8571,822.381,-0.3555908203125,0.0189208984375,0.94268798828125,4.50103759765625,-0.04486083984375,1.846771240234375,1,1.0,1.0,1.0,1.0,85.00
2021-04-14 09:39:07.322,0.9225974,0.02141178,-0.15702999,1.0528338,0.48447534,-0.33434454,-0.4607869,0.25191247,0.5868129,-0.2637634,0.0038646078,0.5130049,0.122704335,-0.27458963,-0.32882217,0.27703235,-0.49340814,-0.66516274,-0.5912057,-0.49327484,748.24176,801.02563,803.8461,779.2674,618.0952,-0.338134765625,0.00555419921875,0.90460205078125,6.706695556640625,-1.65985107421875,-5.27862548828125,1,1.0,1.0,1.0,1.0,85.00
2021-04-14 09:39:07.866,1.1845769,-0.08586675,-0.3890397,1.1716799,0.4650369,-0.45961833,-0.48168367,0.3309273,0.763275,-0.19620141,0.026831832,0.5825734,0.17906132,-0.2941804,-0.3753412,0.28891972,-0.40721318,-0.6606677,-0.49027818,-0.4689044,786.1172,975.09155,858.6447,790.9524,573.7729,-0.21142578125,0.04302978515625,0.9722900390625,18.06396484375,-19.63409423828125,-33.428802490234375,1,1.0,1.0,1.0,1.0,85.00
2021-04-14 09:39:07.901,,,,,,,,,,,,,,,,,,,,,,,,,,,,,,,,,,,,,,/muse/elements/blink
2021-04-14 09:39:08.396,1.364107,-0.17033029,-0.53524077,1.3281643,1.2460449,-0.8311499,-0.4999151,1.1531093,0.8647021,-0.21099994,0.026831832,0.7732443,0.36513162,-0.3544806,-0.3661132,0.40402228,-0.32386482,-0.68286324,-0.4217445,-0.3456105,761.9414,842.52747,798.20514,776.8498,484.32236,-0.23663330078125,0.01947021484375,0.98590087890625,9.510498046875,-7.6861572265625,-37.615814208984375,1,1.0,1.0,1.0,1.0,80.00
2021-04-14 09:39:08.940,1.5140821,-0.39550364,-0.3928441,1.3716829,1.4056162,-0.96861714,-0.62395763,1.2384512,0.8757855,-0.3009722,0.02306964,0.8837911,0.48633704,-0.4114959,-0.30952278,0.39030358,-0.14105392,-0.6155249,-0.42317304,-0.00868351,803.8461,800.2198,804.65204,809.89014,785.7143,-0.1741943359375,0.01220703125,0.985107421875,11.686248779296875,-4.41131591796875,-28.673553466796875,1,1.0,1.0,1.0,1.0,80.00
2021-04-14 09:39:09.484,1.6914564,-0.39550364,-0.3928441,1.366223,1.6868473,-0.96861714,-0.62395763,1.265236,0.79449606,-0.3009722,0.02306964,0.8957968,0.715176,-0.4114959,-0.30952278,0.43981645,0.012481562,-0.6155249,-0.42317304,0.1252329,821.5751,807.47253,801.02563,832.0513,805.8608,-0.16168212890625,-0.0364990234375,1.008544921875,2.55706787109375,-14.10125732421875,1.8243408203125,1,1.0,1.0,1.0,1.0,80.00
2021-04-14 09:39:10.005,1.3886458,-0.39550364,0.037798405,1.149621,0.82780397,-0.96861714,-0.23383698,0.82404363,0.6483216,-0.3009722,0.20852546,0.8402056,0.3630768,-0.4114959,-0.13644631,0.38494363,-0.31398243,-0.6155249,-0.66942954,0.109403215,785.31134,820.3663,793.36993,777.25275,759.92676,-0.085693359375,0.00396728515625,1.00286865234375,7.364654541015625,-9.64508056640625,12.142333984375,1,1.0,1.0,1.0,1.0,80.00
2021-04-14 09:39:10.514,1.0022377,-0.39550364,0.1504322,0.8356784,0.5184539,-0.96861714,-0.3814417,0.18495882,0.62378085,-0.3009722,0.22673236,0.6259268,0.3395367,-0.4114959,-0.17015107,0.26500088,-0.52160496,-0.6155249,-0.67454153,-0.1280251,792.1612,803.8461,796.5934,788.1319,764.35895,-0.083251953125,-0.008056640625,0.9879150390625,1.71966552734375,-0.142059326171875,9.398345947265625,1,1.0,1.0,1.0,1.0,80.00
2021-04-14 09:39:11.062,0.837677,-0.39550364,0.12022861,0.77320004,0.6329754,-0.96861714,-0.5260963,0.13706516,0.70460075,-0.3009722,0.09173364,0.65097755,0.31005797,-0.4114959,-0.21616204,0.21165167,-0.508013,-0.6155249,-0.6526971,-0.22398292,829.2308,806.6667,803.44324,826.8132,816.7399,-0.11627197265625,0.02044677734375,0.98681640625,5.121612548828125,-3.9776611328125,2.2430419921875,1,1.0,1.0,1.0,1.0,80.00
2021-04-14 09:39:11.581,0.36188278,0.13257155,0.09270536,0.5339274,0.5953343,-0.3083669,-0.35587084,0.21567276,0.8021297,-0.19082192,-0.061960824,0.49209282,0.23918402,-0.19394782,-0.22609635,0.16772884,-0.3886407,-0.3980029,-0.6650956,-0.30736917,826.8132,787.72894,793.7729,811.50183,869.5238,-0.0731201171875,-0.02239990234375,0.9908447265625,4.20196533203125,-4.97955322265625,-3.81317138671875,1,1.0,1.0,1.0,1.0,80.00
2021-04-14 09:39:12.098,0.3439194,0.16844206,-0.017364815,0.2903679,0.6811051,-0.3731717,-0.24794999,0.5771075,0.7976956,0.3231248,-0.0361754,0.52616847,0.04733281,-0.20460743,-0.13491891,0.20194523,-0.33621046,-0.4830131,-0.6754597,-0.385264,837.6923,805.05493,810.696,830.84247,801.02563,-0.061279296875,-0.0189208984375,0.99334716796875,5.001983642578125,-4.1571044921875,-6.467437744140625,1,1.0,1.0,1.0,1.0,80.00
2021-04-14 09:39:12.608,0.40338394,0.22472642,-0.06316095,0.20715974,0.6564183,-0.24481931,-0.11251523,0.6865182,0.72834146,0.33872724,-0.14585511,0.5124863,0.05323912,-0.12326605,-0.07543818,0.26683843,-0.32039616,-0.57372594,-0.7151991,-0.54716915,766.3736,767.5824,809.89014,783.2967,637.8388,-0.02752685546875,-0.03533935546875,0.99664306640625,2.7813720703125,-7.245025634765625,-1.48040771484375,1,1.0,1.0,1.0,1.0,80.00
2021-04-14 09:39:13.141,0.45007554,0.7834077,-0.0641711,0.36350787,0.79386216,-0.067175366,-0.0097856,0.7899689,0.6918967,0.38637406,-0.16045149,0.43430626,0.15917145,-0.09773467,-0.035397626,0.3280857,-0.4184537,-0.70016277,-0.693841,-0.5052304,791.75824,780.4762,797.3993,795.78754,672.8938,-0.02239990234375,-0.04931640625,1.0,2.73651123046875,-6.542205810546875,1.203765869140625,1,1.0,1.0,1.0,1.0,80.00
2021-04-14 09:39:13.652,0.50462127,1.0368078,0.06370835,0.46289122,0.7380239,0.02776353,0.034265254,0.6623863,0.5869651,0.33950496,0.114298694,0.16473754,0.30577555,-0.037791166,-0.026433747,0.40547785,-0.43419948,-0.7264967,-0.72550374,-0.5014228,774.83514,789.34064,796.99634,786.52014,589.4872,-0.012451171875,-0.05908203125,0.9979248046875,4.000091552734375,-4.029998779296875,5.4730224609375,1,1.0,1.0,1.0,1.0,80.00
2021-04-14 09:39:14.201,0.37622437,1.2801862,0.085095584,0.47449437,0.5943722,0.37625402,0.027767468,0.5184451,0.46324176,0.11951362,0.14799656,0.12241656,0.28015587,0.03479048,-0.10493405,0.37335935,-0.43075642,-0.54473186,-0.80210054,-0.36854714,785.7143,802.6374,801.8315,788.1319,773.6264,-0.0382080078125,-0.017578125,0.99505615234375,5.390777587890625,-1.786956787109375,1.92901611328125,1,1.0,1.0,1.0,1.0,80.00
2021-04-14 09:39:14.735,0.4100579,1.2703018,-0.04372605,0.37479374,0.44977468,0.38581145,-0.06924343,0.31538826,0.47741,-0.099388085,0.14572097,0.11541831,0.1850926,-0.0540989,-0.17083605,0.2591082,-0.3644974,-0.51221305,-0.8660606,-0.35260493,826.4103,819.15753,799.81683,814.7253,901.3553,-0.2130126953125,-0.047119140625,0.97113037109375,8.635711669921875,-0.52337646484375,15.185394287109375,1,1.0,1.0,1.0,1.0,80.00
2021-04-14 09:39:15.014,,,,,,,,,,,,,,,,,,,,,,,,,,,,,,,,,,,,,,/muse/elements/blink
2021-04-14 09:39:15.237,0.8856204,1.2224,0.40291995,0.23658945,0.660728,0.35660368,0.1261513,0.26940113,0.54407644,-0.08275098,0.13778971,-0.033887446,-0.0031881798,-0.08293862,-0.30235925,0.03280184,-0.35336217,-0.51922625,-0.7910995,-0.32138085,738.97437,749.85345,835.2747,774.83514,776.4469,0.03924560546875,-0.0054931640625,1.04150390625,-9.04693603515625,0.471038818359375,47.530059814453125,1,1.0,1.0,1.0,1.0,80.00
2021-04-14 09:39:15.771,1.0747689,1.2155818,0.86288905,1.3317044,0.76920646,0.08310066,0.50524616,0.84630024,0.5035891,-0.11351385,0.5802547,1.2025043,-0.05157291,-0.26910022,-0.22181058,0.5040783,-0.30574003,-0.6152705,-0.6984,-0.026039043,823.1868,820.3663,792.1612,805.05493,906.5934,-0.252685546875,-0.0518798828125,0.99298095703125,3.3197021484375,2.58697509765625,23.6566162109375,1,1.0,1.0,1.0,1.0,80.00
2021-04-14 09:39:16.314,1.4303687,0.97313476,1.158676,1.4433398,1.1694285,0.04041423,0.9241176,1.1001424,1.0594423,-0.21006675,0.7073101,1.2290578,0.25754645,-0.36171865,-0.041733284,0.6062698,-0.34468964,-0.5949196,-0.6745773,0.09194509,844.5421,806.6667,796.5934,823.1868,767.98535,-0.05474853515625,0.0643310546875,1.025634765625,0.7177734375,-10.9759521484375,17.772369384765625,1,1.0,1.0,1.0,1.0,80.00
2021-04-14 09:39:16.855,1.4303687,0.422395,1.0138092,1.4691534,1.1694285,-0.017908396,0.79994905,1.041474,1.0594423,-0.21193577,0.7073101,1.2764195,0.25754645,-0.410322,-0.09239382,0.5792335,-0.34468964,-0.38376534,-0.49059165,0.13647577,838.0952,798.60803,794.17584,818.3516,911.4286,-0.18646240234375,0.0367431640625,0.9967041015625,7.70111083984375,-0.770111083984375,0.964508056640625,1,1.0,1.0,1.0,1.0,80.00
2021-04-14 09:39:17.372,1.4303687,0.37346283,0.5803969,1.2996693,1.1694285,-0.06318631,0.39382812,0.91071224,1.0594423,-0.14027944,0.6217139,1.186944,0.25754645,-0.34562853,-0.15502065,0.4078836,-0.34468964,-0.5391047,-0.48007694,0.08698766,837.28937,803.8461,802.6374,826.8132,787.72894,-0.260009765625,0.0919189453125,0.94940185546875,9.637603759765625,-0.6280517578125,-4.613189697265625,1,1.0,1.0,1.0,1.0,80.00
2021-04-14 09:39:17.529,,,,,,,,,,,,,,,,,,,,,,,,,,,,,,,,,,,,,,/muse/elements/blink
2021-04-14 09:39:17.897,1.4303687,0.6834764,-0.014176408,1.3457716,1.1694285,-0.15042321,-0.54092807,1.0207406,1.0594423,-0.062910095,-0.08246329,1.1256734,0.25754645,-0.25062042,-0.19976214,0.5621726,-0.34468964,-0.56046295,-0.46206126,0.05351318,824.3956,804.2491,802.6374,817.1429,807.47253,-0.31060791015625,0.0487060546875,0.9534912109375,7.1478271484375,1.906585693359375,0.9271240234375,1,1.0,1.0,1.0,1.0,80.00
2021-04-14 09:39:18.401,0.84156257,0.7902452,-0.16074768,0.7023325,1.0264357,-0.28029147,-0.25105947,1.09407,0.9013871,-0.015151077,-0.057935152,0.9925993,0.53506917,-0.171325,-0.14601587,0.6268089,-0.30363423,-0.46705985,-0.59876883,-0.34444857,769.19415,814.3223,798.60803,795.38464,718.022,-0.30499267578125,0.0709228515625,0.946533203125,5.36834716796875,-9.630126953125,-3.043060302734375,1,1.0,1.0,1.0,1.0,90.00
2021-04-14 09:39:18.945,0.63461083,1.0115534,0.026595686,0.68185216,0.8801166,-0.3604307,-0.123656176,0.9027267,0.9165077,-0.017575158,-0.0037749172,0.9925993,0.35885856,-0.14287387,-0.16519554,0.48089632,-0.37665203,-0.36008474,-0.65717906,-0.17866857,755.09155,797.8022,804.2491,788.93774,684.57874,-0.3167724609375,0.0760498046875,0.9542236328125,4.14215087890625,-5.5328369140625,2.16827392578125,1,1.0,1.0,1.0,1.0,90.00
2021-04-14 09:39:19.491,0.36891404,0.9187861,0.02664086,0.58800447,0.62325805,-0.40821907,-0.15704243,0.6299381,0.8213539,0.028688535,-0.07353157,0.88768595,0.108274385,-0.050853934,-0.265936,0.35471857,-0.3919018,-0.34848487,-0.6714176,-0.083220914,805.4579,798.20514,799.011,803.8461,1147.5458,-0.30279541015625,0.0633544921875,0.95086669921875,5.615081787109375,-5.562744140625,2.340240478515625,1,1.0,1.0,1.0,1.0,90.00
2021-04-14 09:39:20.034,0.40831336,0.67413145,-0.020779178,0.51392066,0.38310233,-0.4161286,-0.35130697,0.38023862,0.45191762,0.044718962,0.04003613,0.3738069,0.040094126,0.03579316,-0.3953688,0.23239292,-0.45638815,-0.6122135,-0.5007055,-0.09834916,760.32965,802.6374,799.81683,782.0879,620.9158,-0.327880859375,0.039794921875,0.94287109375,3.536529541015625,-2.1234130859375,-1.861724853515625,1,1.0,1.0,1.0,1.0,90.00
2021-04-14 09:39:20.545,0.38503852,0.05544172,-0.3185461,0.30130655,0.08190921,-0.39292336,-0.47871104,0.30363476,0.4726209,0.11065898,4.0777595E-5,0.31681335,0.051526353,-0.0019062596,-0.39325505,0.21278732,-0.41554558,-0.6850308,-0.50165296,-0.22647707,752.27106,799.011,798.60803,776.04395,752.674,-0.328369140625,0.04339599609375,0.9478759765625,5.03936767578125,-4.65057373046875,1.48040771484375,1,1.0,1.0,1.0,1.0,90.00
2021-04-14 09:39:21.098,0.37730098,-0.060512863,-0.33908653,0.1933876,0.10414802,-0.3797619,-0.36955857,0.30010587,0.48928338,0.19269076,-0.003405187,0.22608946,-0.014257971,-0.056819815,-0.37148866,0.09849843,-0.5126669,-0.62646717,-0.5439934,-0.34426233,776.8498,803.44324,799.011,783.2967,725.2747,-0.32403564453125,0.01251220703125,0.94488525390625,3.312225341796875,-5.390777587890625,-1.024322509765625,1,1.0,1.0,1.0,1.0,90.00
2021-04-14 09:39:21.606,0.10699388,-0.13822225,-0.37416247,0.24747717,0.22655435,-0.4170662,-0.3949665,0.4025733,0.5047672,0.17834467,-0.2631155,0.20454827,-0.025651949,-0.09568367,-0.3580319,0.04161624,-0.4662196,-0.57236224,-0.639555,-0.45620412,824.3956,807.47253,806.26373,818.3516,770.0,-0.3223876953125,0.00823974609375,0.9447021484375,5.2935791015625,-0.6280517578125,-0.94207763671875,1,1.0,1.0,1.0,1.0,90.00
2021-04-14 09:39:22.111,0.37817734,-0.28514746,-0.5032832,0.66526467,0.43627733,-0.48417148,-0.39080572,0.3968534,0.58988625,0.05877032,-0.38359657,0.26861525,-0.006991847,-0.12140881,-0.3226573,0.05592418,-0.49923962,-0.54496586,-0.5958543,-0.5042424,816.7399,801.02563,798.60803,811.0989,838.9011,-0.33868408203125,0.02313232421875,0.9500732421875,7.4169921875,0.560760498046875,4.66552734375,1,1.0,1.0,1.0,1.0,90.00
2021-04-14 09:39:22.643,0.3724686,-0.27712086,-0.5305528,0.63158315,0.40873298,-0.53145975,-0.411467,0.14507587,0.602315,-0.07467827,-0.372813,0.22013095,0.05373648,-0.22487502,-0.21349864,0.071165495,-0.49724925,-0.5437022,-0.57260096,-0.6426536,801.4286,796.1905,797.3993,799.81683,691.02563,-0.34478759765625,0.01629638671875,0.94244384765625,3.955230712890625,-4.246826171875,0.650482177734375,1,1.0,1.0,1.0,1.0,90.00
2021-04-14 09:39:23.170,0.48900032,-0.17893821,-0.4659266,0.6071563,0.42578074,-0.5342095,-0.37914285,0.16284731,0.77944934,-0.046510674,-0.3368315,0.58018404,0.06596282,-0.25558373,-0.22016685,0.08915697,-0.5006691,-0.4975794,-0.53689116,-0.57826716,782.49084,799.41394,800.6227,800.2198,643.47986,-0.3421630859375,0.0235595703125,0.93804931640625,3.820648193359375,-6.57958984375,3.00567626953125,1,1.0,1.0,1.0,1.0,90.00
2021-04-14 09:39:23.706,0.44170517,-0.19743615,-0.26850054,0.44023427,0.37967217,-0.5080651,-0.43936855,0.27762836,0.85708314,-0.0593148,-0.04252675,0.76475924,0.22882208,-0.21852762,-0.28421757,0.108870864,-0.45395854,-0.52835613,-0.49552956,-0.54675496,837.6923,807.8755,803.44324,841.7216,673.69965,-0.33160400390625,0.0146484375,0.94451904296875,4.9346923828125,-3.745880126953125,1.263580322265625,1,1.0,1.0,1.0,1.0,90.00
2021-04-14 09:39:24.238,0.7577066,-0.2417751,-0.24014616,0.7385259,0.5030044,-0.48481852,-0.34311903,0.45329824,0.9281913,-0.15376787,0.035444014,0.78656673,0.30882642,-0.07489096,-0.31669763,0.18573254,-0.41442174,-0.55952674,-0.47421947,-0.48336297,768.3883,805.05493,800.6227,776.8498,677.326,-0.3428955078125,0.0213623046875,0.94940185546875,5.69732666015625,-2.49725341796875,-0.112152099609375,1,1.0,1.0,1.0,1.0,90.00
2021-04-14 09:39:24.767,0.9248541,-0.3108872,-0.27348146,0.9084284,0.6288901,-0.54373527,-0.2737023,0.5127551,0.93510985,0.023241013,0.04716917,0.7915296,0.34673434,-0.025050461,-0.2584168,0.23174216,-0.3708734,-0.5974823,-0.53310764,-0.35879818,832.8571,805.4579,801.02563,826.0073,853.8095,-0.35028076171875,0.02423095703125,0.93878173828125,4.104766845703125,-0.366363525390625,0.37384033203125,1,1.0,1.0,1.0,1.0,90.00
2021-04-14 09:39:24.976,,,,,,,,,,,,,,,,,,,,,,,,,,,,,,,,,,,,,,/muse/elements/blink
2021-04-14 09:39:25.274,1.0784142,-0.05850722,-0.4872303,0.9618675,0.737906,-0.42246047,-0.13360554,0.5661463,0.79445,0.15970317,0.0822485,0.7509233,0.28405452,0.063056685,-0.16760099,0.28471875,-0.33735657,-0.52040493,-0.64353263,-0.30526686,771.2088,799.011,798.20514,781.28204,689.81683,-0.32928466796875,0.01953125,0.95172119140625,3.730926513671875,-7.117919921875,-0.306549072265625,1,1.0,1.0,1.0,1.0,90.00
2021-04-14 09:39:25.782,0.9268804,0.08450554,-0.46467394,0.7957037,0.6613554,-0.31269482,-0.22528715,0.4676697,0.5355592,0.14723934,0.008604283,0.74900866,0.21525338,-0.032557935,-0.2738838,0.30840626,-0.28034908,-0.5082721,-0.68055016,-0.22205976,787.72894,801.4286,802.6374,787.326,718.022,-0.31658935546875,0.01641845703125,0.95782470703125,2.953338623046875,-5.323486328125,-0.94207763671875,1,1.0,1.0,1.0,1.0,90.00
2021-04-14 09:39:26.329,1.1211436,0.1561997,-0.41131285,0.7261914,0.6591866,-0.17650811,-0.33438113,0.7080391,0.3648471,0.16036269,0.036294986,0.80426526,-0.0086521115,-0.07610742,-0.26902503,0.20885399,-0.38072935,-0.53214747,-0.7293661,-0.38526583,816.7399,800.2198,796.1905,813.1135,814.3223,-0.3321533203125,9.765625E-4,0.95263671875,4.164581298828125,-2.31781005859375,-0.19439697265625,1,1.0,1.0,1.0,1.0,90.00
2021-04-14 09:39:26.844,0.8579019,0.02386778,-0.38903928,0.52088684,0.5389344,-0.02592704,-0.49266037,0.662128,0.5330183,0.17287703,0.044572238,0.7799095,-0.053196803,-0.19577353,-0.332008,-0.04455024,-0.5199256,-0.5871,-0.71721894,-0.34813303,826.0073,797.8022,799.81683,820.3663,780.87915,-0.3297119140625,0.01861572265625,0.9410400390625,4.493560791015625,-4.972076416015625,0.4486083984375,1,1.0,1.0,1.0,1.0,90.00
