TimeStamp,Delta_TP9,Delta_AF7,Delta_AF8,Delta_TP10,Theta_TP9,Theta_AF7,Theta_AF8,Theta_TP10,Alpha_TP9,Alpha_AF7,Alpha_AF8,Alpha_TP10,Beta_TP9,Beta_AF7,Beta_AF8,Beta_TP10,Gamma_TP9,Gamma_AF7,Gamma_AF8,Gamma_TP10,RAW_TP9,RAW_AF7,RAW_AF8,RAW_TP10,AUX_RIGHT,Accelerometer_X,Accelerometer_Y,Accelerometer_Z,Gyro_X,Gyro_Y,Gyro_Z,HeadBandOn,HSI_TP9,HSI_AF7,HSI_AF8,HSI_TP10,Battery,Elements
2021-04-16 10:11:35.097,1.3284831,0.21647233,0.3771524,0.8933894,0.94191074,-0.17506394,0.15340213,0.649875,0.9696685,0.28882825,0.1781295,0.64633393,0.37802446,-0.20115983,-0.050398458,0.298896,-0.05336787,-0.6369027,-0.41937244,-0.2612579,505.67764,793.7729,805.4579,697.0696,419.45056,-0.05328369140625,-0.0064697265625,1.00164794921875,4.68048095703125,-2.811279296875,1.816864013671875,1,1.0,1.0,1.0,1.0,55.00
2021-04-16 10:11:35.211,,,,,,,,,,,,,,,,,,,,,,,,,,,,,,,,,,,,,,/muse/elements/blink
2021-04-16 10:11:35.541,,,,,,,,,,,,,,,,,,,,,,,,,,,,,,,,,,,,,,/muse/elements/blink
2021-04-16 10:11:35.605,1.5121877,0.20757103,0.45584285,0.94127625,1.1286093,-0.117501944,0.19431724,0.6885902,0.9696685,0.3073294,0.12291955,0.4734972,0.3465018,-0.20816104,-0.0840352,0.39817506,-0.06892635,-0.65669924,-0.42437306,-0.20366888,722.0513,801.02563,791.75824,775.2381,759.92676,-0.07501220703125,-0.002685546875,1.00048828125,4.882354736328125,-3.072967529296875,2.504730224609375,1,1.0,1.0,1.0,1.0,55.00
2021-04-16 10:11:36.115,1.6902077,0.34371632,0.53821373,0.9056694,1.3127185,0.04161147,0.21172358,0.6779681,0.9696685,0.3435871,0.0010594116,0.26575857,0.40082362,-0.031692132,-0.1732929,0.40917626,2.680946E-4,-0.7203318,-0.46598536,-0.18739139,796.5934,806.26373,803.44324,620.9158,985.16486,-0.07940673828125,5.4931640625E-4,1.0052490234375,6.4300537109375,-3.18511962890625,3.416900634765625,1,1.0,1.0,1.0,1.0,55.00
2021-04-16 10:11:36.330,,,,,,,,,,,,,,,,,,,,,,,,,,,,,,,,,,,,,,/muse/elements/blink
2021-04-16 10:11:36.640,1.6902077,0.7064741,0.6049024,0.9056694,1.3127185,0.34874696,0.14352018,0.6779681,0.9696685,0.81348747,0.5249711,0.26575857,0.40082362,0.038353883,-0.15498716,0.40917626,2.680946E-4,-0.72964627,-0.6252483,-0.18739139,956.9597,804.65204,803.8461,838.0952,826.8132,-0.0806884765625,0.0255126953125,1.0010986328125,5.510406494140625,-3.69354248046875,2.82623291015625,1,1.0,1.0,1.0,1.0,55.00
2021-04-16 10:11:37.149,1.6902077,0.8035958,0.7884936,0.9056694,1.3127185,0.5626905,0.3906766,0.6779681,0.9696685,0.8374505,0.60760015,0.26575857,0.40082362,0.06966914,-0.07568965,0.40917626,2.680946E-4,-0.7448396,-0.61818296,-0.18739139,656.3736,802.6374,806.26373,780.87915,394.46887,-0.11407470703125,0.0230712890625,0.993896484375,4.553375244140625,-3.51409912109375,3.162689208984375,1,1.0,1.0,1.0,1.0,55.00
2021-04-16 10:11:37.657,1.6902077,0.74452084,0.77337,0.9056694,1.3127185,0.5167423,0.5173246,0.6779681,0.9696685,0.8340506,0.60760015,0.26575857,0.40082362,-0.043952372,-0.057465952,0.40917626,2.680946E-4,-0.6388252,-0.53354466,-0.18739139,505.27472,809.4872,789.34064,662.01465,538.315,-0.11334228515625,0.00506591796875,0.99334716796875,4.3963623046875,-3.21502685546875,1.099090576171875,1,2.0,1.0,1.0,2.0,55.00
2021-04-16 10:11:37.896,,,,,,,,,,,,,,,,,,,,,,,,,,,,,,,,,,,,,,/muse/elements/blink
2021-04-16 10:11:38.148,,,,,,,,,,,,,,,,,,,,,,,,,,,,,,,,,,,,,,/muse/elements/blink
2021-04-16 10:11:38.161,1.6902077,0.30272114,0.6743622,0.9056694,1.3127185,0.16962881,0.42665637,0.6779681,0.9696685,0.7416176,0.5179995,0.26575857,0.40082362,-0.060811054,-0.10359219,0.40917626,2.680946E-4,-0.5737706,-0.49333698,-0.18739139,907.8022,812.3077,804.2491,819.5604,1006.52014,-0.12860107421875,-0.005615234375,0.992919921875,4.882354736328125,-4.673004150390625,1.42059326171875,1,2.0,1.0,1.0,2.0,55.00
2021-04-16 10:11:38.692,1.6902077,0.11272151,0.6408069,0.9056694,1.3127185,-0.05891238,0.34446812,0.6779681,0.9696685,0.12555543,0.38321528,0.26575857,0.40082362,-0.10227525,-0.11615268,0.40917626,2.680946E-4,-0.5621938,-0.42658085,-0.18739139,633.00366,801.02563,812.71063,804.2491,423.47986,-0.11572265625,0.0272216796875,0.9937744140625,8.725433349609375,-7.8656005859375,19.36492919921875,1,2.0,1.0,1.0,2.0,55.00
2021-04-16 10:11:39.215,1.9213514,1.2662967,1.0677446,0.9056694,1.5052048,0.77483493,0.5514272,0.6779681,1.3472781,0.77166647,0.4270572,0.26575857,0.5758899,-0.061150275,-0.06764038,0.40917626,0.016188582,-0.53824735,-0.42445123,-0.18739139,757.50916,800.2198,800.2198,793.36993,534.2857,-0.081787109375,0.0679931640625,0.990966796875,14.95361328125,-9.390869140625,13.56292724609375,1,1.0,1.0,1.0,1.0,55.00
2021-04-16 10:11:39.718,1.9213514,1.3426534,1.1747901,0.9056694,1.5052048,0.8390765,0.6522262,0.6779681,1.3472781,0.77068305,0.5208674,0.26575857,0.5758899,-0.062262937,-0.04708358,0.40917626,0.016188582,-0.58280396,-0.5042001,-0.18739139,490.3663,824.3956,778.0586,710.3663,493.1868,-0.06451416015625,0.11785888671875,0.98681640625,5.263671875,-2.82623291015625,-3.536529541015625,1,1.0,1.0,1.0,1.0,55.00
2021-04-16 10:11:40.235,1.6585907,1.3683486,1.2295042,1.3320419,1.239251,0.87156695,0.7475458,1.0109543,1.2902564,0.82426697,0.5506932,0.9461517,0.38742366,-0.07240019,-0.0013927843,0.64023244,0.080929674,-0.4936356,-0.59012413,0.14964825,1075.0183,806.26373,799.41394,846.1539,1051.2454,-0.0484619140625,0.13055419921875,0.9970703125,5.585174560546875,-6.990814208984375,-2.51220703125,1,1.0,1.0,1.0,1.0,55.00
2021-04-16 10:11:40.760,0.96310675,0.94350755,1.1084473,1.3974354,0.55107516,0.47596717,0.62980545,1.0639315,0.7760295,0.667442,0.5620676,0.95285654,0.4079802,-0.11113203,0.01825991,0.65223795,0.12785953,-0.5203336,-0.62229466,0.11876665,756.7033,810.696,793.36993,797.3993,540.32965,-0.0584716796875,0.149169921875,0.994140625,3.99261474609375,-3.820648193359375,-5.9814453125,1,1.0,1.0,1.0,1.0,55.00
2021-04-16 10:11:41.057,,,,,,,,,,,,,,,,,,,,,,,,,,,,,,,,,,,,,,/muse/elements/blink
2021-04-16 10:11:41.297,0.95222485,0.87095594,1.0870732,1.4351325,0.52642536,0.55619293,0.6988522,1.1114433,0.7760295,0.6152959,0.6261408,0.95285654,0.38046777,-0.021608671,0.048751283,0.64308214,0.112620614,-0.5199882,-0.49306718,0.11030959,973.0769,807.8755,805.05493,851.79486,853.4066,-0.1168212890625,0.11444091796875,0.9791259765625,1.83929443359375,3.850555419921875,-11.461944580078125,1,1.0,1.0,1.0,1.0,55.00
2021-04-16 10:11:41.688,,,,,,,,,,,,,,,,,,,,,,,,,,,,,,,,,,,,,,/muse/elements/blink
2021-04-16 10:11:41.828,0.9836796,0.9550562,1.0894706,1.5523876,0.5366502,0.7065138,0.8144058,1.2169259,0.72220296,0.6276961,0.64927614,0.9440589,0.35700294,0.036110826,0.016259678,0.6724901,0.09730945,-0.44765198,-0.5154283,0.005646477,1055.6776,809.89014,815.9341,855.82416,1026.6666,-0.220458984375,0.0816650390625,0.96636962890625,10.489959716796875,-1.98883056640625,-18.490142822265625,1,1.0,1.0,1.0,1.0,55.00
2021-04-16 10:11:42.371,0.9053543,0.8248683,0.9051059,0.9568645,0.2229328,0.6783934,0.7505205,1.3523736,0.47864756,0.63059235,0.6449051,1.0783584,0.27076322,0.043160014,-0.050149683,0.6362162,0.061402842,-0.42708886,-0.54691917,0.6166189,873.95605,813.91943,803.44324,819.9634,622.1245,-0.31683349609375,0.06781005859375,0.96575927734375,2.968292236328125,5.420684814453125,-0.5084228515625,1,1.0,1.0,1.0,1.0,55.00
2021-04-16 10:11:42.909,0.9053543,0.7702544,0.7029703,0.991007,0.2229328,0.53478503,0.4921988,1.3746641,0.47864756,0.58835584,0.49506074,1.1264304,0.27076322,-0.038335625,-0.12869205,0.62337005,0.061402842,-0.45093513,-0.6747461,0.62327886,1011.75824,809.0842,804.65204,843.3333,923.1135,-0.2906494140625,0.07037353515625,0.95648193359375,5.62255859375,-2.572021484375,-7.04315185546875,1,1.0,1.0,1.0,1.0,55.00
2021-04-16 10:11:43.414,0.8267754,0.53720886,0.4549196,0.8333698,0.69256693,0.27544767,-0.08837221,1.122183,0.63692945,0.39120263,0.021495946,1.1457301,0.6048387,-0.09972978,-0.18634547,0.5833859,0.2792861,-0.5810102,-0.6663204,0.49727583,728.49817,803.44324,806.6667,792.1612,475.4579,-0.31939697265625,0.06573486328125,0.9625244140625,6.5496826171875,-0.426177978515625,-1.71966552734375,1,1.0,1.0,1.0,1.0,55.00
2021-04-16 10:11:43.938,0.66899526,0.45373133,0.3702847,0.5498943,0.53100234,0.24154837,-0.19495668,0.36604726,0.6490494,0.35525972,-0.007829405,0.71713567,0.5889393,-0.11077642,-0.19819608,0.4182041,0.32513732,-0.5856829,-0.66974354,0.15727367,965.82416,809.0842,800.6227,833.663,1041.5751,-0.34857177734375,0.072509765625,0.93804931640625,5.42816162109375,-7.828216552734375,2.908477783203125,1,1.0,1.0,1.0,1.0,55.00
2021-04-16 10:11:44.487,0.6430487,-0.14823793,0.015201304,0.3159519,0.34186995,-0.07834098,-0.3827262,0.011314834,0.6710224,-0.059812382,-0.0136000775,0.6589759,0.5155908,-0.18139368,-0.198779,0.34311083,0.27992725,-0.60814476,-0.6302299,0.02887652,602.7839,804.2491,801.4286,757.1062,403.73627,-0.29144287109375,0.03204345703125,0.9671630859375,0.9271240234375,-10.81146240234375,10.235748291015625,1,1.0,1.0,1.0,1.0,55.00
2021-04-16 10:11:44.989,0.5335737,0.2500644,0.41596133,0.5527443,0.2838785,0.16283174,-0.0135595845,-0.0062349737,0.60784435,0.26271957,0.35723493,0.33370006,0.3920042,-0.103076026,-0.10206041,0.17029367,0.28246203,-0.5443887,-0.63410217,-0.25004998,608.4249,803.8461,798.60803,768.3883,566.52014,-0.36236572265625,0.096435546875,0.95404052734375,3.5888671875,3.30474853515625,5.443115234375,1,1.0,1.0,1.0,1.0,55.00
2021-04-16 10:11:45.353,,,,,,,,,,,,,,,,,,,,,,,,,,,,,,,,,,,,,,/muse/elements/blink
2021-04-16 10:11:45.531,0.56089365,0.39271164,0.56304675,0.77157646,0.33580664,0.17568825,0.10557676,0.13123931,0.5703284,0.2681853,0.43440652,0.36561182,0.31672248,-0.096818976,-0.026618227,0.16391209,0.24026066,-0.51558375,-0.59662974,-0.29715973,942.4542,798.60803,807.8755,838.9011,1040.3663,-0.34832763671875,0.05572509765625,0.94482421875,6.871185302734375,-4.18701171875,0.7177734375,1,1.0,1.0,1.0,1.0,55.00
2021-04-16 10:11:46.074,0.40042388,0.4838637,0.5795238,0.96090806,0.46303284,0.27381626,0.2517569,0.29565775,0.48697868,0.30659974,0.5537238,0.3534563,0.2587485,-0.062348254,-0.02941956,0.20197909,0.29778513,-0.5399496,-0.6423616,-0.33711976,1048.8279,814.7253,809.0842,866.7033,973.0769,-0.357421875,0.0811767578125,0.93365478515625,2.58697509765625,-7.394561767578125,-1.854248046875,1,1.0,1.0,1.0,1.0,55.00
2021-04-16 10:11:46.588,0.42254883,0.3909206,0.38459462,1.104831,0.5143258,0.06145603,0.13971923,0.39940998,0.4773689,0.1783349,0.49249542,0.35319304,0.25554058,-0.068374574,-0.10548668,0.22402355,0.31161365,-0.6459385,-0.6532546,-0.2999365,1050.4396,838.49817,784.5055,844.5421,1093.1501,-0.32379150390625,0.062255859375,0.94512939453125,2.34771728515625,-5.061798095703125,0.964508056640625,1,1.0,1.0,1.0,1.0,55.00
2021-04-16 10:11:46.768,,,,,,,,,,,,,,,,,,,,,,,,,,,,,,,,,,,,,,/muse/elements/blink
2021-04-16 10:11:47.118,1.1096514,0.37733108,1.0017285,0.86946404,0.77076906,0.10193898,0.3912756,0.5047588,0.6085504,0.053738963,0.5972098,0.7693744,0.49240375,-0.036100037,-0.06188532,0.4309752,0.1739487,-0.70068234,-0.6573091,-0.11326638,946.8865,807.47253,805.05493,826.8132,792.5641,-0.33538818359375,0.0618896484375,0.94677734375,3.4991455078125,-3.12530517578125,0.478515625,1,1.0,1.0,1.0,1.0,55.00
2021-04-16 10:11:47.659,1.1468918,0.36025962,1.1503736,0.7882894,0.7459661,-0.05057677,0.5052263,0.41822448,0.6085504,-0.04624083,0.57529414,0.7721984,0.49456757,-0.058802944,-0.037355565,0.4610391,0.15894887,-0.6865635,-0.6335169,-0.16567625,1050.0366,814.7253,805.4579,849.3773,1153.5897,-0.32696533203125,0.05780029296875,0.95037841796875,4.68048095703125,-5.749664306640625,0.471038818359375,1,1.0,1.0,1.0,1.0,55.00
2021-04-16 10:11:48.172,1.2291056,0.021030711,1.0941703,0.7350181,0.7986335,-0.20154153,0.48394305,0.34231186,0.57196003,-0.51409763,0.57341206,0.7401695,0.5060832,-0.08685039,-0.03936371,0.4618416,0.15080005,-0.5860002,-0.5155826,0.31649938,901.3553,813.91943,803.8461,813.5165,650.7326,-0.3143310546875,0.05377197265625,0.94610595703125,4.089813232421875,-4.007568359375,0.755157470703125,1,1.0,1.0,1.0,1.0,55.00
2021-04-16 10:11:48.669,,,,,,,,,,,,,,,,,,,,,,,,,,,,,,,,,,,,,,/muse/elements/blink
2021-04-16 10:11:48.675,1.2632537,-0.107408434,0.428884,0.5674753,0.794489,-0.24818742,0.12522176,0.21546839,0.5611737,-0.38379416,0.32014012,0.5194787,0.49720585,-0.07419806,-0.17722467,0.38797262,0.124240026,-0.5661683,-0.47560674,0.3696103,600.7692,806.26373,805.05493,762.74725,464.9817,-0.31964111328125,0.05084228515625,0.94677734375,3.372039794921875,-4.42626953125,-1.18133544921875,1,1.0,1.0,1.0,1.0,55.00
2021-04-16 10:11:48.910,,,,,,,,,,,,,,,,,,,,,,,,,,,,,,,,,,,,,,/muse/elements/blink
2021-04-16 10:11:49.177,1.2632537,-0.13243109,-0.06261278,0.58486825,0.794489,-0.15666413,-0.21128193,0.5038844,0.5611737,0.030677473,-0.063953675,0.6492703,0.49720585,-0.10815907,-0.16883047,0.34199062,0.124240026,-0.53434044,-0.53465855,0.39602807,348.13187,789.34064,823.5897,491.17215,668.0586,-0.31512451171875,0.03277587890625,0.95220947265625,3.39447021484375,-4.867401123046875,-0.456085205078125,1,1.0,1.0,1.0,1.0,55.00
2021-04-16 10:11:49.401,,,,,,,,,,,,,,,,,,,,,,,,,,,,,,,,,,,,,,/muse/elements/blink
2021-04-16 10:11:49.713,1.2632537,-0.15509143,0.45598567,0.60508686,0.794489,0.06299515,0.15748154,0.62749815,0.5611737,0.37729603,-0.08042197,0.6492703,0.49720585,-0.08586148,-0.22152834,0.26164064,0.124240026,-0.470173,-0.59612256,0.05833375,939.2308,813.5165,796.99634,834.87177,999.67035,-0.32373046875,0.03863525390625,0.94677734375,3.887939453125,-3.686065673828125,0.6878662109375,1,1.0,1.0,1.0,1.0,55.00
2021-04-16 10:11:50.118,,,,,,,,,,,,,,,,,,,,,,,,,,,,,,,,,,,,,,/muse/elements/blink
2021-04-16 10:11:50.215,1.2632537,-0.066331565,0.64891076,0.6445687,0.794489,0.16039385,0.29276258,0.8638322,0.5611737,0.38815936,-0.0944378,0.59832656,0.49720585,-0.15747821,-0.28465614,0.20332937,0.124240026,-0.4134034,-0.6796111,-0.2456157,1037.1428,810.293,811.9048,853.4066,1043.1868,-0.33966064453125,0.0311279296875,0.9476318359375,3.147735595703125,-1.398162841796875,0.97198486328125,1,1.0,1.0,1.0,1.0,55.00
2021-04-16 10:11:50.748,1.2632537,-0.06761456,0.6503228,0.6445687,0.794489,0.14927621,0.34151042,0.8638322,0.5611737,0.4269549,-0.048319306,0.59832656,0.49720585,-0.13410577,-0.31425205,0.20332937,0.124240026,-0.42755058,-0.68813396,-0.2456157,623.3333,805.4579,801.02563,775.2381,496.00732,-0.3466796875,0.0289306640625,0.942626953125,4.59075927734375,-2.086029052734375,0.426177978515625,1,1.0,1.0,1.0,1.0,55.00
2021-04-16 10:11:51.273,0.9235141,0.04787513,0.46482828,0.683339,0.12086389,0.03076302,0.29825884,-0.29891795,0.4865017,0.4441806,0.07687362,0.22623022,0.018352322,-0.19145152,-0.24236698,0.074144006,0.026757639,-0.4916617,-0.64781463,-0.42355978,573.36993,803.0403,797.3993,763.5531,419.8535,-0.36456298828125,0.02783203125,0.92864990234375,4.66552734375,-3.401947021484375,-0.299072265625,1,1.0,1.0,1.0,1.0,55.00
2021-04-16 10:11:51.351,,,,,,,,,,,,,,,,,,,,,,,,,,,,,,,,,,,,,,/muse/elements/blink
2021-04-16 10:11:51.793,1.0437672,0.073322855,0.0627508,0.92701143,0.47668922,-0.00569099,0.086338006,0.39984664,0.79535383,0.21922414,0.176194,0.732449,0.2639726,-0.11923952,-0.13558541,0.34707227,0.019024368,-0.56059223,-0.5967439,-0.36362082,719.6337,805.05493,807.8755,780.87915,731.31866,-0.35614013671875,0.02447509765625,0.9398193359375,4.553375244140625,-4.26177978515625,1.30096435546875,1,1.0,1.0,1.0,1.0,55.00
2021-04-16 10:11:52.310,0.93022907,0.08856872,0.006757085,0.7542807,0.51480514,-0.0915213,0.05042146,0.3682316,0.80828,0.19124642,0.37836567,0.7451349,0.30001235,-0.14549303,-0.079833075,0.33745432,0.025201378,-0.5623642,-0.66783494,-0.34380803,596.337,801.4286,807.47253,760.7326,466.99634,-0.37841796875,0.04693603515625,0.93487548828125,7.723541259765625,-3.117828369140625,1.39068603515625,1,1.0,1.0,1.0,1.0,55.00
2021-04-16 10:11:52.659,,,,,,,,,,,,,,,,,,,,,,,,,,,,,,,,,,,,,,/muse/elements/blink
2021-04-16 10:11:52.835,0.79609364,0.049407773,-0.139708,0.6463879,0.5524546,-0.10149654,-0.06421469,0.36011592,0.81090456,0.31502542,0.35160637,0.7419175,0.36966634,-0.09435927,-0.072092794,0.36544892,0.030273812,-0.51098996,-0.7634705,-0.3054679,838.49817,803.8461,810.696,725.2747,874.7619,-0.35211181640625,0.04876708984375,0.93743896484375,3.78326416015625,-6.3702392578125,-1.338348388671875,1,1.0,1.0,1.0,1.0,55.00
2021-04-16 10:11:52.930,,,,,,,,,,,,,,,,,,,,,,,,,,,,,,,,,,,,,,/muse/elements/blink
2021-04-16 10:11:53.385,0.24209708,0.14193296,0.6525563,-0.0054180264,0.39906684,0.25551417,0.31387782,0.038777974,0.6210856,0.6917342,0.39623305,0.54753286,0.27889323,0.025155718,0.052215904,0.246828,0.02610134,-0.43727168,-0.83655995,-0.30115947,1058.0952,812.3077,798.60803,872.3443,1033.1135,-0.34283447265625,0.0396728515625,0.9437255859375,3.2598876953125,-4.837493896484375,1.016845703125,1,1.0,1.0,1.0,1.0,55.00
2021-04-16 10:11:53.928,0.3753315,0.06929996,0.72010255,0.20228961,0.4238039,0.32581878,0.28527886,0.008200451,0.44266582,0.691516,0.29244876,0.387209,0.30540764,0.028482057,0.07416398,0.2484743,0.07459714,-0.43670255,-0.5857396,-0.24084017,829.6337,809.0842,803.0403,809.4872,603.1868,-0.34112548828125,0.02813720703125,0.94384765625,4.08233642578125,-6.766510009765625,-0.22430419921875,1,1.0,1.0,1.0,1.0,55.00
2021-04-16 10:11:54.433,0.3753315,0.0030637148,0.71617186,0.20228961,0.4238039,0.286069,0.27564332,0.008200451,0.44266582,0.67717874,0.2483298,0.387209,0.30540764,-0.077208,0.072397776,0.2484743,0.07459714,-0.5774259,-0.53164566,-0.24084017,992.8205,817.5458,799.011,847.76556,882.8205,-0.3428955078125,0.02484130859375,0.9407958984375,4.134674072265625,-4.912261962890625,-0.10467529296875,1,1.0,1.0,1.0,1.0,55.00
2021-04-16 10:11:54.936,0.27111512,-0.058000546,0.19867156,0.4195743,0.04566833,-0.1792221,-0.1766248,-0.1345343,0.42286792,0.42772666,0.1804943,0.38995633,0.12615061,-0.2537083,-0.07665354,0.0164631,-0.008050637,-0.6486475,-0.51414,-0.42273816,711.1722,807.0696,801.02563,788.1319,426.30035,-0.34222412109375,0.0213623046875,0.9456787109375,4.42626953125,-4.837493896484375,0.5084228515625,1,1.0,1.0,1.0,1.0,55.00
2021-04-16 10:11:55.443,0.12713324,0.015386852,0.05617521,0.28564546,0.1828718,-0.29939792,-0.34611404,0.2541651,0.5447113,0.17237289,-0.009512486,0.5258333,0.14223847,-0.25811586,-0.19679578,0.052679613,-0.0077336924,-0.653236,-0.62403476,-0.32134414,977.1062,808.2784,800.6227,834.87177,1129.414,-0.34857177734375,0.0323486328125,0.9451904296875,4.538421630859375,-3.768310546875,1.906585693359375,1,1.0,1.0,1.0,1.0,55.00
2021-04-16 10:11:55.986,-0.043557934,0.010995175,-0.035256032,0.033155974,0.21636508,-0.21333496,-0.44199765,0.30051666,0.5528646,0.1707903,-0.013084899,0.5371833,0.14093268,-0.18470567,-0.25447604,0.12275123,-0.009388996,-0.56895405,-0.7115307,-0.30180272,807.47253,809.0842,804.2491,805.4579,811.9048,-0.3511962890625,0.0167236328125,0.9351806640625,4.59075927734375,-4.7552490234375,1.07666015625,1,1.0,1.0,1.0,1.0,55.00
2021-04-16 10:11:56.366,,,,,,,,,,,,,,,,,,,,,,,,,,,,,,,,,,,,,,/muse/elements/blink
2021-04-16 10:11:56.545,-0.1422363,-0.25054312,-0.04853531,-0.13248667,0.25767434,-0.22980613,-0.40243846,0.34407216,0.5291986,0.19293611,6.2566303E-4,0.4994017,0.1666171,-0.22927123,-0.29868865,0.14357808,-0.018437846,-0.5879269,-0.81076056,-0.26032576,687.3993,804.65204,804.65204,818.7546,657.5824,-0.343017578125,0.0133056640625,0.94110107421875,4.11224365234375,-4.029998779296875,-0.112152099609375,1,1.0,1.0,1.0,1.0,55.00
2021-04-16 10:11:57.051,-0.11792666,-0.18240806,0.6675152,-0.27679953,0.24579687,0.043177396,0.28125566,0.24346635,0.3623114,0.15084846,-0.07305584,0.080303766,0.16142488,-0.18949547,-0.19567525,0.16345587,1.6707712E-4,-0.5961837,-0.7346621,-0.32977808,934.7985,809.0842,801.8315,835.6777,1052.0513,-0.3515625,0.01007080078125,0.93865966796875,4.284210205078125,-4.538421630859375,0.3887939453125,1,1.0,1.0,1.0,1.0,55.00
2021-04-16 10:11:57.562,-0.01294616,-0.09267329,0.68811727,-0.29573154,0.29483405,0.09132355,0.330659,0.30756107,0.16184258,0.15084846,0.03000061,-0.010138024,0.19057831,-0.1402719,-0.2515734,0.14833546,0.014243911,-0.63026744,-0.65173274,-0.33104306,1032.7106,816.337,809.4872,857.8388,954.1392,-0.34478759765625,0.00164794921875,0.943359375,4.403839111328125,-5.09918212890625,0.22430419921875,1,1.0,1.0,1.0,1.0,55.00
2021-04-16 10:11:58.076,0.04014941,-0.12168007,0.651219,-0.29573154,-0.19807112,0.044441335,0.2994951,0.30756107,0.115560986,0.1452394,0.061744988,-0.010138024,-0.0020394712,-0.08261631,-0.15924536,0.14833546,0.01422162,-0.60988253,-0.5733544,-0.33104306,771.2088,805.4579,804.65204,794.57874,596.337,-0.3448486328125,0.004638671875,0.93792724609375,4.388885498046875,-4.8150634765625,0.2093505859375,1,1.0,1.0,1.0,1.0,55.00
2021-04-16 10:11:58.597,0.030064456,-0.2838543,-0.37667695,-0.6108929,-0.116078205,-0.29972842,-0.3554246,-0.033024855,0.17751144,0.07973319,0.07542496,0.08561766,0.12804751,-0.03039362,-0.14323132,0.12421114,-0.05331703,-0.6694252,-0.513416,-0.35042107,572.5641,802.6374,805.05493,746.63007,469.011,-0.34735107421875,0.00775146484375,0.94000244140625,4.42626953125,-4.127197265625,0.91217041015625,1,1.0,1.0,1.0,1.0,55.00
2021-04-16 10:11:59.103,,,,,,,,,,,,,,,,,,,,,,,,,,,,,,,,,,,,,,/muse/elements/blink
2021-04-16 10:11:59.106,0.047983397,-0.47508055,-0.7031826,0.041782036,-0.0924916,-0.33493832,-0.46104938,0.045925204,0.17751144,0.09167026,0.045401674,0.17845237,0.11331827,-0.07941934,-0.0919084,0.15577967,-0.065012805,-0.71922255,-0.4386364,-0.41574022,712.7839,802.6374,808.68134,780.07324,697.47253,-0.3453369140625,0.00872802734375,0.94268798828125,4.53094482421875,-4.3963623046875,0.216827392578125,1,1.0,1.0,1.0,1.0,55.00
2021-04-16 10:11:59.623,0.07555862,-0.3288188,-0.48709726,0.18974602,0.08043163,-0.20588818,-0.39666727,0.11200872,0.19099309,0.11228171,0.046929613,0.18053621,0.1163208,-0.12475806,-0.2003733,0.11349213,-0.08756845,-0.6878368,-0.40999028,-0.40423697,1012.5641,813.91943,810.696,851.79486,1178.9744,-0.352294921875,0.004150390625,0.94366455078125,5.450592041015625,-4.164581298828125,0.441131591796875,1,1.0,1.0,1.0,1.0,55.00
2021-04-16 10:12:00.150,0.21340989,-0.06594963,-0.24802156,0.28502086,0.1658027,-0.05777713,-0.31133044,0.1904724,0.31086358,0.30644512,-0.036538336,0.38587773,0.19160622,-0.121925145,-0.23027097,0.12503968,-0.019104315,-0.6438596,-0.46147323,-0.30365026,976.7033,815.12823,802.6374,845.7509,917.47253,-0.318359375,0.02008056640625,0.94842529296875,4.044952392578125,-5.562744140625,2.489776611328125,1,1.0,1.0,1.0,1.0,55.00
2021-04-16 10:12:00.485,,,,,,,,,,,,,,,,,,,,,,,,,,,,,,,,,,,,,,/muse/elements/blink
2021-04-16 10:12:00.660,,,,,,,,,,,,,,,,,,,,,,,,,,,,,,,,,,,,,,/muse/elements/blink
2021-04-16 10:12:00.669,0.439886,0.06762224,-0.10370092,0.43639454,0.2951034,-0.060190734,-0.37397343,0.3201024,0.4005853,0.2692261,-0.091013834,0.43562025,0.35451138,-0.110186525,-0.15872778,0.11957858,0.07173238,-0.6062941,-0.46765533,-0.20600782,1077.4359,806.6667,800.2198,902.1612,1213.2234,-0.34344482421875,-0.00628662109375,0.94158935546875,4.14215087890625,-3.46923828125,0.919647216796875,1,1.0,1.0,1.0,1.0,55.00
2021-04-16 10:12:01.194,0.5717381,0.4517406,0.40402007,0.5282724,0.31053954,0.02428358,0.007542714,0.4008351,0.3989071,0.44030645,0.15545899,0.41866067,0.4974519,-0.024445197,-0.0737663,0.20120476,0.15538229,-0.5549609,-0.49137887,-0.14949943,585.8608,802.6374,799.81683,759.92676,518.1685,-0.34075927734375,0.0025634765625,0.9415283203125,4.605712890625,-4.41131591796875,0.800018310546875,1,1.0,1.0,1.0,1.0,55.00
2021-04-16 10:12:01.712,,,,,,,,,,,,,,,,,,,,,,,,,,,,,,,,,,,,,,/muse/elements/blink
2021-04-16 10:12:01.719,0.6979729,0.4581201,0.39889187,0.7019231,0.3420655,-0.130404,-0.0076366602,0.49361852,0.38287824,0.32129398,0.2119008,0.37824675,0.60752136,-0.10366806,-0.031414136,0.21337947,0.25362408,-0.4941174,-0.45579877,-0.09946376,829.6337,806.6667,799.81683,806.26373,886.8498,-0.34844970703125,-4.8828125E-4,0.93829345703125,4.18701171875,-4.134674072265625,0.426177978515625,1,1.0,1.0,1.0,1.0,55.00
2021-04-16 10:12:02.234,0.36803925,0.42439514,0.3602761,-0.111891896,0.07030794,-0.080631636,0.010255922,0.23469302,0.2761582,0.32128602,0.2119008,0.14490427,0.46733743,-0.07578561,-0.06333522,0.15921359,0.11365025,-0.5188865,-0.52560455,-0.15174085,637.03296,812.3077,799.011,763.1502,664.43225,-0.34942626953125,0.0064697265625,0.94110107421875,4.68048095703125,-3.925323486328125,1.42059326171875,1,1.0,1.0,1.0,1.0,55.00
2021-04-16 10:12:02.757,0.14048797,-1.7083943E-4,-0.42841023,-0.06462025,0.0062241536,-0.17754018,-0.38135996,0.11157214,0.47796592,-0.017651038,0.053307626,0.22017078,0.37229526,-0.09201695,-0.13375211,0.17131032,0.0041248756,-0.48377368,-0.59944814,-0.28812423,943.663,808.68134,803.8461,826.8132,997.25275,-0.34716796875,0.0015869140625,0.9400634765625,4.44122314453125,-3.9776611328125,0.321502685546875,1,1.0,1.0,1.0,1.0,55.00
2021-04-16 10:12:03.270,0.07192948,-0.07295074,-0.45761022,0.07153984,0.036450446,-0.17373148,-0.4133764,0.16547172,0.4793137,0.011185556,-0.0652761,0.32086325,0.34058434,-0.06989132,-0.15474878,0.20238188,0.016902309,-0.5010977,-0.63908553,-0.33418527,613.2601,805.8608,803.8461,759.5238,326.77655,-0.35479736328125,-0.0030517578125,0.93865966796875,4.56085205078125,-4.987030029296875,0.1495361328125,1,1.0,1.0,1.0,1.0,55.00
2021-04-16 10:12:03.781,-0.18385054,-0.08385659,-0.36682677,0.15492517,0.124572314,-0.2476708,-0.50483245,0.11178566,0.48501095,-0.039649535,-0.010383467,0.19167404,0.2959793,-0.073935635,-0.17579608,0.2076184,-0.0046204296,-0.50416356,-0.6621759,-0.4334199,705.12823,801.02563,800.2198,830.4396,659.59705,-0.34466552734375,-0.00286865234375,0.94091796875,4.613189697265625,-4.68048095703125,0.186920166015625,1,1.0,1.0,1.0,1.0,55.00
2021-04-16 10:12:03.841,,,,,,,,,,,,,,,,,,,,,,,,,,,,,,,,,,,,,,/muse/elements/blink
2021-04-16 10:12:04.301,,,,,,,,,,,,,,,,,,,,,,,,,,,,,,,,,,,,,,/muse/elements/blink
2021-04-16 10:12:04.307,-0.23995316,0.25377467,0.5056993,0.28363743,0.22961934,-0.1141269,0.095803484,0.21678253,0.37041903,0.21516396,0.103674084,0.19167404,0.2968392,-0.025120212,-0.14787677,0.23257503,0.05600526,-0.6800348,-0.6660912,-0.4196213,571.3553,794.9817,807.0696,757.9121,390.43958,-0.3497314453125,-0.001708984375,0.94024658203125,4.732818603515625,-4.2767333984375,0.889739990234375,1,1.0,1.0,1.0,1.0,55.00
2021-04-16 10:12:04.853,-0.30925086,0.3144273,0.5537717,0.2817844,0.32186198,-0.15817253,0.11876106,0.19405907,0.35907045,0.2150683,0.14002924,0.15462543,0.3581649,0.0036141328,-0.19795704,0.18395925,0.08362077,-0.64840585,-0.65821457,-0.36855057,731.7216,805.4579,803.8461,787.326,859.45056,-0.33807373046875,-8.544921875E-4,0.9329833984375,4.725341796875,-4.4561767578125,1.188812255859375,1,1.0,1.0,1.0,1.0,55.00
2021-04-16 10:12:05.358,-0.030141838,0.28715056,0.52980447,-0.08459007,0.3467804,-0.16779,0.08173969,0.0756832,0.78459996,0.21655624,0.25372303,0.6105302,0.4533346,-0.031177958,-0.268835,0.36850667,0.078060985,-0.7058807,-0.63303167,-0.39825088,1018.60803,807.8755,803.0403,853.4066,1095.9707,-0.34765625,-6.7138671875E-4,0.938720703125,4.366455078125,-4.239349365234375,1.099090576171875,1,1.0,1.0,1.0,1.0,55.00
2021-04-16 10:12:05.877,0.15100776,0.0055291816,-0.10572751,-0.07403771,0.1435387,-0.2757003,-0.42662385,-0.08150375,0.8072777,0.06178259,0.13457547,0.61926025,0.3044983,-0.14488898,-0.34304133,0.2634896,-0.020961368,-0.69393116,-0.6499737,-0.30726144,950.5128,803.8461,801.02563,835.6777,737.76556,-0.3505859375,-0.00732421875,0.93695068359375,4.209442138671875,-3.955230712890625,0.179443359375,1,1.0,1.0,1.0,1.0,55.00
2021-04-16 10:12:06.406,0.34318823,0.014347751,-0.2063877,0.06403167,0.2707084,-0.17238562,-0.41222146,0.113753125,0.82156575,-0.0670055,0.19809605,0.6272626,0.35992244,-0.11825564,-0.3161193,0.24057621,-0.027069034,-0.7701837,-0.6699357,-0.30671734,682.5641,802.23444,802.6374,780.87915,413.4066,-0.34832763671875,-1.220703125E-4,0.94244384765625,4.747772216796875,-4.344024658203125,0.411224365234375,1,1.0,1.0,1.0,1.0,55.00
2021-04-16 10:12:06.762,,,,,,,,,,,,,,,,,,,,,,,,,,,,,,,,,,,,,,/muse/elements/blink
2021-04-16 10:12:06.933,0.6580525,-0.029644137,-0.23551819,0.41393995,0.40292335,-0.124077305,-0.20268515,0.394126,0.7817665,-0.18675639,0.14581482,0.65833247,0.33523753,-0.08370306,-0.21074623,0.18065232,-0.095868625,-0.6961085,-0.74083066,-0.31275886,1006.1172,816.7399,809.0842,852.1978,1097.1794,-0.34344482421875,2.44140625E-4,0.94647216796875,4.792633056640625,-4.044952392578125,1.854248046875,1,1.0,1.0,1.0,1.0,55.00
2021-04-16 10:12:07.453,0.96137524,-0.1656397,0.040852938,0.7221265,0.8030929,-0.21322145,-0.19697323,0.7227324,0.9602784,-0.14701459,0.20268105,0.79636157,0.40417805,-0.06586107,-0.15002185,0.31255507,-0.031012088,-0.6106467,-0.62931067,-0.2907607,595.9341,803.0403,802.23444,748.24176,489.96338,-0.3443603515625,-0.0018310546875,0.93536376953125,4.605712890625,-5.6524658203125,1.009368896484375,1,1.0,1.0,1.0,1.0,55.00
2021-04-16 10:12:07.986,1.028817,-0.46741104,-0.008836559,0.8335643,0.8059769,-0.2346755,-0.28045547,0.68163204,0.9535657,0.090803385,0.1183707,0.7731373,0.3951797,-0.0973859,-0.110764965,0.3734775,0.0013882577,-0.58046806,-0.6294927,-0.27662563,659.59705,801.4286,810.293,772.8205,730.5128,-0.3507080078125,-0.0015869140625,0.94091796875,4.11224365234375,-4.164581298828125,1.33087158203125,1,1.0,1.0,1.0,1.0,55.00
2021-04-16 10:12:08.194,,,,,,,,,,,,,,,,,,,,,,,,,,,,,,,,,,,,,,/muse/elements/blink
2021-04-16 10:12:08.499,0.96602565,-0.20242119,0.028990326,0.7102942,0.68098164,-0.22563292,-0.3178252,0.4772126,0.94009584,0.3672188,0.053059984,0.8087581,0.41630837,-0.062444054,0.007653284,0.46814117,0.01797557,-0.50648147,-0.60219824,-0.20159452,973.0769,801.02563,809.0842,846.1539,1045.2014,-0.345458984375,-4.2724609375E-4,0.94134521484375,3.7982177734375,-4.658050537109375,3.312225341796875,1,1.0,1.0,1.0,1.0,55.00
2021-04-16 10:12:09.003,1.0601194,0.5845758,0.33504182,0.6396681,0.88243353,0.3986243,0.2716443,0.13043015,0.8232615,0.5048936,0.6680539,0.6320977,0.48698115,0.10431167,0.18120761,0.57453287,0.04122495,-0.51713324,-0.68786186,-0.1540322,996.8498,807.47253,792.5641,840.5128,1008.93774,-0.36383056640625,-0.00994873046875,0.94281005859375,0.859832763671875,-3.476715087890625,10.9759521484375,1,1.0,1.0,1.0,1.0,55.00
2021-04-16 10:12:09.528,1.1503068,0.80664206,0.54620725,0.6045312,1.0638572,0.56401926,0.42169482,0.17585799,0.75537676,0.5048936,0.69464517,0.5575644,0.46611172,0.2483929,0.24305302,0.5625475,0.07665103,-0.52653027,-0.6555412,-0.16948932,720.84247,805.05493,807.47253,777.6557,432.74725,-0.35137939453125,-0.0078125,0.94049072265625,4.6954345703125,-5.016937255859375,-0.2691650390625,1,1.0,1.0,1.0,1.0,55.00
2021-04-16 10:12:10.054,1.1015434,0.8023646,0.55456126,0.5472995,1.0822053,0.5471607,0.42312172,0.13244037,0.6880251,0.35585782,0.69464517,0.5375973,0.39737478,0.21303429,0.17175975,0.46436763,0.09717992,-0.6066495,-0.5959705,-0.18922782,570.14655,798.20514,799.81683,751.06226,471.8315,-0.349365234375,9.765625E-4,0.93603515625,4.844970703125,-4.059906005859375,-0.261688232421875,1,1.0,1.0,1.0,1.0,55.00
2021-04-16 10:12:10.563,0.69392514,0.48874405,0.2857464,0.33611742,0.738206,0.1962553,0.08125552,0.01654042,0.76544344,-0.0049459776,0.65050596,0.4419714,0.23648535,0.09521965,0.0064679366,0.23753595,-0.010088239,-0.7081906,-0.6394633,-0.29474872,782.0879,803.0403,801.4286,794.9817,865.4945,-0.34906005859375,-0.00347900390625,0.937744140625,5.630035400390625,-4.32159423828125,-0.37384033203125,1,1.0,1.0,1.0,1.0,55.00
2021-04-16 10:12:10.800,,,,,,,,,,,,,,,,,,,,,,,,,,,,,,,,,,,,,,/muse/elements/blink
2021-04-16 10:12:11.106,0.059971277,0.34948274,0.30510375,0.037250783,0.24697776,0.0024760207,0.06764131,0.106134824,0.79430825,-0.020780537,0.35084412,0.6197263,0.19066276,-0.1690139,-0.1351429,0.18168493,-0.073343605,-0.62797207,-0.63223743,-0.30679938,720.0366,803.0403,799.011,782.49084,390.43958,-0.35223388671875,-0.00799560546875,0.93701171875,6.38519287109375,-4.897308349609375,-2.37762451171875,1,1.0,1.0,1.0,1.0,55.00
2021-04-16 10:12:11.647,0.073479086,0.7589287,0.67822087,0.2142729,0.38519636,0.39928856,0.32622716,0.2897795,0.8353014,0.11700214,0.46786657,0.63757676,0.15588364,-0.17221077,-0.13402288,0.1625924,-0.09203919,-0.5895735,-0.65773475,-0.37124416,906.1905,807.8755,807.47253,831.2454,737.76556,-0.3448486328125,0.01556396484375,0.95159912109375,4.852447509765625,-4.613189697265625,1.173858642578125,1,1.0,1.0,1.0,1.0,55.00
2021-04-16 10:12:11.929,,,,,,,,,,,,,,,,,,,,,,,,,,,,,,,,,,,,,,/muse/elements/blink
2021-04-16 10:12:12.200,0.28142497,0.7763314,0.6967428,0.34791583,0.47671345,0.4756355,0.35355476,0.46522638,0.6813255,0.14229736,0.4661919,0.64419,0.17844574,-0.21344805,-0.12777333,0.16119348,-0.049290854,-0.525702,-0.59471095,-0.4427985,826.4103,811.50183,796.99634,879.19415,776.04395,-0.3443603515625,0.0130615234375,0.9417724609375,4.044952392578125,-3.69354248046875,1.2261962890625,1,1.0,1.0,1.0,1.0,55.00
2021-04-16 10:12:12.247,,,,,,,,,,,,,,,,,,,,,,,,,,,,,,,,,,,,,,/muse/elements/blink
2021-04-16 10:12:12.734,0.30003455,0.5624821,0.75815976,0.28500587,0.5093903,0.31120506,0.40439966,0.44054273,0.6360065,0.23071858,0.4539549,0.56209534,0.16615582,-0.20809461,-0.07306166,0.136651,-0.051633168,-0.5956378,-0.5954334,-0.50131017,1024.249,806.26373,799.41394,855.42126,1130.6227,-0.3494873046875,0.00750732421875,0.9398193359375,4.56085205078125,-5.136566162109375,1.57012939453125,1,1.0,1.0,1.0,1.0,55.00
2021-04-16 10:12:13.264,0.44013473,0.20304151,0.66596466,0.27735978,0.5574206,0.03529545,0.35447875,0.5723687,0.2729684,0.15424833,0.34888285,0.30826503,0.30575022,-0.21222313,-0.09075905,0.109941944,-0.024124643,-0.6264612,-0.5968874,-0.5857808,945.6777,815.12823,803.0403,841.7216,900.54944,-0.34796142578125,0.00128173828125,0.9365234375,4.5159912109375,-3.6785888671875,0.650482177734375,1,1.0,1.0,1.0,1.0,55.00
2021-04-16 10:12:13.352,,,,,,,,,,,,,,,,,,,,,,,,,,,,,,,,,,,,,,/muse/elements/blink
2021-04-16 10:12:13.807,0.44013473,0.17915481,0.6485389,0.20556173,0.5574206,-0.076729216,0.3149119,0.18558624,0.2729684,0.23205447,0.32251394,0.2638458,0.30575022,-0.18125066,-0.1491201,0.18242812,-0.024124643,-0.6201249,-0.6113765,-0.18994975,653.95605,801.8315,809.89014,766.77655,393.663,-0.34869384765625,-0.001953125,0.93975830078125,3.96270751953125,-4.299163818359375,0.2392578125,1,1.0,1.0,1.0,1.0,50.00
2021-04-16 10:12:14.349,0.12399486,-0.007533847,-0.19233418,0.267605,0.30995166,-0.14781657,-0.18314523,0.15611178,0.6344302,0.22347,0.08361353,0.43882456,0.13532375,-0.13676079,-0.30649042,0.21088365,0.18278436,-0.58332866,-0.68202364,-0.24150582,991.6117,806.26373,801.02563,848.1685,1161.6483,-0.35052490234375,-0.00372314453125,0.94268798828125,4.568328857421875,-4.65057373046875,0.396270751953125,1,1.0,1.0,1.0,1.0,50.00
2021-04-16 10:12:14.882,0.8686183,0.56108063,0.5251145,0.747602,1.0899644,0.5164674,0.39472547,0.8058096,0.98346573,0.4702693,0.47503504,0.6958635,0.29479378,-0.07586193,-0.23289248,0.23462643,0.1285972,-0.5469195,-0.7788992,-0.21334164,981.13556,813.1135,809.0842,853.4066,807.0696,-0.3529052734375,-0.0087890625,0.93536376953125,4.478607177734375,-4.42626953125,0.49346923828125,1,1.0,1.0,1.0,1.0,50.00
2021-04-16 10:12:15.401,1.070962,0.8035019,0.69867164,0.8647095,1.1901891,0.633717,0.55967695,0.87753564,0.98346573,0.57907,0.5528162,0.6958635,0.32022184,-0.053729363,-0.19535826,0.2850425,0.10676607,-0.64520586,-0.7065456,-0.20532627,770.0,786.9231,835.6777,589.0842,1139.4872,-0.36590576171875,-0.00421142578125,0.93310546875,4.725341796875,-3.72344970703125,0.28411865234375,1,1.0,1.0,1.0,1.0,50.00
2021-04-16 10:12:15.711,,,,,,,,,,,,,,,,,,,,,,,,,,,,,,,,,,,,,,/muse/elements/blink
2021-04-16 10:12:15.909,1.2759366,1.0086585,0.95904356,1.0243707,1.3878789,0.7214312,0.7158913,1.0577565,0.98346573,0.6372176,0.56712866,0.67043805,0.4692585,-0.043031104,-0.10053805,0.30817625,0.07391176,-0.66365117,-0.61798483,-0.14725095,587.8755,804.2491,802.6374,756.7033,479.8901,-0.34783935546875,0.00262451171875,0.94305419921875,3.887939453125,-3.24493408203125,0.3887939453125,1,1.0,1.0,1.0,1.0,50.00
2021-04-16 10:12:15.991,,,,,,,,,,,,,,,,,,,,,,,,,,,,,,,,,,,,,,/muse/elements/blink
2021-04-16 10:12:16.429,1.2979856,0.9342239,1.0092747,0.9264281,1.2886554,0.5083789,0.6462776,0.7789917,0.84980935,0.6621685,0.5689949,0.48520482,0.44001144,-0.09143005,-0.10006419,0.31855673,0.15178338,-0.6684631,-0.549315,-0.14962876,873.1502,812.71063,807.47253,811.50183,982.74725,-0.355712890625,4.2724609375E-4,0.93572998046875,4.38140869140625,-5.3533935546875,1.143951416015625,1,1.0,1.0,1.0,1.0,50.00
2021-04-16 10:12:16.942,1.2979856,0.76316446,0.9440861,0.9264281,1.2886554,0.35432976,0.5287684,0.7789917,0.84980935,0.63769853,0.56332916,0.48520482,0.44001144,-0.15756029,-0.14207275,0.31855673,0.15178338,-0.5590459,-0.52028614,-0.14962876,857.4359,781.28204,834.87177,685.38464,1021.02563,-0.3558349609375,-0.00189208984375,0.93701171875,4.792633056640625,-4.5458984375,0.605621337890625,1,1.0,1.0,1.0,1.0,50.00
2021-04-16 10:12:17.128,,,,,,,,,,,,,,,,,,,,,,,,,,,,,,,,,,,,,,/muse/elements/blink
2021-04-16 10:12:17.460,1.2979856,0.48931524,0.96150434,0.9264281,1.2886554,0.35019732,0.5533963,0.7789917,0.84980935,0.5857017,0.5430113,0.48520482,0.44001144,-0.26684782,-0.23528577,0.31855673,0.15178338,-0.51810515,-0.5593685,-0.14962876,809.89014,804.65204,792.5641,801.4286,542.3443,-0.34832763671875,-0.00164794921875,0.94183349609375,4.433746337890625,-4.388885498046875,0.85235595703125,1,1.0,1.0,1.0,1.0,50.00
2021-04-16 10:12:18.010,1.2979856,0.4867758,0.9969845,0.9264281,1.2886554,0.38460958,0.6144441,0.7789917,0.84980935,0.35052785,0.32062206,0.48520482,0.44001144,-0.2662611,-0.17417294,0.31855673,0.15178338,-0.52528745,-0.54512197,-0.14962876,952.52747,805.05493,798.20514,835.2747,865.4945,-0.35205078125,-0.001708984375,0.93609619140625,4.42626953125,-4.4561767578125,0.49346923828125,1,2.0,1.0,1.0,2.0,50.00
2021-04-16 10:12:18.521,1.2979856,0.48377025,0.9900363,0.9264281,1.2886554,0.39896402,0.6065335,0.7789917,0.84980935,0.35481942,0.3281293,0.48520482,0.44001144,-0.25554195,-0.12768213,0.31855673,0.15178338,-0.5179874,-0.5747372,-0.14962876,725.6777,802.6374,803.0403,784.5055,797.8022,-0.3565673828125,1.220703125E-4,0.9405517578125,4.538421630859375,-3.955230712890625,0.740203857421875,1,2.0,1.0,1.0,2.0,50.00
2021-04-16 10:12:19.068,-0.0035417587,0.0037788379,0.47107783,0.40843135,-0.15368481,-0.058812886,0.06394063,0.10586987,0.5732896,0.19068328,0.15387517,0.8228226,0.123675145,-0.24761932,-0.07493059,0.22990637,-0.07207948,-0.597083,-0.62848794,-0.38724032,601.978,800.2198,807.0696,764.7619,508.9011,-0.3499755859375,-0.00152587890625,0.93994140625,5.136566162109375,-4.8748779296875,0.70281982421875,1,1.0,1.0,1.0,1.0,50.00
2021-04-16 10:12:19.577,-0.031098774,-0.42902187,-0.34367976,0.44922486,-0.12082817,-0.3615248,-0.35460427,0.18327913,0.5855814,0.00714655,-0.056586497,0.8438862,0.057660006,-0.30014992,-0.13797104,0.14608663,-0.06960489,-0.6177329,-0.75616854,-0.370789,894.5055,806.6667,799.011,830.0366,1015.78754,-0.353271484375,0.00213623046875,0.9405517578125,4.448699951171875,-4.822540283203125,1.069183349609375,1,1.0,1.0,1.0,1.0,50.00
2021-04-16 10:12:20.119,-0.024545707,-0.41043395,-0.28724122,0.3760065,-0.024852809,-0.26319718,-0.25819436,0.3127308,0.45908648,0.15061621,-0.27096727,0.54416615,0.01881856,-0.3387903,-0.14268516,0.080369,-0.0447284,-0.64347124,-0.81004155,-0.36149773,649.92676,808.2784,807.47253,778.86444,453.69965,-0.34686279296875,0.0028076171875,0.94073486328125,4.314117431640625,-4.97955322265625,1.62994384765625,1,1.0,1.0,1.0,1.0,50.00
2021-04-16 10:12:20.638,0.29843023,-0.105469115,-0.15113202,0.25409722,0.58511484,-0.13312954,-0.002354859,0.61779684,0.61552364,0.16157407,0.19785798,0.5800623,0.106979445,-0.3471667,-0.072784364,0.15313713,-0.03459432,-0.6301436,-0.75076944,-0.14770465,1012.1612,796.1905,807.8755,863.8828,1103.6263,-0.34490966796875,-1.8310546875E-4,0.9398193359375,4.3365478515625,-5.151519775390625,0.396270751953125,1,1.0,1.0,1.0,1.0,50.00
2021-04-16 10:12:21.179,0.34533957,-0.028992802,-0.26000842,0.1253516,0.7670281,0.19550176,0.07317491,0.70499504,0.6515879,0.23985188,0.20298386,0.6261765,0.1695373,-0.35435748,0.004219555,0.18446265,-0.03566922,-0.6276204,-0.7522261,-0.13511519,572.5641,794.9817,801.8315,748.6447,492.78387,-0.3485107421875,0.00274658203125,0.939208984375,4.5458984375,-4.3365478515625,0.6878662109375,1,1.0,1.0,1.0,1.0,50.00
2021-04-16 10:12:21.200,,,,,,,,,,,,,,,,,,,,,,,,,,,,,,,,,,,,,,/muse/elements/blink
2021-04-16 10:12:21.701,0.28938314,-0.10066292,-0.13570157,0.20625547,0.8438256,0.25216174,0.018703075,0.7354968,0.79087657,0.05668242,0.20311056,0.6637552,0.23287603,-0.28900182,0.046603367,0.21064238,0.023408487,-0.57058966,-0.7433863,-0.11285271,1035.9341,807.8755,809.4872,859.85345,984.35895,-0.34149169921875,-0.002197265625,0.9454345703125,4.41131591796875,-4.747772216796875,1.1962890625,1,1.0,1.0,1.0,1.0,50.00
2021-04-16 10:12:22.211,0.31833228,-0.2973615,-0.15222074,0.20457724,0.754078,0.26562294,-0.14785779,0.5548204,1.0224919,0.17184108,0.110027686,0.65572643,0.24758774,-0.21355866,-0.026341282,0.2002754,0.047281366,-0.51786524,-0.66805947,-0.14715692,777.25275,803.44324,802.6374,799.011,605.2015,-0.38006591796875,-6.7138671875E-4,0.943115234375,4.074859619140625,-7.596435546875,-1.9439697265625,1,1.0,1.0,1.0,1.0,50.00
2021-04-16 10:12:22.639,,,,,,,,,,,,,,,,,,,,,,,,,,,,,,,,,,,,,,/muse/elements/blink
2021-04-16 10:12:22.722,0.65984344,-0.3170449,0.006677523,0.61337495,1.0984071,-0.10991103,0.003415058,1.2173567,1.2895482,0.1429769,0.2627702,1.4166508,0.44268006,-0.16629404,-0.1880708,0.49217254,0.09068404,-0.469245,-0.5711122,-0.097503915,990.40295,806.26373,807.47253,902.96704,1110.4762,-0.2322998046875,0.025390625,0.9884033203125,7.3870849609375,-25.49591064453125,7.5665283203125,1,1.0,1.0,1.0,1.0,50.00
2021-04-16 10:12:23.251,0.84218705,0.34612727,0.0841801,0.8459456,1.2451371,0.008081631,0.055192262,1.4656453,1.2895482,0.22281869,0.2832338,1.4134139,0.51978356,-0.1579866,-0.3184064,0.65441,0.046277698,-0.535017,-0.5627764,-0.14985934,1014.17584,803.0403,797.8022,840.9158,974.2857,-0.18017578125,0.03125,0.98834228515625,4.059906005859375,-6.26556396484375,5.5029296875,1,1.0,1.0,1.0,1.0,50.00
2021-04-16 10:12:23.512,,,,,,,,,,,,,,,,,,,,,,,,,,,,,,,,,,,,,,/muse/elements/blink
2021-04-16 10:12:23.793,1.0104532,0.6715155,0.19600421,0.92516774,1.4894112,0.33519503,0.2525879,1.5562823,1.2895482,0.49415436,0.31133935,1.4134139,0.7206556,-0.21397941,-0.32519895,0.72884595,0.09743069,-0.6031579,-0.5961475,-0.12008992,1045.2014,811.50183,801.4286,870.32965,1385.6776,-0.21978759765625,0.03533935546875,0.98175048828125,4.50103759765625,-1.57012939453125,0.710296630859375,1,1.0,1.0,1.0,1.0,50.00
2021-04-16 10:12:23.906,,,,,,,,,,,,,,,,,,,,,,,,,,,,,,,,,,,,,,/muse/elements/blink
2021-04-16 10:12:24.337,1.0104532,1.0769193,0.6059896,0.92516774,1.4894112,0.6605642,0.337486,1.5562823,1.2895482,0.5664763,0.32060888,1.4134139,0.7206556,-0.27502283,-0.2746587,0.72884595,0.09743069,-0.69367987,-0.69176537,-0.12008992,889.2674,806.6667,802.23444,830.0366,710.3663,-0.29364013671875,0.046142578125,0.963623046875,5.659942626953125,1.293487548828125,3.289794921875,1,1.0,1.0,1.0,1.0,60.00
2021-04-16 10:12:24.847,1.0104532,1.0062926,0.5834419,0.92516774,1.4894112,0.6076949,0.30578646,1.5562823,1.2895482,0.5388689,0.28953344,1.4134139,0.7206556,-0.33423516,-0.29082763,0.72884595,0.09743069,-0.7229852,-0.78736866,-0.12008992,994.0293,802.6374,803.8461,830.84247,1018.20514,-0.3062744140625,0.0267333984375,0.953125,4.5159912109375,-3.45428466796875,0.35888671875,1,1.0,1.0,1.0,1.0,60.00
2021-04-16 10:12:25.041,,,,,,,,,,,,,,,,,,,,,,,,,,,,,,,,,,,,,,/muse/elements/blink
2021-04-16 10:12:25.357,1.0104532,0.8723325,0.6435752,1.115377,1.4894112,0.3814972,0.2949463,1.222684,1.2895482,0.5093462,0.27518538,1.3085063,0.7206556,-0.2205802,-0.22042748,0.7323954,0.09743069,-0.72876894,-0.8451214,-0.3074517,736.1539,801.4286,804.65204,792.5641,471.02563,-0.3060302734375,0.033203125,0.95330810546875,4.725341796875,-2.534637451171875,0.73272705078125,1,1.0,1.0,1.0,1.0,60.00
2021-04-16 10:12:25.891,1.0217688,0.39082968,0.42249328,1.071842,1.1142961,0.052368384,0.17341633,1.2391425,1.2823037,0.2502589,0.044812582,1.308607,0.6018858,-0.047436036,-0.17033058,0.7377751,-0.027998518,-0.6098314,-0.71335554,-0.2655358,962.6007,806.6667,804.65204,839.304,1067.3627,-0.31597900390625,0.0235595703125,0.94097900390625,4.5458984375,-3.386993408203125,2.011260986328125,1,1.0,1.0,1.0,1.0,60.00
2021-04-16 10:12:26.403,1.0362381,0.54714715,0.42887637,1.1574335,0.9686117,0.27255803,0.13884436,1.1088523,1.2823037,0.31539214,0.14851224,1.308607,0.51146233,-0.028518254,-0.124162465,0.65220296,0.065486036,-0.49847794,-0.6628062,-0.21975338,795.78754,811.50183,801.4286,785.7143,909.41394,-0.3057861328125,0.0,0.95263671875,4.50103759765625,-3.835601806640625,0.01495361328125,1,1.0,1.0,1.0,1.0,60.00
2021-04-16 10:12:26.911,0.823474,0.321593,0.09202559,0.9850194,0.61939746,0.17029612,-0.24684031,0.7255161,1.1691715,0.33971044,0.21644597,1.181269,0.31768903,-0.036639128,-0.23533687,0.4399772,0.051515557,-0.43878376,-0.62733895,-0.235951,1030.6959,807.47253,798.20514,854.61536,1027.0696,-0.31036376953125,0.02069091796875,0.95526123046875,4.852447509765625,-5.944061279296875,2.4822998046875,1,1.0,1.0,1.0,1.0,60.00
2021-04-16 10:12:27.436,0.624268,0.2750361,-0.19813417,0.82988304,0.15295152,0.12499657,-0.30673903,0.22880486,0.5436447,0.34275055,0.21644597,0.6881526,0.162068,-0.11570308,-0.32528302,0.20707078,0.08594271,-0.47241747,-0.66568756,-0.2519779,843.3333,806.26373,801.02563,810.696,697.0696,-0.31689453125,0.015625,0.95440673828125,5.63751220703125,-3.162689208984375,1.861724853515625,1,1.0,1.0,1.0,1.0,60.00
2021-04-16 10:12:27.660,,,,,,,,,,,,,,,,,,,,,,,,,,,,,,,,,,,,,,/muse/elements/blink
2021-04-16 10:12:27.948,0.40782112,-0.119678184,-0.42222536,0.50250316,0.20222974,-0.30818295,-0.27845672,0.3596363,0.4973317,0.1751542,0.13777223,0.59603566,0.17753044,-0.16888452,-0.3116555,0.114506714,0.051735863,-0.4512397,-0.53633857,-0.27601627,605.6044,806.6667,797.8022,770.0,364.652,-0.31134033203125,0.01641845703125,0.95318603515625,4.927215576171875,-3.63372802734375,0.61309814453125,1,1.0,1.0,1.0,1.0,60.00
2021-04-16 10:12:28.453,0.6068993,-0.19772051,-0.23050715,0.5738586,0.33724862,-0.40808618,-0.24490002,0.44572794,0.50089306,0.180548,0.046004392,0.60575265,0.19064653,-0.22046293,-0.26807097,0.044126693,0.06732206,-0.41564098,-0.49573967,-0.24125943,686.5934,807.47253,807.8755,772.8205,761.53845,-0.3214111328125,0.0203857421875,0.94647216796875,3.87298583984375,-5.301055908203125,3.03558349609375,1,1.0,1.0,1.0,1.0,60.00
2021-04-16 10:12:29.011,0.766427,0.057294585,-0.09598824,0.7128464,0.37076718,-0.4988681,-0.1386453,0.5564615,0.36896598,-0.025883904,0.056391858,0.5977424,0.19604205,-0.29402158,-0.1619918,0.0930565,0.05884769,-0.46947545,-0.5499715,-0.21823908,1001.685,802.6374,803.0403,845.7509,1063.3334,-0.27545166015625,0.0255126953125,0.9659423828125,3.925323486328125,-5.016937255859375,2.848663330078125,1,1.0,1.0,1.0,1.0,60.00
2021-04-16 10:12:29.207,,,,,,,,,,,,,,,,,,,,,,,,,,,,,,,,,,,,,,/muse/elements/blink
2021-04-16 10:12:29.365,,,,,,,,,,,,,,,,,,,,,,,,,,,,,,,,,,,,,,/muse/elements/blink
2021-04-16 10:12:29.525,0.72675246,0.5007396,0.020296311,0.69406515,0.3507562,0.14765409,-0.029083692,0.37455365,0.27000403,0.22455211,0.09002765,0.39557093,0.09179342,-0.27176636,-0.12512565,0.09184565,0.041677944,-0.5777401,-0.66990554,-0.24757676,975.09155,815.9341,806.6667,864.2857,823.1868,-0.30145263671875,0.02886962890625,0.9525146484375,1.517791748046875,0.67291259765625,-5.78704833984375,1,1.0,1.0,1.0,1.0,60.00
2021-04-16 10:12:30.045,0.6616998,0.82535535,0.39954665,0.689854,0.36517167,0.59888744,0.03363502,0.2900906,0.2267287,0.3829566,0.17736451,0.20545553,0.0619711,-0.23850925,-0.14383781,0.0678459,0.052198358,-0.60255283,-0.75895643,-0.25157624,1033.9194,815.12823,805.8608,860.65936,1042.381,-0.3399658203125,0.0096435546875,0.9412841796875,5.323486328125,-2.878570556640625,-0.46356201171875,1,1.0,1.0,1.0,1.0,60.00
2021-04-16 10:12:30.589,0.6616998,0.7855041,0.42424202,0.689854,0.36517167,0.6002991,-0.026459668,0.2900906,0.2267287,0.3919124,0.17666702,0.20545553,0.0619711,-0.15110174,-0.2486457,0.0678459,0.052198358,-0.5067981,-0.748168,-0.25157624,799.81683,805.05493,796.5934,807.0696,527.4359,-0.323486328125,0.0042724609375,0.95062255859375,3.69354248046875,-2.70660400390625,0.949554443359375,1,1.0,1.0,1.0,1.0,60.00
2021-04-16 10:12:31.144,0.14049377,0.49949786,0.30664524,0.22594635,-0.25556603,0.32157195,-0.23369072,-0.038826007,0.32542312,0.36453128,0.110472195,0.26113775,0.14492652,-0.10763597,-0.17470035,0.14123765,-0.095429584,-0.47518098,-0.78081864,-0.33996293,962.1978,813.5165,804.2491,840.5128,854.21246,-0.31451416015625,0.0042724609375,0.946533203125,4.134674072265625,-6.437530517578125,-0.366363525390625,1,1.0,1.0,1.0,1.0,60.00
2021-04-16 10:12:31.655,0.34197047,-0.2835958,-0.3294107,0.29696095,-0.21649423,-0.47401497,-0.55893683,0.1579412,0.3487504,-0.027853508,-0.070279524,0.29600012,0.107469335,-0.12856048,-0.1251956,0.14809772,-0.086508125,-0.5538862,-0.8155673,-0.24304377,667.6557,806.26373,801.02563,774.0293,372.71063,-0.33746337890625,3.662109375E-4,0.94580078125,3.63372802734375,-5.443115234375,0.59814453125,1,1.0,1.0,1.0,1.0,60.00
2021-04-16 10:12:32.196,0.36853084,-0.3848794,-0.4111157,0.3040534,-0.17797641,-0.42918473,-0.59911716,0.21830468,0.42729843,-0.08857374,-0.13146411,0.31076354,0.16354436,-0.14068031,-0.09616584,0.1850776,-0.036204945,-0.64487755,-0.81913275,-0.2471975,587.0696,799.011,793.7729,732.9304,498.4249,-0.31597900390625,0.0064697265625,0.95538330078125,4.478607177734375,-5.704803466796875,2.205657958984375,1,1.0,1.0,1.0,1.0,60.00
2021-04-16 10:12:32.728,0.49681106,-0.19926885,-0.50287986,0.5013288,0.2339646,-0.34583002,-0.38631904,0.3293427,0.5471673,-0.05366244,0.035243846,0.53988594,0.18132931,-0.15714127,-0.18281738,0.20568584,-0.012714214,-0.66494244,-0.841112,-0.23075756,634.61536,800.2198,794.9817,801.8315,411.79486,-0.3199462890625,0.00848388671875,0.95159912109375,4.29168701171875,-4.53094482421875,0.306549072265625,1,1.0,1.0,1.0,1.0,60.00
2021-04-16 10:12:32.762,,,,,,,,,,,,,,,,,,,,,,,,,,,,,,,,,,,,,,/muse/elements/blink
2021-04-16 10:12:33.256,0.4582076,0.13043968,0.42975718,0.5907599,0.4191306,-0.16385506,-0.006180067,0.326118,0.5471673,0.06762669,0.12797154,0.47004223,0.2531615,-0.16291763,-0.14053252,0.23664008,0.020786889,-0.5931917,-0.7438121,-0.3158853,728.49817,806.6667,802.23444,782.49084,759.5238,-0.328125,0.006591796875,0.946044921875,4.358978271484375,-3.730926513671875,-0.10467529296875,1,1.0,1.0,1.0,1.0,60.00
2021-04-16 10:12:33.761,0.54127896,0.104757585,0.4838701,0.74982655,0.61596125,-0.1250704,0.034720298,0.36010388,0.5171327,0.06873002,0.17826097,0.46077922,0.25497198,-0.16075629,-0.13022007,0.2633172,-0.040339474,-0.60403943,-0.6640637,-0.3450717,1009.7436,811.50183,803.8461,860.65936,1138.6813,-0.3121337890625,0.02508544921875,0.9393310546875,5.69732666015625,-6.332855224609375,3.715972900390625,1,1.0,1.0,1.0,1.0,60.00
2021-04-16 10:12:34.275,0.34133783,0.009899948,0.48369467,0.36526397,0.3064436,-0.19594888,-0.0010937423,0.30684257,-0.14739305,0.08155909,0.076934434,-0.15221015,0.20215517,-0.091617145,-0.15642679,-0.033930812,-0.13286723,-0.68153036,-0.61865556,-0.41036078,916.26373,808.68134,802.23444,821.5751,776.8498,-0.23388671875,0.03326416015625,0.95037841796875,7.648773193359375,-21.077117919921875,1.5850830078125,1,1.0,1.0,1.0,1.0,55.00
2021-04-16 10:12:34.824,,,,,,,,,,,,,,,,,,,,,,,,,,,,,,,,,,,,,,/muse/elements/blink
2021-04-16 10:12:34.832,0.6406208,-0.10338828,-0.10068367,0.71617043,0.4285059,-0.28223497,-0.2542319,0.3977364,0.11175897,-0.057650387,0.013189869,0.28297713,0.07503002,-0.12004699,-0.19994928,-0.054227702,-0.15978584,-0.6364262,-0.60113716,-0.40263346,1010.9524,807.47253,807.47253,857.8388,927.9487,-0.25836181640625,0.0045166015625,0.93780517578125,6.4898681640625,-10.42266845703125,-11.64886474609375,1,1.0,1.0,1.0,1.0,55.00
2021-04-16 10:12:35.369,0.6833815,0.34858292,-0.28586078,0.8457653,0.54428476,-0.09558108,-0.21928906,0.68034005,0.24626613,0.29048848,0.19582902,0.852844,0.06120548,-0.16241156,-0.089914806,0.15399338,-0.15016969,-0.6454359,-0.6204803,-0.29395384,809.0842,804.65204,805.8608,813.91943,724.87177,-0.21337890625,0.02508544921875,0.972412109375,7.8955078125,-4.957122802734375,-12.740478515625,1,1.0,1.0,1.0,1.0,55.00
2021-04-16 10:12:35.897,0.8492574,0.71443784,0.40093678,1.0596025,0.6706511,0.11680695,0.14543656,0.9859589,0.24017741,0.32186553,0.34980485,0.92514014,-0.05209056,-0.2061463,-0.09042113,0.2722095,-0.17423847,-0.5417709,-0.51951194,-0.1703196,843.3333,826.4103,795.38464,831.2454,668.0586,-0.2127685546875,0.04229736328125,0.97943115234375,12.030181884765625,-6.033782958984375,-38.856964111328125,1,1.0,1.0,1.0,1.0,55.00
2021-04-16 10:12:36.413,0.9120771,1.2308694,0.92015594,1.1086239,0.73440635,0.6394935,0.38605088,1.1279372,0.23940149,0.68321747,0.4091274,0.92514014,-0.051910006,-0.010108808,-0.097689345,0.38616094,-0.16471733,-0.5333585,-0.53024447,-0.07940258,767.5824,793.7729,816.7399,794.57874,622.9304,-0.17462158203125,0.027587890625,0.9837646484375,14.69940185546875,-9.174041748046875,-36.068115234375,1,1.0,1.0,1.0,1.0,55.00
2021-04-16 10:12:36.923,0.9120771,1.4460286,1.0754632,1.2455397,0.73440635,0.9819231,0.5173035,1.2497764,0.23940149,0.7196184,0.5038268,0.9009616,-0.051910006,0.15024672,-0.17334223,0.35997555,-0.16471733,-0.45198053,-0.5337497,-0.03455042,789.7436,801.8315,806.26373,809.0842,784.10254,-0.1480712890625,0.06256103515625,0.9981689453125,4.2169189453125,-4.9945068359375,-7.0880126953125,1,1.0,1.0,1.0,1.0,55.00
2021-04-16 10:12:37.377,,,,,,,,,,,,,,,,,,,,,,,,,,,,,,,,,,,,,,/muse/elements/blink
2021-04-16 10:12:37.453,0.9120771,1.3327664,1.0517329,1.28801,0.73440635,0.8837314,0.45399573,0.8411295,0.23940149,0.7190051,0.586655,0.7768282,-0.051910006,0.07031381,-0.20069371,0.14161773,-0.16471733,-0.53584325,-0.5857742,-0.27958784,825.6044,805.4579,799.011,810.293,859.0476,-0.1031494140625,0.01617431640625,1.00128173828125,3.671112060546875,-8.912353515625,-3.90289306640625,1,1.0,1.0,1.0,1.0,55.00
2021-04-16 10:12:37.962,1.5291469,1.0015388,0.9000173,1.28801,1.5851206,0.59010226,0.44977427,0.8411295,1.0216492,0.55661774,0.7949089,0.7768282,0.30789688,-0.1158424,-0.061905712,0.14161773,-0.1142553,-0.5703925,-0.6024351,-0.27958784,840.5128,804.2491,807.47253,830.0366,902.1612,-0.08270263671875,0.01751708984375,1.00408935546875,5.263671875,-9.031982421875,-4.403839111328125,1,1.0,1.0,1.0,1.0,55.00
2021-04-16 10:12:38.498,1.5237507,0.6313518,0.73415357,1.28801,1.4297944,0.12076319,0.32624128,0.8411295,1.0246437,0.34203833,0.7563527,0.7768282,0.33484903,-0.19678578,-0.08480227,0.14161773,-0.19994783,-0.67557937,-0.653389,-0.27958784,792.96704,802.23444,799.81683,803.44324,696.26373,-0.0810546875,0.02459716796875,1.00689697265625,4.478607177734375,-6.826324462890625,-2.654266357421875,1,1.0,1.0,1.0,1.0,55.00
2021-04-16 10:12:39.016,1.4415545,0.49909884,0.6241911,1.28801,1.3447211,-0.0018371607,0.24835704,0.8411295,1.0246437,0.34141558,0.7563527,0.7768282,0.30499128,-0.14073841,-0.04145936,0.14161773,-0.22299904,-0.690472,-0.7397316,-0.27958784,799.41394,782.0879,815.12823,807.47253,817.1429,-0.0535888671875,0.034423828125,1.00506591796875,4.134674072265625,-5.480499267578125,-5.226287841796875,1,1.0,1.0,1.0,1.0,55.00
2021-04-16 10:12:39.311,,,,,,,,,,,,,,,,,,,,,,,,,,,,,,,,,,,,,,/muse/elements/blink
2021-04-16 10:12:39.545,1.2892064,0.38609868,0.11483816,0.66524035,1.0072474,0.08660705,-0.17605422,0.19610366,0.9298404,0.22153768,0.24116053,0.4433526,0.27399448,-0.08056952,-0.18521717,0.13142428,-0.29923216,-0.7464022,-0.81449777,-0.44744402,808.68134,802.6374,803.0403,805.05493,801.02563,-0.07928466796875,0.02838134765625,0.99542236328125,4.777679443359375,-1.308441162109375,0.785064697265625,1,1.0,1.0,1.0,1.0,55.00
2021-04-16 10:12:40.052,0.390689,0.71489835,0.1524944,0.66524035,-0.08745702,0.53375185,-0.032540377,0.19610366,0.13632526,0.4222792,0.25753552,0.4433526,0.1448413,0.05435799,-0.18684936,0.13142428,-0.3200993,-0.7196869,-0.8244453,-0.44744402,834.0659,811.0989,806.26373,817.1429,788.5348,-0.0916748046875,0.0557861328125,0.9979248046875,5.570220947265625,-2.07855224609375,3.566436767578125,1,1.0,1.0,1.0,1.0,55.00
2021-04-16 10:12:40.569,0.390689,0.71912724,0.11686734,0.53643435,-0.08745702,0.53970623,0.049357668,0.055876907,0.13632526,0.4222792,0.29676405,0.2815919,0.1448413,-0.025864685,-0.15882342,0.12039068,-0.3200993,-0.6885349,-0.8101367,-0.45858982,818.3516,803.0403,805.4579,796.99634,719.6337,-0.117431640625,0.055419921875,0.97998046875,5.69732666015625,-2.093505859375,-4.97955322265625,1,1.0,1.0,1.0,1.0,55.00
2021-04-16 10:12:41.104,1.6358683,0.5140546,0.3123173,0.53643435,1.1864799,0.31363618,-0.088112414,0.055876907,1.0031158,0.40980926,0.31217942,0.2815919,0.55620414,-0.026960503,-0.1391953,0.12039068,-0.49299675,-0.6773108,-0.660132,-0.45858982,758.315,803.8461,802.23444,788.93774,657.98535,-0.11944580078125,0.04119873046875,0.98687744140625,1.9140625,-3.207550048828125,2.19818115234375,1,1.0,1.0,1.0,1.0,55.00
2021-04-16 10:12:41.451,,,,,,,,,,,,,,,,,,,,,,,,,,,,,,,,,,,,,,/muse/elements/blink
2021-04-16 10:12:41.623,1.5594912,-0.16029179,0.29458433,0.53643435,1.1247113,-0.5545085,-0.22993644,0.055876907,1.0031158,0.014712329,0.321523,0.2815919,0.51575965,-0.12984833,-0.111918256,0.12039068,-0.49851137,-0.6694808,-0.61422634,-0.45858982,777.6557,782.49084,826.4103,799.41394,668.46155,-0.07757568359375,0.01666259765625,1.00396728515625,-4.583282470703125,-7.349700927734375,22.17620849609375,1,1.0,1.0,1.0,1.0,55.00
2021-04-16 10:12:42.135,1.5905463,0.6883863,0.6339356,0.53643435,1.1616999,0.27058026,0.3547755,0.055876907,1.0011305,0.48310357,0.546785,0.2815919,0.5620758,-0.059585243,-0.12609646,0.12039068,-0.4704112,-0.6582658,-0.6168299,-0.45858982,755.4945,802.23444,808.2784,780.07324,625.34796,-0.08563232421875,-0.03448486328125,1.007080078125,1.74957275390625,-3.66363525390625,18.97613525390625,1,1.0,1.0,1.0,1.0,55.00
2021-04-16 10:12:42.683,1.4023453,0.8507991,0.84407234,0.53643435,1.0644557,0.45904863,0.6322421,0.055876907,0.87539774,0.50177395,0.5555308,0.2815919,0.5266505,-0.067625925,-0.059171233,0.12039068,-0.4366305,-0.66537935,-0.66492236,-0.45858982,811.50183,817.5458,796.5934,800.6227,714.7985,-0.12005615234375,-0.03045654296875,1.00665283203125,4.366455078125,-5.420684814453125,13.218994140625,1,1.0,1.0,1.0,1.0,55.00
2021-04-16 10:12:43.218,0.92151046,0.8565972,0.8717642,0.53643435,0.6422229,0.49530384,0.64570385,0.055876907,0.5592985,0.5381942,0.5580128,0.2815919,0.5201912,0.13290672,0.09220703,0.12039068,-0.2642929,-0.5427758,-0.54563046,-0.45858982,790.9524,817.5458,788.1319,799.41394,696.6667,-0.11993408203125,-0.01116943359375,0.9910888671875,6.841278076171875,-8.1646728515625,3.551483154296875,1,1.0,1.0,1.0,1.0,55.00
2021-04-16 10:12:43.759,1.4256296,0.9474153,0.9644566,1.3982378,1.2958727,0.7479987,0.635412,0.9960378,1.3074358,0.8625714,0.6156505,0.899092,0.54544306,0.21849537,0.06974226,0.53248125,-0.27735186,-0.477438,-0.54040587,-0.15200454,805.05493,795.78754,803.44324,808.68134,656.77655,-0.04833984375,0.02685546875,0.9925537109375,8.246917724609375,-8.792724609375,-6.691741943359375,1,1.0,1.0,1.0,1.0,55.00
2021-04-16 10:12:44.303,1.553011,1.0980576,1.0360539,1.3875009,1.4766197,0.8870425,0.5525857,1.325126,1.3596287,0.8538296,0.47114128,1.1391248,0.59071636,0.26290643,-0.013357961,0.51580846,-0.36398506,-0.43708238,-0.5355255,-0.25684392,797.3993,807.47253,803.0403,803.8461,803.8461,-0.05029296875,0.0546875,1.006591796875,6.437530517578125,-1.71966552734375,-0.91217041015625,1,1.0,1.0,1.0,1.0,55.00
2021-04-16 10:12:44.827,1.5108573,1.0958973,1.0350411,1.1812315,1.4648205,0.8605267,0.5340647,1.2131242,1.3542339,0.84710574,0.4635995,1.1376637,0.4459021,0.15304121,-0.17405397,0.4007577,-0.34665307,-0.5533834,-0.57990587,-0.23516366,503.663,726.08057,871.9414,515.34796,861.8681,-0.03546142578125,0.03125,1.0015869140625,-0.964508056640625,7.177734375,35.911102294921875,1,1.0,1.0,1.0,1.0,55.00
2021-04-16 10:12:45.037,,,,,,,,,,,,,,,,,,,,,,,,,,,,,,,,,,,,,,/muse/elements/blink
2021-04-16 10:12:45.334,1.1360815,0.47706816,0.67221457,1.0221273,1.1494893,-0.14856361,-0.082029544,1.1528088,1.0969658,0.049012706,-7.4496237E-4,1.0405673,0.29225767,0.11317594,-0.1443978,0.3847657,-0.3588748,-0.6423284,-0.5478927,-0.23054709,832.0513,811.50183,794.57874,814.7253,697.0696,-0.13623046875,0.0145263671875,0.98870849609375,0.299072265625,-1.024322509765625,19.970550537109375,1,1.0,1.0,1.0,1.0,55.00
2021-04-16 10:12:45.855,0.79339665,0.3021313,0.376235,0.3953945,0.89544857,-0.16156565,-0.24239488,0.75729054,0.13645965,0.043449465,-0.09943635,0.3755695,-0.18087752,0.09803407,-0.14301653,0.2586128,-0.24457774,-0.6267263,-0.5064656,-0.16781853,808.2784,809.0842,798.60803,794.9817,751.8681,-0.14349365234375,0.02923583984375,0.999755859375,3.476715087890625,-3.581390380859375,16.067657470703125,1,1.0,1.0,1.0,1.0,55.00
2021-04-16 10:12:46.364,0.63285846,0.16715229,0.39556926,0.3953945,0.8647476,-0.0892561,0.5175941,0.75729054,0.03042287,-0.08447338,0.1906296,0.3755695,-0.19368392,-7.7549065E-4,-0.055455163,0.2586128,-0.218651,-0.5930213,-0.62525016,-0.16781853,774.43225,814.3223,801.4286,786.52014,637.03296,-0.19757080078125,0.05108642578125,0.97698974609375,5.81695556640625,1.981353759765625,2.833709716796875,1,1.0,1.0,1.0,1.0,55.00
2021-04-16 10:12:46.881,0.7353934,-0.053724725,0.34787533,0.6232365,0.8561215,0.20425357,0.31933498,0.8525533,0.35760024,0.12660147,0.24272843,0.48731685,0.18803678,-0.21695845,-0.10598885,0.33928442,-0.28514963,-0.6660645,-0.577714,-0.25157386,810.696,800.2198,806.6667,810.293,784.90845,-0.2213134765625,0.04150390625,0.974609375,3.75335693359375,-4.643096923828125,-1.203765869140625,1,1.0,1.0,1.0,1.0,55.00
2021-04-16 10:12:47.426,0.57536316,-0.13721511,0.22062866,0.50768054,0.66404384,0.08099223,0.19053167,0.6810637,0.37297267,0.12660147,0.24272843,0.48772803,0.14434864,-0.2475279,-0.11070975,0.28207603,-0.27759844,-0.54027635,-0.60441315,-0.278197,846.55676,807.8755,806.6667,815.9341,807.47253,-0.20599365234375,0.03875732421875,0.97705078125,4.044952392578125,-5.211334228515625,0.52337646484375,1,1.0,1.0,1.0,1.0,55.00
2021-04-16 10:12:47.773,,,,,,,,,,,,,,,,,,,,,,,,,,,,,,,,,,,,,,/muse/elements/blink
2021-04-16 10:12:47.959,0.51102775,0.013232767,0.09345415,0.479923,0.62170464,0.10861931,0.008512229,0.6622789,0.78752095,0.019443622,0.21504788,0.8228763,0.155933,-0.3013151,-0.058377028,0.29445937,-0.3009095,-0.5421098,-0.6379369,-0.3054151,805.4579,805.8608,802.6374,805.05493,660.80585,-0.1976318359375,0.0352783203125,0.98101806640625,4.32159423828125,-5.016937255859375,-0.276641845703125,1,1.0,1.0,1.0,1.0,55.00
2021-04-16 10:12:48.487,0.6075978,0.029533314,-0.18422613,0.58983237,0.76213336,0.0012511298,-0.0224118,0.9814581,0.9902694,0.041833002,-0.046835598,1.0798441,0.31324524,-0.31466228,-0.06834639,0.50138575,-0.33944523,-0.48886427,-0.7237934,-0.28765386,825.6044,803.0403,796.5934,811.50183,798.60803,-0.22723388671875,0.02947998046875,0.9755859375,2.093505859375,-2.115936279296875,0.13458251953125,1,1.0,1.0,1.0,1.0,55.00
2021-04-16 10:12:49.033,0.8100097,0.024371311,-0.1288521,0.8877936,0.8114135,-0.022227075,-0.04864212,1.1061325,0.9902694,0.1872693,0.08459086,1.0798441,0.3749504,-0.32568154,-0.13148658,0.5486622,-0.36040744,-0.5159617,-0.7049326,-0.28759056,883.22345,812.3077,808.68134,888.46155,750.2564,-0.20062255859375,-0.01922607421875,0.9716796875,0.874786376953125,-14.497528076171875,4.41131591796875,1,1.0,1.0,1.0,1.0,55.00
2021-04-16 10:12:49.050,,,,,,,,,,,,,,,,,,,,,,,,,,,,,,,,,,,,,,/muse/elements/blink
2021-04-16 10:12:49.567,0.9496526,0.40294898,0.036292773,1.0037248,0.82658964,-0.24012871,-0.27386534,1.1003366,0.9680674,0.24624705,0.013950633,1.0697606,0.4251607,-0.35646623,-0.3122032,0.52910304,-0.3586988,-0.50990385,-0.560285,-0.26696905,810.696,805.4579,796.1905,808.2784,802.23444,-0.1854248046875,-0.02117919921875,0.982666015625,6.467437744140625,-4.822540283203125,0.127105712890625,1,1.0,1.0,1.0,1.0,55.00
2021-04-16 10:12:50.005,,,,,,,,,,,,,,,,,,,,,,,,,,,,,,,,,,,,,,/muse/elements/blink
2021-04-16 10:12:50.111,1.0614622,0.6628223,0.36064816,1.0906093,0.53135836,0.13636461,-0.24367747,0.9014694,0.22751556,0.5502119,0.16871466,0.73764986,0.34190398,-0.282494,-0.21086627,0.34890008,-0.35279748,-0.43643942,-0.42548615,-0.3258909,800.6227,795.78754,796.1905,812.71063,700.293,-0.21343994140625,0.0184326171875,0.9783935546875,7.439422607421875,-1.854248046875,-0.635528564453125,1,1.0,1.0,1.0,1.0,55.00
2021-04-16 10:12:50.632,1.0614622,1.1821685,0.71896845,1.0906093,0.53135836,0.72161967,0.2165899,0.9014694,0.22751556,0.58352584,0.10733803,0.73764986,0.34190398,-0.1222508,-0.101320334,0.34890008,-0.35279748,-0.4137509,-0.44431308,-0.3258909,798.60803,803.44324,800.2198,807.8755,677.326,-0.23614501953125,0.0013427734375,0.97308349609375,4.000091552734375,-4.605712890625,0.2691650390625,1,1.0,1.0,1.0,1.0,55.00
2021-04-16 10:12:51.156,1.0614622,1.1231102,0.697562,1.0906093,0.53135836,0.71204907,0.24787372,0.9014694,0.22751556,0.56535965,0.12446851,0.73764986,0.34190398,-0.114856124,-0.11460059,0.34890008,-0.35279748,-0.42947695,-0.5231323,-0.3258909,784.90845,805.8608,799.41394,798.20514,709.9634,-0.27496337890625,0.0081787109375,0.96221923828125,4.239349365234375,-4.8748779296875,4.127197265625,1,1.0,1.0,1.0,1.0,55.00
2021-04-16 10:12:51.666,0.17144603,0.98563564,0.5374695,-0.078502804,0.086464174,0.5492485,0.1550962,-0.12775005,0.22114043,0.506966,0.07257967,-0.13422301,0.07893429,-0.17269766,-0.2601401,0.19104351,-0.51427555,-0.5613771,-0.6563372,-0.42037776,796.1905,804.65204,796.5934,791.75824,710.7692,-0.24969482421875,0.00640869140625,0.96990966796875,3.715972900390625,-6.69921875,1.4056396484375,1,1.0,1.0,1.0,1.0,55.00
2021-04-16 10:12:52.210,0.15106101,-0.18492875,-0.12028134,-0.17474866,0.30692557,-0.44880155,-0.37612343,0.14292116,0.27700153,-0.21036728,0.10206513,0.20218417,0.02468417,-0.31429163,-0.25881526,0.107553795,-0.52022165,-0.59711665,-0.6990984,-0.49333104,823.1868,806.26373,799.81683,807.8755,810.293,-0.26287841796875,0.012451171875,0.970458984375,4.29168701171875,-4.059906005859375,3.775787353515625,1,1.0,1.0,1.0,1.0,55.00
2021-04-16 10:12:52.759,0.10007472,-0.44255885,-0.33482835,-0.27540782,0.26223657,-0.430254,-0.5265467,0.15127648,0.32918045,-0.096280046,0.035078775,0.3435287,-0.020930616,-0.30691528,-0.16012391,0.16503188,-0.44771096,-0.55691576,-0.7578528,-0.53677785,807.0696,801.8315,801.02563,811.0989,790.9524,-0.2379150390625,0.01495361328125,0.9776611328125,4.687957763671875,-6.400146484375,1.024322509765625,1,1.0,1.0,1.0,1.0,55.00
2021-04-16 10:12:53.298,0.12985839,-0.51542205,-0.5221045,-0.23806559,0.3239172,-0.41035578,-0.4747485,0.18219438,0.5136319,0.041183487,-0.040084604,0.41682413,-0.08217273,-0.29919684,-0.1389258,0.15579265,-0.4534238,-0.4925688,-0.9044623,-0.5282181,813.91943,804.2491,799.011,813.1135,761.9414,-0.244140625,-0.00445556640625,0.96539306640625,3.050537109375,-4.523468017578125,-1.293487548828125,1,1.0,1.0,1.0,1.0,55.00
2021-04-16 10:12:53.844,0.10311294,-0.44297275,-0.46650296,-0.02378767,0.18258397,-0.35188875,-0.32199526,0.13630651,0.532392,0.19651468,-0.21339314,0.45676842,-0.043182515,-0.16880077,-0.23298119,0.17513911,-0.38853684,-0.54636556,-0.74641585,-0.41694027,822.381,803.8461,803.0403,810.293,758.315,-0.2490234375,0.01397705078125,0.97479248046875,3.985137939453125,-5.704803466796875,2.9608154296875,1,1.0,1.0,1.0,1.0,55.00
2021-04-16 10:12:54.354,0.081368,-0.27293473,-0.22623758,0.24988371,0.20699336,-0.46739066,-0.24082607,0.24931917,0.57768625,0.19046387,-0.17809172,0.43891105,0.031648397,-0.1662261,-0.18879329,0.13484246,-0.4460157,-0.55510265,-0.6384393,-0.3616472,812.71063,803.8461,798.60803,809.89014,718.4249,-0.23968505859375,-0.00421142578125,0.9744873046875,4.306640625,-4.852447509765625,-0.3289794921875,1,1.0,1.0,1.0,1.0,55.00
2021-04-16 10:12:54.844,,,,,,,,,,,,,,,,,,,,,,,,,,,,,,,,,,,,,,/muse/elements/blink
2021-04-16 10:12:54.897,-0.0024689636,-0.037215676,-0.02677001,0.30666405,0.14991248,-0.44277725,-0.20600428,0.3401096,0.49175063,0.20184533,-0.043015283,0.4577138,0.09694179,-0.1492949,-0.107925825,0.13857304,-0.42474186,-0.6110685,-0.51608723,-0.36070636,817.5458,799.41394,794.9817,826.0073,781.28204,-0.26727294921875,-0.01123046875,0.96502685546875,2.998199462890625,-3.06549072265625,4.14215087890625,1,1.0,1.0,1.0,1.0,55.00
2021-04-16 10:12:55.439,-0.052332096,0.40580824,0.6676658,0.3983903,0.13680135,0.19896363,0.27186736,0.39451522,0.37406087,-0.013900538,0.35409802,0.22557802,0.15315501,-0.24713436,-0.09653863,0.1407471,-0.5890195,-0.5308109,-0.5129639,-0.41952366,812.3077,805.8608,806.26373,813.91943,694.2491,-0.257568359375,8.544921875E-4,0.9713134765625,4.418792724609375,-4.9346923828125,-0.777587890625,1,1.0,1.0,1.0,1.0,55.00
2021-04-16 10:12:55.968,-0.04481019,0.35860506,0.6777021,0.37268353,0.14962927,0.22615166,0.27846807,0.4116445,0.26759726,0.010225535,0.35341293,0.117744856,0.19357234,-0.21905492,-0.17048332,0.13825467,-0.6636317,-0.5253459,-0.47971663,-0.4505105,819.5604,796.5934,797.3993,813.91943,756.30035,-0.26715087890625,-0.00860595703125,0.9730224609375,3.865509033203125,-4.62066650390625,4.478607177734375,1,1.0,1.0,1.0,1.0,55.00
2021-04-16 10:12:56.497,-0.04481019,0.30532134,0.6045959,0.09297894,0.14962927,0.218386,0.2768341,-3.0764262E-4,0.26759726,0.029196732,0.36247873,0.5195905,0.19357234,-0.18593651,-0.23712291,-0.049066816,-0.6636317,-0.57521665,-0.56064117,-0.31458497,804.65204,796.99634,804.2491,801.8315,824.3956,-0.25103759765625,-0.007080078125,0.966796875,4.134674072265625,-5.241241455078125,-0.560760498046875,1,1.0,1.0,1.0,1.0,55.00
2021-04-16 10:12:57.040,0.15516773,-0.11074774,-0.18364984,0.19922456,-0.056690466,-0.2919588,-0.106803045,0.083655015,0.2248737,-0.060624123,-0.1811503,0.5195905,0.046333965,-0.16063876,-0.26449832,0.06910271,-0.53868157,-0.60013914,-0.63555074,-0.27992883,813.5165,815.9341,801.8315,797.8022,749.0476,-0.259521484375,-0.003173828125,0.97296142578125,3.22998046875,-4.0673828125,1.263580322265625,1,1.0,1.0,1.0,1.0,55.00
2021-04-16 10:12:57.548,0.042168822,-0.12448193,-0.2737895,0.19208634,-0.014388206,-0.2750475,-0.012638221,0.11447622,0.26160166,-0.05250543,-0.10229887,0.44708982,0.08181958,-0.17020454,-0.28940314,-0.005831181,-0.52563643,-0.5758305,-0.6552146,-0.36037582,799.41394,811.50183,805.05493,803.0403,714.3956,-0.2515869140625,-0.00299072265625,0.96923828125,3.925323486328125,-4.373931884765625,-0.037384033203125,1,1.0,1.0,1.0,1.0,55.00
2021-04-16 10:12:58.077,0.031803314,-0.31576744,-0.20670341,0.18898058,-0.041612856,-0.37592506,-0.064380065,0.12850966,0.45727566,-0.0368693,-0.15802723,0.34662744,0.13766466,-0.20106746,-0.28845963,-0.009184459,-0.5798917,-0.46625334,-0.62575155,-0.38822973,786.52014,803.0403,812.3077,792.1612,670.87915,-0.25830078125,-0.00506591796875,0.977294921875,4.732818603515625,-4.23187255859375,-0.8074951171875,1,1.0,1.0,1.0,1.0,55.00
2021-04-16 10:12:58.469,,,,,,,,,,,,,,,,,,,,,,,,,,,,,,,,,,,,,,/muse/elements/blink
2021-04-16 10:12:58.610,-0.01597058,-0.44898444,-0.09064139,0.09627835,-0.06467325,-0.24836603,-0.12228208,0.080279246,0.40842953,-0.025458507,-0.19552296,0.22438382,0.14532258,-0.23443942,-0.32878074,-0.12597655,-0.5327563,-0.45521823,-0.575184,-0.4529415,838.9011,807.0696,806.6667,828.022,798.20514,-0.25714111328125,-0.007080078125,0.97174072265625,4.41131591796875,-4.844970703125,0.73272705078125,1,1.0,1.0,1.0,1.0,55.00
2021-04-16 10:12:59.118,0.14053117,-0.07049293,0.27276766,0.027633209,-0.19143945,-0.24651457,-0.18373094,0.035753578,0.39509943,-0.0135796135,-0.23050454,0.20604752,0.17557742,-0.10868091,-0.33967373,-0.07826486,-0.57940996,-0.4736827,-0.62513256,-0.38306457,797.3993,803.8461,805.8608,806.26373,759.92676,-0.25537109375,-0.01129150390625,0.96661376953125,7.080535888671875,-4.209442138671875,-1.27105712890625,1,1.0,1.0,1.0,1.0,55.00
2021-04-16 10:12:59.631,0.26846176,-0.09087025,0.26039746,-0.0035894585,-0.3187891,-0.23054412,-0.297529,-0.026225042,0.2963026,-0.011304205,0.021133784,0.13712004,0.24045497,-0.035956122,-0.20830233,-0.05366086,-0.56555116,-0.580747,-0.69125456,-0.3831475,812.71063,805.8608,804.65204,806.6667,694.65204,-0.2611083984375,0.04339599609375,0.96734619140625,3.192596435546875,-3.626251220703125,-1.48040771484375,1,1.0,1.0,1.0,1.0,55.00
2021-04-16 10:13:00.140,0.33115897,-0.16557805,0.16203158,-0.12382993,0.23262954,-0.28775212,-0.39627853,-0.30608812,0.17767419,0.04680203,0.051265392,0.05150775,3.0233592E-4,-0.0149534615,-0.14618307,0.112156324,-0.38276818,-0.60073346,-0.7443869,-0.43583277,782.49084,798.20514,794.57874,790.9524,723.663,-0.26318359375,0.03265380859375,0.9654541015625,3.058013916015625,-4.104766845703125,-1.256103515625,1,1.0,1.0,1.0,1.0,55.00
2021-04-16 10:13:00.678,0.16015758,-0.70921755,-0.58814764,0.07778919,0.13765907,-0.351525,-0.42225656,0.026866252,0.35554275,0.1043192,0.2026221,0.32165244,0.018283084,-0.06164049,-0.14145455,0.14961968,-0.42714226,-0.5971287,-0.75189316,-0.44450557,820.7692,803.8461,808.2784,816.7399,791.75824,-0.28668212890625,0.02703857421875,0.96343994140625,5.42816162109375,-5.360870361328125,-6.407623291015625,1,1.0,1.0,1.0,1.0,55.00
2021-04-16 10:13:01.189,0.11198817,0.6900624,0.6398825,0.067992896,0.1267811,0.028324751,0.18059091,0.106243946,0.3880247,0.13685493,0.21972208,0.4006904,0.02930752,0.018633813,-0.21752438,0.13342384,-0.43701538,-0.6023117,-0.72821116,-0.42109153,842.9304,809.89014,803.44324,825.2015,840.5128,-0.2152099609375,0.035888671875,0.97955322265625,4.14215087890625,-12.733001708984375,-8.142242431640625,1,1.0,1.0,1.0,1.0,55.00
2021-04-16 10:13:01.737,1.065672,0.91562754,1.0386252,0.8583528,0.7419314,0.25000265,0.36519462,0.7291254,1.1801109,0.26707032,0.22096087,0.8135603,0.15885195,0.093057804,-0.22693345,0.20901184,-0.4616639,-0.6372375,-0.62704533,-0.38587224,821.5751,797.3993,803.8461,821.5751,796.1905,-0.04510498046875,0.00836181640625,1.0157470703125,1.517791748046875,-14.25079345703125,-23.70147705078125,1,1.0,1.0,1.0,1.0,55.00
2021-04-16 10:13:02.253,1.575607,1.0243578,1.0600405,1.3142564,1.4777414,0.4463684,0.38463563,1.38565,1.2831106,0.36576775,0.07653993,1.1188694,0.42398447,0.15555948,-0.2186796,0.54987234,-0.22761577,-0.6379114,-0.56023794,-0.36338,811.0989,798.20514,809.4872,818.7546,696.6667,0.03814697265625,-0.05816650390625,1.00714111328125,5.181427001953125,-15.080718994140625,-17.525634765625,1,1.0,1.0,1.0,1.0,55.00
2021-04-16 10:13:02.768,1.3792582,0.6782556,0.88760924,1.2434983,1.3062495,0.32254243,0.17308459,1.3186973,1.2831106,0.35785174,-0.015821556,1.1190548,0.38827753,0.16230029,-0.15884925,0.5447575,-0.38378197,-0.5208258,-0.5250518,-0.3575492,815.9341,785.7143,799.011,814.3223,793.36993,0.11767578125,-0.08856201171875,0.99359130859375,2.175750732421875,-9.13665771484375,-5.1739501953125,1,1.0,1.0,1.0,1.0,55.00
2021-04-16 10:13:03.280,1.1805671,0.56873006,0.11449541,1.0319773,1.1435827,0.15915348,-0.15057355,1.1665683,1.237698,0.34957752,-0.060460415,1.1135398,0.25485766,0.04613324,-0.15913673,0.48031574,-0.39052057,-0.4709864,-0.58683217,-0.28798223,788.93774,773.22345,796.5934,786.52014,637.4359,0.161865234375,-0.0615234375,0.98406982421875,6.078643798828125,-8.366546630859375,2.714080810546875,1,1.0,1.0,1.0,1.0,55.00
2021-04-16 10:13:03.823,0.9016693,0.5368421,0.06609993,0.75241596,0.7682105,-0.015120367,-0.15311506,0.7586451,0.95585346,0.065755896,-0.11435875,0.7275279,0.22050607,-0.055379793,-0.184172,0.27625754,-0.38107574,-0.43283644,-0.6721968,-0.24660766,817.9487,786.52014,802.6374,823.5897,780.87915,0.1920166015625,-0.075927734375,0.97760009765625,2.654266357421875,-2.429962158203125,-0.680389404296875,1,1.0,1.0,1.0,1.0,55.00
2021-04-16 10:13:04.330,0.795166,0.7352263,0.11895875,0.59153706,0.56632775,0.017925974,-0.20650126,0.4807159,0.86241317,0.015248182,-0.071604826,0.5600326,0.16711824,-0.23914549,-0.33795056,0.13710026,-0.284199,-0.4815635,-0.623761,-0.21634975,785.7143,788.93774,797.8022,791.3553,691.8315,0.20599365234375,-0.1044921875,0.98760986328125,3.147735595703125,-3.730926513671875,11.94793701171875,1,1.0,1.0,1.0,1.0,55.00
2021-04-16 10:13:04.835,0.6602637,0.7828035,0.10039671,0.5405215,0.5118042,0.06986037,-0.21352182,0.3738355,0.86241317,0.072958656,-0.092065826,0.5446781,0.3306967,-0.21828824,-0.28018516,0.13409907,-0.20742774,-0.55437696,-0.5590117,-0.3039113,818.7546,811.9048,795.78754,814.3223,707.9487,0.126708984375,-0.12066650390625,1.0023193359375,2.370147705078125,5.689849853515625,29.95208740234375,1,1.0,1.0,1.0,1.0,55.00
2021-04-16 10:13:05.254,,,,,,,,,,,,,,,,,,,,,,,,,,,,,,,,,,,,,,/muse/elements/blink
2021-04-16 10:13:05.378,0.3936655,0.8035893,0.22190033,0.24809012,0.27935377,0.052317176,-0.18801488,0.039493762,0.679962,0.14303449,-0.10682457,0.43215612,0.3185977,-0.24261178,-0.24206999,0.16294686,-0.2125973,-0.58173984,-0.5609554,-0.31585488,816.337,819.15753,790.9524,811.50183,761.53845,-0.0587158203125,-0.10150146484375,0.9908447265625,5.121612548828125,3.2598876953125,25.667877197265625,1,1.0,1.0,1.0,1.0,55.00
2021-04-16 10:13:05.885,0.25946012,0.7018589,0.22664347,-0.11542226,0.22621387,-0.04527013,-0.090713166,-0.38130653,0.20091791,0.124446616,-0.17322275,-0.04512215,0.43016866,-0.34816816,-0.15194802,0.23615816,-0.11033027,-0.59680384,-0.58782816,-0.43196407,791.3553,809.89014,800.6227,798.20514,680.54944,-0.09576416015625,-0.05029296875,1.00482177734375,8.575897216796875,-3.27484130859375,11.103057861328125,1,1.0,1.0,1.0,1.0,55.00
2021-04-16 10:13:06.434,0.37328112,0.5012437,0.453971,-0.2286099,0.28029126,0.046429433,0.115862295,-0.51180184,0.16495043,0.18162683,-0.19324066,-0.13779639,0.44007024,-0.2924787,-0.11005384,0.266311,-0.088739224,-0.71326774,-0.7902139,-0.385258,799.011,807.8755,794.57874,795.78754,672.0879,-0.13525390625,-0.0467529296875,0.99639892578125,6.81884765625,-1.495361328125,0.814971923828125,1,1.0,1.0,1.0,1.0,55.00
2021-04-16 10:13:06.966,0.13141242,-0.11677204,-0.59543884,-0.09608639,0.3195932,-0.13362473,-0.25817525,-0.22297902,-0.16545631,0.12344846,-0.43622357,0.06471186,-0.07350563,6.539352E-4,-0.04222866,0.07393142,-0.5922226,-0.8997894,-0.7326279,-0.13159642,791.75824,806.6667,798.60803,798.20514,665.64105,-0.15191650390625,-0.01849365234375,0.9935302734375,7.768402099609375,-3.192596435546875,2.175750732421875,1,1.0,1.0,1.0,1.0,55.00
2021-04-16 10:13:07.259,,,,,,,,,,,,,,,,,,,,,,,,,,,,,,,,,,,,,,/muse/elements/blink
2021-04-16 10:13:07.494,0.16888013,-0.054869168,0.20422316,0.014911861,0.2838843,-0.15733482,0.0035826722,-0.15943326,-0.052770462,0.12640579,-0.21053104,0.19910951,-0.07100798,-0.047915444,-0.10806017,0.060897484,-0.5765779,-0.7828204,-0.7405609,-0.16506015,820.7692,808.68134,805.05493,818.7546,708.3516,-0.16204833984375,0.00225830078125,0.99285888671875,5.884246826171875,-3.790740966796875,-0.11962890625,1,1.0,1.0,1.0,1.0,55.00
2021-04-16 10:13:08.001,0.2399261,0.33185095,0.77315265,0.037666894,0.21596162,-0.14229168,0.3461266,-0.18973124,-0.08364718,0.11288,-0.10630577,0.17616676,-0.0747116,0.006847703,-0.029580828,0.028050283,-0.5850004,-0.64103436,-0.70357156,-0.17543672,811.0989,808.68134,805.05493,808.68134,819.9634,-0.16912841796875,0.00262451171875,0.9906005859375,4.08233642578125,-4.23187255859375,0.11962890625,1,1.0,1.0,1.0,1.0,55.00
2021-04-16 10:13:08.548,0.27261266,0.35361633,0.786303,0.091558605,0.1710781,-0.1005703,0.34246176,-0.17257655,-0.10421569,0.10876554,-0.08558634,0.16473727,-0.06245158,-4.6096885E-4,-0.087691136,0.0040822835,-0.57967055,-0.63095176,-0.6678948,-0.19891474,804.65204,808.2784,808.2784,815.12823,886.8498,-0.1790771484375,-0.00494384765625,0.99322509765625,4.044952392578125,-5.06927490234375,-0.01495361328125,1,1.0,1.0,1.0,1.0,55.00
2021-04-16 10:13:09.060,0.34023273,0.26567054,0.61621094,0.3725607,0.44463617,-0.17658286,0.15684104,0.3581395,0.596838,0.28592205,-0.011694431,0.343214,0.062619165,-0.012582584,-0.06453706,-0.11626155,-0.57838553,-0.6407944,-0.5988026,-0.20077285,819.15753,803.8461,810.293,806.6667,771.2088,-0.1705322265625,-0.00787353515625,0.9874267578125,4.717864990234375,-3.506622314453125,-0.515899658203125,1,1.0,1.0,1.0,1.0,55.00
2021-04-16 10:13:09.596,0.29309282,-0.2053845,-0.32633153,0.2330871,0.33358216,-0.30442056,-0.18331864,0.39288113,0.59821796,0.22698496,0.12530641,0.37954786,-0.04044135,-0.09023915,-0.16479212,-0.16082716,-0.453894,-0.761071,-0.61323994,-0.31042245,799.011,805.8608,801.8315,803.8461,780.4762,-0.180419921875,-0.0067138671875,0.9879150390625,4.35150146484375,-3.70849609375,1.0467529296875,1,1.0,1.0,1.0,1.0,55.00
2021-04-16 10:13:10.139,0.25001,-0.48496225,-0.45403522,0.14278091,0.26268947,-0.33294606,-0.2064067,0.27374825,0.60064983,0.20529678,0.08862547,0.39425936,-0.014322754,-0.14249033,-0.09784663,-0.16212791,-0.47961867,-0.6697886,-0.69216096,-0.3776077,765.9707,818.3516,805.8608,778.0586,707.5458,-0.17816162109375,-0.012939453125,0.98944091796875,4.23187255859375,0.874786376953125,3.058013916015625,1,1.0,1.0,1.0,1.0,55.00
2021-04-16 10:13:10.376,,,,,,,,,,,,,,,,,,,,,,,,,,,,,,,,,,,,,,/muse/elements/blink
2021-04-16 10:13:10.673,0.09540875,-0.11681538,0.24446331,-0.07877117,0.13097098,-0.178892,0.03300322,0.21631975,-0.1437226,0.022538844,0.11124355,0.13677804,-0.043185417,-0.0756102,-0.08432539,-0.18954949,-0.47557,-0.6972845,-0.7358972,-0.48047346,821.5751,804.65204,805.4579,809.4872,822.7839,-0.2308349609375,-0.024658203125,0.9708251953125,4.508514404296875,-2.265472412109375,0.530853271484375,1,1.0,1.0,1.0,1.0,55.00
2021-04-16 10:13:11.196,0.035285093,0.12674834,0.50354046,-0.1341407,0.13850942,-0.09631818,0.1580239,-0.14727513,-0.20687085,0.045512367,0.0798702,0.010550088,0.12004528,-0.04850619,-0.048332267,-0.114181675,-0.6367129,-0.6237934,-0.6130727,-0.45464912,802.6374,804.65204,800.2198,802.23444,728.49817,-0.20220947265625,-0.012939453125,0.9798583984375,4.538421630859375,-4.8748779296875,-0.515899658203125,1,1.0,1.0,1.0,1.0,55.00
2021-04-16 10:13:11.742,0.035285093,0.10091862,0.52288336,-0.1341407,0.13850942,-0.14396268,0.18248266,-0.14727513,-0.20687085,-0.001879044,0.14511044,0.010550088,0.12004528,-0.05816753,-0.073645994,-0.114181675,-0.6367129,-0.63432604,-0.5902755,-0.45464912,809.0842,808.2784,806.26373,803.44324,712.381,-0.23992919921875,1.220703125E-4,0.9754638671875,4.837493896484375,-4.366455078125,1.1962890625,1,1.0,1.0,1.0,1.0,55.00
2021-04-16 10:13:12.254,0.7302724,-0.21928403,0.09776151,0.7926676,0.51038814,-0.19083762,-0.12027333,0.378855,0.30706838,0.10349753,-0.06522144,0.5970664,0.38689882,-0.09320485,-0.15720135,0.43154505,-0.37963915,-0.49042585,-0.6144986,-0.56758094,794.9817,801.02563,799.011,792.96704,754.68866,-0.23358154296875,-0.00970458984375,0.97589111328125,4.194488525390625,-5.944061279296875,0.61309814453125,1,1.0,1.0,1.0,1.0,55.00
2021-04-16 10:13:12.782,0.87972856,-0.36642167,-0.056179393,0.97990817,0.5052372,-0.1452064,-0.21876667,0.40358353,0.38191488,0.10025401,0.11817297,0.60732365,0.3074259,-0.13749705,-0.21402599,0.3499333,-0.4084616,-0.42147723,-0.63261306,-0.6196932,782.49084,801.4286,806.6667,795.38464,646.7033,-0.2210693359375,-0.01031494140625,0.973876953125,4.94964599609375,-5.62255859375,-2.37762451171875,1,1.0,1.0,1.0,1.0,55.00
2021-04-16 10:13:13.326,0.80953425,-0.13884534,-0.10607351,0.8450407,0.3784072,-0.10214931,-0.20257455,0.20010021,0.35289603,0.11191703,0.14680396,0.5338964,0.09195228,-0.16956155,-0.2582338,0.2182745,-0.45796478,-0.40393063,-0.6340083,-0.57997113,815.9341,805.8608,801.8315,810.293,855.0183,-0.21978759765625,0.00537109375,0.98016357421875,6.0113525390625,-7.177734375,-4.209442138671875,1,1.0,1.0,1.0,1.0,55.00
2021-04-16 10:13:13.854,0.74248224,-0.12439209,-0.05468328,0.75249755,0.38220087,-0.24450551,-0.26426455,0.09093673,0.32211235,-0.023716116,0.14680396,0.46659604,-0.053441517,-0.26876825,-0.3043118,0.12020721,-0.4679527,-0.48894787,-0.7073264,-0.6203753,815.5311,811.0989,800.6227,801.8315,748.6447,-0.21392822265625,0.0025634765625,0.98065185546875,4.149627685546875,-6.721649169921875,2.474822998046875,1,1.0,1.0,1.0,1.0,55.00
2021-04-16 10:13:14.394,0.38128644,-0.25043258,-0.13180266,-0.25294545,0.30077317,-0.27890205,-0.36582184,-0.25301582,0.37934858,0.016722256,-0.11067384,0.19926867,-0.008405651,-0.25783187,-0.28972727,0.10508552,-0.53079873,-0.5713291,-0.8490943,-0.5469407,805.8608,802.23444,801.4286,801.4286,851.79486,-0.24664306640625,9.765625E-4,0.969970703125,4.38140869140625,-2.16827392578125,1.74957275390625,1,1.0,1.0,1.0,1.0,55.00
2021-04-16 10:13:14.942,0.33084354,-0.5713077,-0.11118171,-0.31890595,0.24740802,-0.33558467,-0.41435394,0.0961278,0.4342924,0.046127733,-0.059971645,0.42850962,-0.0128610125,-0.2878298,-0.25238997,0.11785326,-0.57984793,-0.5479358,-0.8373876,-0.401422,821.978,806.26373,805.05493,819.5604,799.81683,-0.23785400390625,0.00909423828125,0.97216796875,4.553375244140625,-5.084228515625,0.785064697265625,1,1.0,1.0,1.0,1.0,55.00
2021-04-16 10:13:15.444,0.2504345,-0.66642016,-0.1729236,-0.38289472,0.13636535,-0.37906834,-0.30839714,0.2047774,0.49972326,0.035532407,0.07492648,0.45651242,0.050456066,-0.33006898,-0.22539356,0.14140321,-0.5714442,-0.5607979,-0.8450804,-0.40674976,814.3223,801.4286,800.2198,809.0842,831.6484,-0.24310302734375,0.00543212890625,0.96435546875,4.418792724609375,-3.476715087890625,0.59814453125,1,1.0,1.0,1.0,1.0,55.00
2021-04-16 10:13:15.949,0.18775503,-0.6743032,-0.3262195,-0.09358921,0.1268507,-0.45783985,-0.44010296,0.25455916,0.43301928,0.017213548,0.073699206,0.40930894,0.06001473,-0.34454718,-0.20864967,0.15345022,-0.38651896,-0.5788596,-0.8333981,-0.4358095,822.7839,807.8755,800.6227,808.2784,815.9341,-0.23370361328125,0.02459716796875,0.9742431640625,5.734710693359375,-6.856231689453125,1.562652587890625,1,1.0,1.0,1.0,1.0,55.00
2021-04-16 10:13:16.457,0.19876295,-0.6506185,-0.38267636,3.9596493E-6,0.062477317,-0.49426565,-0.35508463,0.09737892,0.46393856,0.14544834,0.03765829,0.3874189,0.034976374,-0.28047836,-0.2961306,0.10573475,-0.3470901,-0.61909264,-0.71278375,-0.54329187,774.43225,800.2198,797.3993,791.3553,681.75824,-0.2332763671875,0.01422119140625,0.98773193359375,5.151519775390625,-4.478607177734375,1.8841552734375,1,1.0,1.0,1.0,1.0,55.00
2021-04-16 10:13:17.002,0.1179715,-0.59292555,-0.38125393,-0.022048708,0.07231744,-0.5128606,-0.4163489,0.09267072,0.5145193,0.26312178,-0.06263633,0.397125,0.02403969,-0.13998474,-0.39714873,1.9498785E-4,-0.35127777,-0.6796085,-0.6384884,-0.40580773,818.3516,802.23444,805.05493,813.1135,755.89746,-0.25164794921875,0.013427734375,0.96746826171875,3.96270751953125,-2.67669677734375,0.545806884765625,1,1.0,1.0,1.0,1.0,55.00
2021-04-16 10:13:17.524,0.3105977,-0.38526317,-0.43569922,-0.012521892,0.29843742,-0.36714667,-0.39949307,0.22378848,0.6429938,0.28060895,-0.035706528,0.4347484,0.12105778,-0.05528123,-0.43747473,0.047603875,-0.40136588,-0.6018873,-0.5797046,-0.2732305,793.7729,796.5934,801.4286,802.6374,885.2381,-0.29388427734375,0.009521484375,0.96063232421875,5.659942626953125,-0.58319091796875,-1.016845703125,1,1.0,1.0,1.0,1.0,55.00
2021-04-16 10:13:18.034,0.41685376,-0.37604126,-0.53210986,0.16456738,0.4321739,-0.41396004,-0.6014636,0.24186851,0.88509214,0.035705373,0.08976705,0.7076914,0.2723223,-0.027875448,-0.28740335,0.25925884,-0.33630782,-0.6289607,-0.6968809,-0.22226872,828.022,819.15753,802.23444,816.337,752.674,-0.27435302734375,0.00726318359375,0.97125244140625,6.32537841796875,-4.643096923828125,-0.471038818359375,1,1.0,1.0,1.0,1.0,55.00
2021-04-16 10:13:18.576,0.5286003,-0.25320092,-0.5596391,0.3638115,0.49526677,-0.31497142,-0.28805774,0.4100033,0.9094966,0.3876302,0.3497122,0.7895004,0.31909218,-0.041953124,-0.21934068,0.38826588,-0.33004162,-0.6226053,-0.65324485,-0.2925015,815.12823,812.71063,805.4579,809.89014,743.00366,-0.27642822265625,0.0048828125,0.957275390625,2.714080810546875,-4.568328857421875,1.3458251953125,1,1.0,1.0,1.0,1.0,55.00
2021-04-16 10:13:19.082,0.4525065,-0.10569365,-0.49241802,0.29953396,0.5312971,-0.18225293,-0.15860404,0.49221927,0.9116514,0.39618325,0.38638726,0.7981169,0.43041238,0.04724951,-0.21613418,0.4240608,-0.42257473,-0.6792827,-0.6315661,-0.39643562,787.72894,802.23444,803.8461,805.8608,642.674,-0.2601318359375,-5.4931640625E-4,0.959228515625,3.6785888671875,-4.523468017578125,1.906585693359375,1,1.0,1.0,1.0,1.0,55.00
2021-04-16 10:13:19.597,0.35527974,-0.011926367,-0.24528602,0.30109832,0.4718678,-0.061196774,0.00836107,0.48100695,0.84984857,0.4455447,0.39033836,0.79245,0.41309696,0.037604917,-0.21784478,0.34767926,-0.5796587,-0.55043304,-0.5466107,-0.46680793,788.93774,805.8608,799.41394,792.96704,693.8461,-0.2554931640625,0.00299072265625,0.96533203125,3.611297607421875,-5.27862548828125,-0.351409912109375,1,1.0,1.0,1.0,1.0,55.00
2021-04-16 10:13:20.111,0.24385145,-0.1001709,-0.08637858,0.1931277,0.3658081,-0.06579301,-0.114089556,0.38082328,0.7399041,0.35567304,0.3058329,0.50583225,0.4021593,-0.058668617,-0.20529005,0.2520396,-0.6517508,-0.5227287,-0.5270921,-0.46300676,791.75824,800.6227,800.2198,794.17584,703.5165,-0.22808837890625,-0.00262451171875,0.9686279296875,4.71038818359375,-6.228179931640625,4.089813232421875,1,1.0,1.0,1.0,1.0,55.00
2021-04-16 10:13:20.627,0.14630158,-0.25385714,-0.047014892,0.28824395,0.14108786,-0.21641569,-0.20069423,0.29976872,0.5313587,0.061608665,0.13015728,0.42065668,0.21427366,-0.10212589,-0.21849175,0.15974085,-0.39222077,-0.49043298,-0.53436714,-0.4213276,817.9487,804.2491,802.23444,804.2491,749.0476,-0.23455810546875,0.00848388671875,0.97137451171875,5.63751220703125,-4.329071044921875,0.179443359375,1,1.0,1.0,1.0,1.0,55.00
2021-04-16 10:13:21.138,-0.015931671,-0.23480819,-0.17700258,0.15177955,0.11626615,-0.24464197,-0.4029282,0.36272618,0.35425043,0.08100567,-0.025039744,0.44226208,0.13052586,-0.036425542,-0.279068,0.2302644,-0.3202255,-0.46194914,-0.5175553,-0.36939132,816.7399,802.6374,803.0403,818.7546,871.13556,-0.245361328125,0.009521484375,0.9736328125,4.224395751953125,-4.134674072265625,0.49346923828125,1,1.0,1.0,1.0,1.0,55.00
2021-04-16 10:13:21.647,-0.089874536,-0.18726999,-0.4246461,0.1214798,0.04101199,-0.25728974,-0.40849409,0.3801035,0.27861848,0.08100567,-0.021117803,0.39117593,0.042186894,-0.009913536,-0.35149005,0.28355658,-0.30282366,-0.43196464,-0.48051113,-0.34647474,796.99634,801.8315,802.6374,796.5934,750.65936,-0.25732421875,0.011474609375,0.97003173828125,4.463653564453125,-5.226287841796875,4.418792724609375,1,1.0,1.0,1.0,1.0,55.00
2021-04-16 10:13:22.150,0.02565882,-0.23293023,-0.7246756,-0.062683076,0.16132852,-0.18670331,-0.3812502,0.27186063,0.26710165,0.08224204,-3.825758E-4,0.2975885,0.097089835,-0.11447104,-0.37207696,0.31332457,-0.49048784,-0.5174458,-0.5206645,-0.27334988,807.8755,807.0696,802.23444,806.26373,705.12823,-0.23968505859375,0.00537109375,0.97515869140625,3.9178466796875,-5.03936767578125,4.209442138671875,1,1.0,1.0,1.0,1.0,55.00
2021-04-16 10:13:22.653,0.54063284,-0.42179835,-0.6259059,-0.03101207,0.36548096,-0.2592097,-0.37133315,0.19170244,0.19595847,-0.19831735,0.0019521924,0.28819326,0.09358265,-0.20230725,-0.36332068,0.2502079,-0.50854516,-0.5966619,-0.5053476,-0.23830612,775.64105,801.02563,796.1905,794.57874,724.87177,-0.25067138671875,0.03558349609375,0.98712158203125,9.07684326171875,-2.863616943359375,6.213226318359375,1,1.0,1.0,1.0,1.0,55.00
2021-04-16 10:13:23.179,1.2362485,-0.4897942,-0.42269474,0.38676342,1.0570909,-0.21201134,-0.42408663,0.5066552,0.78489846,0.16212618,-7.68923E-4,0.48795596,0.36888433,-0.20765373,-0.3132821,0.17525485,-0.27745184,-0.5513796,-0.5756924,-0.18784168,811.50183,807.8755,801.8315,812.71063,774.43225,-0.224365234375,0.0247802734375,0.9742431640625,1.637420654296875,7.514190673828125,-6.6094970703125,1,1.0,1.0,1.0,1.0,55.00
2021-04-16 10:13:23.701,1.2979585,-0.3795047,-0.3567112,0.45567015,1.1135093,-0.30992535,-0.38729775,0.62381715,0.7853476,0.16030301,0.012603496,0.46306023,0.373297,-0.19281703,-0.25906092,0.17266524,-0.21595998,-0.47558427,-0.5201361,-0.31521797,825.2015,807.47253,808.2784,817.1429,794.57874,-0.26763916015625,7.32421875E-4,0.9644775390625,8.979644775390625,-7.005767822265625,-3.820648193359375,1,1.0,1.0,1.0,1.0,55.00
2021-04-16 10:13:24.205,1.2611998,-0.29772496,-0.30438143,0.5008164,1.0998409,-0.31529653,-0.3202426,0.63600785,0.7853476,0.16030301,0.0055855396,0.47601125,0.35583964,-0.2352138,-0.23855236,0.15323497,-0.21950945,-0.49808744,-0.527763,-0.40497723,808.2784,807.8755,809.0842,811.50183,786.9231,-0.31561279296875,0.02288818359375,0.961181640625,6.751556396484375,-1.338348388671875,1.413116455078125,1,1.0,1.0,1.0,1.0,55.00
2021-04-16 10:13:24.738,1.0024142,-0.08753242,-0.22193988,0.44793782,0.7074538,-0.28745425,-0.28894633,0.39402044,0.69441867,-0.06624601,-0.05831746,0.3188566,0.17193271,-0.19458638,-0.25902364,0.11286107,-0.43026432,-0.58861303,-0.49825993,-0.50757366,817.1429,808.68134,793.36993,801.8315,742.1978,-0.32177734375,0.015625,0.94976806640625,2.953338623046875,6.003875732421875,5.263671875,1,1.0,1.0,1.0,1.0,55.00
2021-04-16 10:13:25.261,0.86681443,0.104431316,-0.15683343,0.54804385,0.21545172,-0.1717609,-0.24061698,0.16006877,0.42833492,-0.12137961,-0.026409982,0.2052111,0.12780267,-0.08018673,-0.33002028,0.1638543,-0.4431034,-0.5800307,-0.53955156,-0.29248068,801.02563,801.02563,802.6374,801.02563,800.2198,-0.333251953125,-0.01708984375,0.927978515625,5.9515380859375,-3.267364501953125,0.620574951171875,1,1.0,1.0,1.0,1.0,55.00
2021-04-16 10:13:25.799,0.82870877,0.15038589,-0.087455384,0.5468507,0.0109273875,-0.1840778,-0.257554,0.13036461,0.36368594,-0.11946285,-0.024073137,0.126445,0.13320254,-0.035516918,-0.27253935,0.26154512,-0.39936057,-0.57481766,-0.6568112,-0.249448,814.7253,799.81683,796.5934,812.71063,760.32965,-0.35540771484375,-0.0184326171875,0.92376708984375,4.239349365234375,-3.2000732421875,-0.37384033203125,1,1.0,1.0,1.0,1.0,55.00
2021-04-16 10:13:26.311,0.5193067,0.19590983,0.010162599,0.42327923,-0.09644605,-0.24067348,-0.12416553,0.0905823,0.27670738,-0.10952892,0.05972148,0.1893998,0.05806916,-0.097795986,-0.21099961,0.29661864,-0.32407105,-0.5131656,-0.75697744,-0.22441097,809.0842,803.44324,807.8755,803.44324,759.5238,-0.33392333984375,0.0191650390625,0.9425048828125,7.25250244140625,-12.179718017578125,-3.648681640625,1,1.0,1.0,1.0,1.0,55.00
2021-04-16 10:13:26.766,,,,,,,,,,,,,,,,,,,,,,,,,,,,,,,,,,,,,,/muse/elements/blink
2021-04-16 10:13:26.821,0.22125924,0.15627642,0.2522918,0.35391933,-0.113839135,-0.14206995,0.04651267,-0.13257024,0.22184876,0.093221016,0.23313689,0.17630008,0.01227732,-0.1529188,-0.24311632,0.2560236,-0.3270912,-0.5236201,-0.7110916,-0.3340552,844.1392,812.71063,801.8315,834.0659,805.4579,-0.31329345703125,0.015869140625,0.943359375,2.145843505859375,-6.048736572265625,-1.8243408203125,1,1.0,1.0,1.0,1.0,55.00
2021-04-16 10:13:27.340,0.24656217,0.2906269,0.6524457,0.39553556,-0.063948065,0.096012264,0.38829637,-0.21352725,0.10793728,0.17653005,0.3244932,0.13032377,-0.0030755908,-0.10572568,-0.32390827,0.1655671,-0.3408703,-0.5510132,-0.65527314,-0.30083174,786.9231,801.4286,803.0403,795.78754,743.8095,-0.31427001953125,0.02081298828125,0.95062255859375,5.66741943359375,-4.88983154296875,-0.545806884765625,1,1.0,1.0,1.0,1.0,55.00
2021-04-16 10:13:27.864,0.4287717,0.25597382,0.6298662,0.5530569,-0.14678855,0.026487263,0.33441228,-0.14835584,-0.07920328,0.16611409,0.33757937,0.10136945,-0.0654481,-0.06670964,-0.3254142,0.10460335,-0.4676291,-0.6319203,-0.57085985,-0.3767229,768.3883,799.41394,809.4872,788.93774,770.80585,-0.3011474609375,-0.02655029296875,0.9451904296875,3.1402587890625,-3.27484130859375,-0.88226318359375,1,1.0,1.0,1.0,1.0,55.00
2021-04-16 10:13:28.377,0.16765381,0.26760513,0.6114682,-0.077428505,0.11740681,-0.008166349,0.31443343,-0.18401298,0.20387712,0.16611409,0.33757937,-0.14062278,0.08251005,-0.058509544,-0.22620703,0.2147629,-0.45117614,-0.651457,-0.63237256,-0.35241503,815.9341,801.02563,797.8022,804.65204,710.7692,-0.31427001953125,-0.014404296875,0.959716796875,5.091705322265625,-4.9945068359375,-0.740203857421875,1,1.0,1.0,1.0,1.0,55.00
2021-04-16 10:13:28.939,0.28646806,0.10140658,-0.06736671,0.08235851,0.06390197,-0.365534,-0.27459297,-0.20933479,0.3327968,-0.11421298,-0.022290478,0.1310717,0.12528014,-0.06997909,-0.16455162,0.12412192,-0.40381238,-0.5768022,-0.73030406,-0.33810142,815.12823,805.4579,800.6227,810.696,821.5751,-0.313720703125,0.00238037109375,0.9560546875,3.207550048828125,-4.972076416015625,-2.16827392578125,1,1.0,1.0,1.0,1.0,55.00
2021-04-16 10:13:29.453,0.27074033,0.022962462,-0.07368001,0.080807894,0.14942096,-0.3123229,-0.15989828,0.14657936,0.30109394,-0.15799418,-0.097493395,0.4347206,0.15126988,-0.045122936,-0.17955072,0.15202223,-0.4187127,-0.5287018,-0.79443425,-0.3124942,806.6667,802.23444,804.65204,804.65204,772.4176,-0.2518310546875,-0.027099609375,0.973876953125,5.510406494140625,-11.49932861328125,0.3887939453125,1,1.0,1.0,1.0,1.0,55.00
2021-04-16 10:13:29.958,0.22863618,0.20096749,-0.0907825,0.16988683,0.10665717,-0.235268,-0.18849376,0.30811787,0.2742176,-0.12729599,-0.10149777,0.42895147,0.14858356,-0.112653285,-0.25560266,0.20750253,-0.38696453,-0.5630517,-0.66336274,-0.30704403,795.38464,809.4872,792.96704,795.38464,622.1245,-0.20977783203125,-0.0225830078125,0.96356201171875,7.6861572265625,-9.906768798828125,-9.04693603515625,1,1.0,1.0,1.0,1.0,55.00
2021-04-16 10:13:30.466,0.10479332,0.9663589,1.0328265,0.15067531,0.17414132,0.3024154,0.38399068,0.4712067,0.098807834,0.033076406,0.38071114,0.2925164,0.16450542,-0.15615226,-0.22081843,0.28950757,-0.4363157,-0.569961,-0.67749655,-0.29067644,814.3223,810.293,800.2198,821.5751,738.5714,-0.1402587890625,-0.04962158203125,1.0028076171875,4.26177978515625,-9.607696533203125,-26.12396240234375,1,1.0,1.0,1.0,1.0,55.00
2021-04-16 10:13:30.972,0.95018524,1.3003851,1.186262,1.3471488,0.9940388,0.7030771,0.46851546,1.2800759,0.80941015,0.34006444,0.4503689,0.955795,0.28771502,0.14016424,-0.07225643,0.31041047,-0.4594309,-0.45157883,-0.6620494,-0.159387,784.10254,788.5348,798.60803,794.9817,827.619,-0.06610107421875,-0.1636962890625,0.983642578125,-1.532745361328125,-9.876861572265625,-12.99468994140625,1,1.0,1.0,1.0,1.0,55.00
2021-04-16 10:13:31.490,1.3985797,1.2907501,1.1923472,1.5750334,1.2441854,0.716813,0.4750387,1.4933766,1.1083287,0.35352042,0.45957714,0.955795,0.35200092,0.16644482,-0.03770995,0.22422697,-0.30321342,-0.42594713,-0.79487556,-0.062124405,782.0879,768.7912,806.26373,796.1905,673.2967,0.10125732421875,-0.15814208984375,0.9981689453125,8.1646728515625,-11.7236328125,-8.545989990234375,1,1.0,1.0,1.0,1.0,55.00
2021-04-16 10:13:31.999,1.1753962,1.1523334,0.75351185,1.289841,1.0189673,0.5219728,0.059985507,1.2093226,1.1386456,0.35064217,0.41223946,1.013202,0.31547984,0.13602798,-0.038954444,0.35850164,-0.23945883,-0.49104577,-0.7556345,0.0645045,786.52014,810.696,807.47253,790.14655,668.86444,0.11907958984375,-0.107666015625,0.99127197265625,4.927215576171875,-9.129180908203125,-1.48040771484375,1,1.0,1.0,1.0,1.0,55.00
2021-04-16 10:13:32.264,,,,,,,,,,,,,,,,,,,,,,,,,,,,,,,,,,,,,,/muse/elements/blink
2021-04-16 10:13:32.522,1.0836027,1.0156173,0.100659594,0.162196,0.85583574,0.07228963,-0.10579234,0.07357628,1.1181306,0.025914798,0.24738923,0.5214671,0.28670585,-0.09022934,-0.08830945,0.448049,-0.22961256,-0.62079096,-0.76255846,0.1443857,814.7253,793.7729,804.2491,811.50183,816.337,0.16925048828125,-0.0877685546875,0.98968505859375,4.329071044921875,-7.574005126953125,2.34771728515625,1,1.0,1.0,1.0,1.0,55.00
2021-04-16 10:13:33.031,0.45612985,1.352899,0.18263671,0.162196,0.24176195,0.6405658,0.33945996,0.07357628,0.9665334,0.61131966,0.34656358,0.5214671,0.27615187,0.0032523796,-0.039553795,0.448049,-0.18240604,-0.6296025,-0.67697173,0.1443857,808.2784,798.20514,804.2491,817.5458,783.2967,0.195068359375,-0.10528564453125,0.986328125,6.4300537109375,-5.988922119140625,-2.056121826171875,1,1.0,1.0,1.0,1.0,55.00
2021-04-16 10:13:33.539,0.4681063,1.1950366,0.2325205,0.1363556,0.01507299,0.6332199,0.35377038,-0.0017978209,0.56384337,0.61131966,0.41343212,0.41150865,0.33987325,-0.016799876,-0.042854287,0.42584744,-0.21242137,-0.62569517,-0.60580117,0.15469007,807.0696,795.78754,801.02563,819.5604,890.07324,0.2315673828125,-0.09130859375,0.98223876953125,4.762725830078125,-6.602020263671875,-2.803802490234375,1,1.0,1.0,1.0,1.0,55.00
2021-04-16 10:13:34.053,0.72553253,1.1150147,0.5949607,0.12605922,0.7110749,0.66379833,0.44713077,-0.20334136,0.7162931,0.6165476,0.49366564,0.07894451,0.23546039,-0.029755093,-0.031565346,0.4661575,-0.16940525,-0.58438885,-0.6330421,-0.42669806,802.6374,795.78754,802.23444,790.14655,630.58606,0.23492431640625,-0.08673095703125,0.97381591796875,5.615081787109375,-4.957122802734375,-0.2093505859375,1,1.0,1.0,1.0,1.0,55.00
2021-04-16 10:13:34.582,0.7366946,0.61581546,0.6440997,0.25712827,0.7461775,0.34339166,0.26593643,0.016304914,0.7478194,0.4186197,0.38148862,0.4713037,0.20731999,-0.098015204,-0.044565983,0.41535014,-0.18409596,-0.5331952,-0.68881977,-0.3294424,800.2198,809.0842,802.6374,786.52014,583.44324,0.22784423828125,-0.06915283203125,0.97601318359375,4.9945068359375,-5.749664306640625,0.261688232421875,1,1.0,1.0,1.0,1.0,55.00
2021-04-16 10:13:35.108,0.8571364,0.7387239,0.77576834,0.3143225,0.8782661,0.4670392,0.4157841,0.5022422,0.8641277,0.5283148,0.40658137,0.5406333,0.2569465,-0.033786893,0.038798433,0.47412047,-0.27070373,-0.48752183,-0.7091693,-0.24929108,784.10254,792.5641,804.65204,785.7143,625.34796,0.24334716796875,-0.07177734375,0.97845458984375,4.42626953125,-5.256195068359375,0.13458251953125,1,1.0,1.0,1.0,1.0,55.00
2021-04-16 10:13:35.623,,,,,,,,,,,,,,,,,,,,,,,,,,,,,,,,,,,,,,/muse/elements/blink
2021-04-16 10:13:35.628,0.8534018,0.67799246,0.5470137,0.35110438,0.8899924,0.32048428,0.32734272,0.6553038,0.8207984,0.44765127,0.37434408,0.55406624,0.31098214,-0.017503746,0.08102423,0.46931925,-0.34312522,-0.50074124,-0.6476287,-0.18811163,821.1722,799.81683,807.0696,814.3223,670.07324,0.255126953125,-0.070068359375,0.9688720703125,4.605712890625,-4.613189697265625,1.143951416015625,1,1.0,1.0,1.0,1.0,55.00
2021-04-16 10:13:36.151,0.91564935,1.0007854,0.47733817,0.38644865,0.9405552,0.6388217,0.3854467,0.8128233,0.78342664,0.53138924,0.3400468,0.41921914,0.37758577,0.099374734,0.0651369,0.5469618,-0.416587,-0.5445354,-0.614766,-0.12639865,803.8461,797.8022,804.2491,806.6667,786.1172,0.25030517578125,-0.07244873046875,0.96490478515625,4.807586669921875,-4.299163818359375,0.814971923828125,1,1.0,1.0,1.0,1.0,55.00
2021-04-16 10:13:36.688,0.8891344,1.0477663,0.13662246,0.43240935,0.92698646,0.69237936,0.25733742,0.84607345,0.77157605,0.49459732,0.13818444,0.27327904,0.43541694,0.12474115,-0.024775757,0.536007,-0.33468866,-0.5439861,-0.6537721,-0.078352295,825.2015,807.8755,802.6374,828.8278,759.92676,0.2462158203125,-0.06549072265625,0.9708251953125,4.643096923828125,-4.897308349609375,1.203765869140625,1,1.0,1.0,1.0,1.0,55.00
2021-04-16 10:13:37.206,0.7343918,1.0102974,0.16657116,0.30441675,-0.24022785,0.6584237,0.16465735,-0.25025156,0.30867824,0.47497946,0.1271717,0.19606423,0.04171232,0.06103535,-0.15043278,0.15368202,-0.5067711,-0.6257348,-0.6577258,-0.24897864,805.05493,807.0696,803.0403,787.326,589.0842,0.2530517578125,-0.07421875,0.9688720703125,4.179534912109375,-4.418792724609375,1.562652587890625,1,1.0,1.0,1.0,1.0,55.00
2021-04-16 10:13:37.745,0.6288264,0.28577134,0.09743614,0.27157176,-0.16467036,-0.06417694,-0.043555908,0.058833506,0.3556909,0.20154269,0.047216374,0.32448554,0.009416466,-0.120988935,-0.13191406,0.20920195,-0.44437054,-0.58189046,-0.6923678,-0.33620366,809.89014,799.41394,805.4579,811.0989,780.87915,0.25445556640625,-0.0750732421875,0.96368408203125,4.80010986328125,-4.6356201171875,1.375732421875,1,1.0,1.0,1.0,1.0,55.00
2021-04-16 10:13:38.269,0.5236176,0.26545957,0.079438426,0.121785454,-0.10256979,0.024327828,-0.07893754,0.05660796,0.39185286,0.26759562,0.036903728,0.3504495,-0.03367516,-0.1001432,-0.12044202,0.16589116,-0.431902,-0.6328602,-0.5693927,-0.29580912,805.05493,810.696,803.8461,794.9817,584.65204,0.2529296875,-0.07098388671875,0.967041015625,4.104766845703125,-4.448699951171875,0.94207763671875,1,1.0,1.0,1.0,1.0,55.00
2021-04-16 10:13:38.790,0.11469023,0.18334468,-0.15845263,-0.26487502,-0.021430155,-0.04618323,-0.08972435,0.05034473,0.4471286,0.2611942,-0.064079046,0.38311705,-0.010280636,-0.019163322,-0.12365413,0.11843579,-0.4305165,-0.621781,-0.48863682,-0.3249232,813.1135,805.05493,808.2784,810.293,740.989,0.25384521484375,-0.07122802734375,0.97003173828125,4.448699951171875,-5.0244140625,1.30096435546875,1,1.0,1.0,1.0,1.0,55.00
2021-04-16 10:13:39.317,-0.0054146554,0.29705536,-0.0015848852,-0.48446992,0.06712373,0.09090312,0.022700716,0.13673612,0.34663746,0.042352162,0.065444075,0.46591246,0.02977991,-0.013273386,-0.116924934,0.0927703,-0.4207028,-0.59570426,-0.46272153,-0.27122825,809.89014,805.05493,803.0403,813.5165,835.6777,0.25445556640625,-0.07000732421875,0.9725341796875,4.702911376953125,-4.194488525390625,1.487884521484375,1,1.0,1.0,1.0,1.0,55.00
2021-04-16 10:13:39.833,0.39398667,0.6236256,0.43178636,-0.2914599,0.22909243,0.22602157,0.25357687,0.19197293,0.40347838,0.23378657,0.24686255,0.5450873,0.17112148,0.07158322,-0.010167771,0.082262084,-0.42810813,-0.50324106,-0.540483,-0.32196617,770.40295,788.1319,812.71063,784.90845,703.5165,0.25213623046875,-0.0723876953125,0.96917724609375,4.463653564453125,-4.807586669921875,0.88226318359375,1,1.0,1.0,1.0,1.0,55.00
2021-04-16 10:13:40.344,0.5215129,0.63057256,0.504874,-0.17143714,0.47174224,0.2590127,0.25394073,0.38192356,0.44395584,0.1994229,0.26749098,0.5450873,0.15857755,0.0015965446,-0.037229624,0.15360811,-0.4846428,-0.538186,-0.6073062,-0.3851109,816.7399,796.5934,801.02563,812.3077,951.31866,0.25750732421875,-0.0699462890625,0.96484375,4.7552490234375,-4.14215087890625,0.7476806640625,1,1.0,1.0,1.0,1.0,55.00
2021-04-16 10:13:40.852,0.62280416,0.5996822,0.5400616,0.061164144,0.57917565,0.21297391,0.21667837,0.40150467,0.47622114,0.20039968,0.27243468,0.4673326,0.1260729,-0.059908297,-0.06757024,0.16652873,-0.5661983,-0.6121739,-0.5433325,-0.44682524,795.78754,810.696,798.20514,794.57874,817.1429,0.26104736328125,-0.06915283203125,0.96539306640625,4.2169189453125,-4.553375244140625,1.532745361328125,1,1.0,1.0,1.0,1.0,55.00
2021-04-16 10:13:41.354,0.5933253,0.32133374,0.28851014,0.19657448,0.540298,0.049607508,-0.10849677,0.40132713,0.42364326,0.17072469,0.1425801,0.11377058,-0.01593053,-0.1272171,-0.22850318,0.18373796,-0.52955383,-0.73570853,-0.5177553,-0.37305456,805.8608,794.17584,801.02563,786.1172,652.3443,0.25634765625,-0.068603515625,0.9703369140625,5.0543212890625,-4.538421630859375,1.9439697265625,1,1.0,1.0,1.0,1.0,55.00
2021-04-16 10:13:41.866,0.7042352,0.46960813,0.13621901,0.2834742,0.39318645,0.0054390226,-0.15792143,0.286949,0.47144303,0.19535553,0.13565323,0.10976665,0.032449987,-0.025339408,-0.22172116,0.17076758,-0.38133514,-0.77246016,-0.53732914,-0.2625493,844.5421,779.2674,809.4872,862.27106,819.15753,0.25848388671875,-0.066650390625,0.96282958984375,4.42626953125,-5.1739501953125,1.293487548828125,1,1.0,1.0,1.0,1.0,55.00
2021-04-16 10:13:42.032,,,,,,,,,,,,,,,,,,,,,,,,,,,,,,,,,,,,,,/muse/elements/blink
2021-04-16 10:13:42.393,0.74937946,0.65111136,-0.16090411,0.25571674,0.21019022,0.37612057,-0.26859996,0.15444204,0.26849243,0.23868039,0.005654572,-0.069692336,0.06699179,0.039762367,-0.3373569,0.13573486,-0.2860757,-0.71992725,-0.52839047,-0.20376894,807.8755,795.78754,795.78754,813.5165,761.53845,0.248046875,-0.07977294921875,0.96905517578125,5.27862548828125,-0.366363525390625,10.041351318359375,1,1.0,1.0,1.0,1.0,55.00
2021-04-16 10:13:42.923,0.8239658,0.8740054,-0.1954891,0.18100974,0.20068294,0.5112839,-0.23628429,0.06588018,0.2503865,0.24219584,-0.09562353,-0.17421588,0.18016027,-0.049117364,-0.35253665,0.2055463,-0.20167932,-0.59488183,-0.50421,-0.20789608,823.1868,809.0842,794.9817,809.0842,1022.6374,0.2078857421875,-0.074951171875,0.98248291015625,4.7552490234375,2.086029052734375,7.40203857421875,1,1.0,1.0,1.0,1.0,55.00
2021-04-16 10:13:43.464,,,,,,,,,,,,,,,,,,,,,,,,,,,,,,,,,,,,,,/muse/elements/blink
2021-04-16 10:13:43.470,0.8239658,0.99054396,-0.12122954,0.18100974,0.20068294,0.6064939,-0.21877812,0.06588018,0.2503865,0.14968066,-0.019650996,-0.17421588,0.18016027,-0.11425844,-0.27349606,0.2055463,-0.20167932,-0.47407436,-0.49223664,-0.20789608,882.8205,829.2308,787.72894,886.04395,886.4469,0.00469970703125,-0.18560791015625,0.9771728515625,1.712188720703125,4.3365478515625,35.96343994140625,1,1.0,1.0,1.0,1.0,55.00
2021-04-16 10:13:43.993,0.8239658,1.034187,-0.123921596,0.18100974,0.20068294,0.35153994,-0.28689295,0.06588018,0.2503865,0.13177206,-0.12101845,-0.17421588,0.18016027,-0.19696811,-0.1668327,0.2055463,-0.20167932,-0.4897662,-0.55590135,-0.20789608,810.696,815.9341,801.02563,816.337,661.6117,-0.1552734375,-0.09423828125,0.988525390625,16.43402099609375,4.05242919921875,11.26007080078125,1,1.0,1.0,1.0,1.0,55.00
2021-04-16 10:13:44.531,0.8239658,1.0345665,-0.10208641,0.18100974,0.20068294,0.20751624,-0.2989303,0.06588018,0.2503865,0.13177206,-0.14614528,-0.17421588,0.18016027,-0.20503613,-0.045525286,0.2055463,-0.20167932,-0.5076568,-0.62259966,-0.20789608,821.5751,804.2491,800.6227,810.293,823.1868,-0.1640625,-0.00946044921875,1.00531005859375,8.082427978515625,-0.590667724609375,7.73101806640625,1,2.0,1.0,1.0,2.0,55.00
2021-04-16 10:13:45.053,0.6363708,0.11338289,0.12526624,0.9338614,0.66781336,-0.19227768,-0.18611814,0.6029232,0.11712054,0.16660863,-0.19922592,0.33997148,0.12184286,-0.20686053,-0.14862585,0.2210247,-0.5734231,-0.37825897,-0.4129059,-0.28827313,785.31134,811.9048,803.8461,787.326,655.9707,-0.17919921875,0.0220947265625,0.9912109375,7.19268798828125,-5.465545654296875,3.805694580078125,1,2.0,1.0,1.0,2.0,55.00
2021-04-16 10:13:45.595,0.73558605,0.09913702,0.04463417,0.8311107,0.48373646,-0.15646541,-0.2732952,0.41444528,0.563587,0.18152423,-0.063435316,0.4854349,0.06649884,-0.22200668,-0.15220645,0.18376887,-0.44538856,-0.47981033,-0.47592717,-0.16146675,797.3993,843.3333,811.0989,796.99634,714.3956,-0.20135498046875,0.04901123046875,0.9761962890625,3.887939453125,-3.87298583984375,3.51409912109375,1,1.0,1.0,1.0,1.0,55.00
2021-04-16 10:13:46.124,0.71377254,0.07121161,0.061638262,0.7379425,0.34798694,-0.18332967,-0.32719052,0.327196,0.6219902,0.17881693,-0.059685137,0.49674603,0.11324787,-0.23392545,-0.16194823,0.18336093,-0.4136186,-0.50219464,-0.5320786,-0.20054056,793.36993,817.5458,809.89014,798.20514,660.0,-0.23333740234375,0.02532958984375,0.9803466796875,2.79632568359375,-3.648681640625,-2.609405517578125,1,1.0,1.0,1.0,1.0,55.00
2021-04-16 10:13:46.632,0.67001724,0.081401244,0.22532089,0.56729364,0.05146793,-0.117058046,-0.480735,0.2262017,0.6156193,-0.06492567,-0.114941575,0.42748588,0.10499783,-0.24090812,-0.19447905,0.23610003,-0.45828715,-0.64482826,-0.55529433,-0.17948051,815.5311,808.68134,802.23444,805.05493,699.0842,-0.23681640625,0.0155029296875,0.9688720703125,4.32159423828125,-1.79443359375,3.386993408203125,1,1.0,1.0,1.0,1.0,50.00
2021-04-16 10:13:47.169,0.51400775,0.13147485,0.21668181,0.49066538,-0.1157024,-0.11097178,-0.5905151,0.21574065,0.49548748,-0.116828874,-0.33457834,0.43780294,0.06848778,-0.24459237,-0.30170918,0.21234302,-0.45377833,-0.6683118,-0.5272682,-0.2077409,801.8315,794.57874,804.65204,794.17584,743.4066,-0.24151611328125,-3.662109375E-4,0.96954345703125,1.86920166015625,-2.43743896484375,2.6019287109375,1,1.0,1.0,1.0,1.0,50.00
2021-04-16 10:13:47.703,0.4058595,0.13147485,0.1329852,0.43792388,0.008130456,-0.11097178,-0.6525406,0.20618412,0.4803925,-0.116828874,-0.5076687,0.63420326,0.12208021,-0.24459237,-0.26388282,0.26583302,-0.43219697,-0.6683118,-0.46860865,-0.1624996,827.619,807.47253,806.6667,809.89014,703.91943,-0.2369384765625,-0.0185546875,0.970703125,3.529052734375,-3.84307861328125,-0.456085205078125,1,1.0,1.0,1.0,1.0,50.00
2021-04-16 10:13:48.205,0.7496476,0.13147485,-0.37154654,0.677515,0.31945324,-0.11097178,-0.4695491,0.34964705,0.5803013,-0.116828874,-0.5278001,0.6786003,0.27464458,-0.24459237,-0.19046809,0.27199826,-0.37519285,-0.6683118,-0.50558186,-0.23330696,806.6667,809.0842,801.4286,803.0403,738.97437,-0.24560546875,-0.01544189453125,0.9705810546875,4.837493896484375,-3.686065673828125,-0.31402587890625,1,1.0,1.0,1.0,1.0,50.00
2021-04-16 10:13:48.725,0.9074426,-0.18355358,-0.41515574,0.80292493,0.40168017,-0.6500673,-0.38317412,0.3803451,0.5803013,-0.31981823,-0.3463252,0.6786003,0.30905786,-0.17412138,-0.1432567,0.32363954,-0.4819241,-0.5052134,-0.58875644,-0.33524126,783.2967,805.05493,805.05493,790.9524,703.1135,-0.2467041015625,-0.0076904296875,0.97186279296875,4.47113037109375,-3.641204833984375,-0.396270751953125,1,1.0,1.0,1.0,1.0,50.00
2021-04-16 10:13:49.238,0.85578454,-0.32332075,-0.3721583,0.7519919,0.31159675,-0.63324624,-0.34867615,0.3476018,0.47152293,-0.051371254,-0.14603496,0.57873136,0.18551755,-0.13271452,-0.16198114,0.2015088,-0.49993747,-0.5092657,-0.6288972,-0.41594228,800.2198,803.8461,807.0696,802.23444,705.12823,-0.24981689453125,-0.00543212890625,0.97698974609375,4.628143310546875,-4.32159423828125,-0.49346923828125,1,1.0,1.0,1.0,1.0,50.00
2021-04-16 10:13:49.753,0.56264377,-0.38425836,-0.3919305,0.49423593,0.10244996,-0.5778282,-0.35940692,0.16071472,0.35785332,-0.032950122,0.013915649,0.33625868,0.14281867,-0.077003464,-0.0924577,0.21479721,-0.44530156,-0.5261797,-0.71140146,-0.30672368,786.9231,800.2198,803.0403,791.3553,724.0659,-0.2542724609375,0.0029296875,0.96258544921875,6.048736572265625,-4.9346923828125,1.472930908203125,1,1.0,1.0,1.0,1.0,50.00
2021-04-16 10:13:50.274,0.18992087,-0.45652562,-0.41017237,0.030739255,0.018285839,-0.22787376,-0.3049244,0.037443243,0.24194139,-1.6093514E-5,0.026615882,0.29096267,0.16059774,-0.10096049,-0.044495754,0.24284282,-0.45478168,-0.5168654,-0.6827419,-0.36127925,820.7692,811.50183,803.44324,815.12823,785.7143,-0.2493896484375,-5.4931640625E-4,0.96441650390625,4.598236083984375,-5.15899658203125,1.951446533203125,1,1.0,1.0,1.0,1.0,50.00
2021-04-16 10:13:50.783,0.2519822,-0.29700455,-0.40442684,0.2592279,0.1792995,-0.10214035,-0.18296681,0.19074725,0.34347588,-0.09812073,-0.0033945523,0.35740092,0.19519459,-0.19663654,-0.066595644,0.3003609,-0.47917658,-0.53640735,-0.69027555,-0.38621545,799.81683,804.65204,803.0403,794.9817,685.78754,-0.25177001953125,-0.00128173828125,0.970947265625,4.448699951171875,-4.97955322265625,1.09161376953125,1,1.0,1.0,1.0,1.0,50.00
2021-04-16 10:13:51.289,0.21035103,-0.3884634,-0.27126995,0.3018718,0.16859528,-0.064197704,-0.11109289,0.2506204,0.3542643,-0.067055956,-0.05558428,0.408411,0.116521195,-0.32862797,-0.12388855,0.25292173,-0.47871435,-0.51226187,-0.6516998,-0.39264128,798.60803,810.696,806.6667,803.44324,763.5531,-0.24517822265625,-0.003662109375,0.96453857421875,4.508514404296875,-4.358978271484375,2.1832275390625,1,1.0,1.0,1.0,1.0,50.00
2021-04-16 10:13:51.765,,,,,,,,,,,,,,,,,,,,,,,,,,,,,,,,,,,,,,/muse/elements/blink
2021-04-16 10:13:51.806,0.03155794,-0.24391772,-0.0064830896,0.3211466,0.22283608,-0.17813213,-0.091329865,0.33098808,0.24450992,0.14269935,-0.10474851,0.3593184,0.12271942,-0.12635745,-0.175484,0.20723607,-0.41393393,-0.590939,-0.6517554,-0.28924638,828.8278,806.26373,802.23444,835.2747,628.97437,-0.2509765625,0.01202392578125,0.96429443359375,4.78515625,-7.648773193359375,1.069183349609375,1,1.0,1.0,1.0,1.0,50.00
2021-04-16 10:13:52.338,-0.15272833,0.02973371,0.4449877,0.21484226,0.097592644,0.0044351583,0.15101162,0.29199734,0.16069736,0.26254594,0.02593273,0.3088099,0.07878003,-0.035669032,-0.15779291,0.13928428,-0.4167995,-0.5718144,-0.6134963,-0.24480405,804.2491,811.9048,806.6667,810.696,692.23444,-0.236328125,-0.00128173828125,0.97882080078125,3.985137939453125,-4.26177978515625,-2.34771728515625,1,1.0,1.0,1.0,1.0,50.00
2021-04-16 10:13:52.846,-0.19809215,0.103539124,0.49215856,0.21886693,0.19069947,0.02537079,0.13287772,0.2293209,0.050953995,0.266544,0.05162848,0.25329307,0.08760131,-0.05959412,-0.23001692,0.13181528,-0.45209804,-0.57117915,-0.4620324,-0.28105453,809.0842,801.4286,803.44324,803.44324,790.54944,-0.2239990234375,0.0048828125,0.9805908203125,4.119720458984375,-5.286102294921875,2.37762451171875,1,1.0,1.0,1.0,1.0,50.00
2021-04-16 10:13:53.397,0.4565799,0.054306943,0.42880604,0.28438705,0.037396386,-0.022361664,0.10010012,0.3951892,0.15716992,0.22015803,0.07246043,0.14070071,0.0744694,-0.22638004,-0.24034953,0.22972205,-0.496606,-0.5237657,-0.4403583,-0.32735848,818.3516,809.4872,800.2198,807.8755,795.78754,-0.23236083984375,0.0025634765625,0.9791259765625,3.2000732421875,-5.323486328125,2.415008544921875,1,1.0,1.0,1.0,1.0,50.00
2021-04-16 10:13:53.907,0.32583904,-0.43549073,-0.26263833,0.35875106,0.22685234,-0.34091726,-0.31532192,0.3404604,0.3125221,0.09920909,0.059625853,0.2758569,0.07788141,-0.31456083,-0.28041068,0.2442781,-0.47902375,-0.59127957,-0.49392304,-0.27863145,803.44324,803.8461,801.4286,799.81683,764.35895,-0.2353515625,0.01068115234375,0.9749755859375,4.747772216796875,-3.828125,1.502838134765625,1,1.0,1.0,1.0,1.0,50.00
2021-04-16 10:13:54.452,0.24551237,-0.49773404,-0.42977795,0.30035108,0.16050243,-0.44853956,-0.3116713,0.3014997,0.33002,0.039918263,0.11649943,0.27687728,0.08084814,-0.19893543,-0.2845963,0.23791362,-0.46352595,-0.6458256,-0.5880378,-0.36549237,799.81683,801.02563,796.1905,796.5934,712.381,-0.2396240234375,0.0126953125,0.97406005859375,4.628143310546875,-3.730926513671875,5.5328369140625,1,1.0,1.0,1.0,1.0,50.00
2021-04-16 10:13:54.997,0.40032366,-0.35961664,-0.38596183,0.319074,0.120032005,-0.29501617,-0.32821533,0.18002027,0.3248421,-0.029845178,0.10119824,0.4511477,0.04303662,-0.14289775,-0.26357836,0.13793756,-0.48948586,-0.70129603,-0.62298,-0.37081593,795.78754,800.6227,794.9817,784.90845,735.34796,-0.23406982421875,0.01348876953125,0.9716796875,3.8580322265625,-3.805694580078125,-0.7476806640625,1,1.0,1.0,1.0,1.0,50.00
2021-04-16 10:13:55.503,0.45219174,-0.20798787,-0.20474888,0.22590922,0.021373302,-0.14383464,-0.1149107,0.22803237,0.14588878,-0.14358361,-0.028781744,0.40748486,-0.0017179364,-0.14732282,-0.2695136,0.1173229,-0.48701698,-0.6433699,-0.647421,-0.3676239,817.9487,802.6374,803.44324,813.91943,731.7216,-0.27471923828125,0.00738525390625,0.9757080078125,4.732818603515625,-4.448699951171875,-1.099090576171875,1,1.0,1.0,1.0,1.0,50.00
2021-04-16 10:13:56.019,0.506924,0.07850397,-0.14266105,0.23070379,0.15385708,-0.083761826,-0.082523465,0.30346456,0.20237388,-0.30600926,-0.011768451,0.4551554,0.005730289,-0.25231802,-0.25596023,0.08924761,-0.45873204,-0.62436044,-0.64819837,-0.29775283,801.4286,803.0403,810.293,798.60803,738.5714,-0.248046875,3.662109375E-4,0.96875,4.0972900390625,-5.66741943359375,0.755157470703125,1,1.0,1.0,1.0,1.0,50.00
2021-04-16 10:13:56.530,0.22226466,0.056065653,-0.08131855,0.2517566,0.26415804,-0.12616873,0.0067626596,0.3154694,0.52192104,-0.26049843,-0.009945852,0.26543143,0.014310071,-0.33773777,-0.3477619,0.07004293,-0.43436942,-0.6660626,-0.749147,-0.39634937,816.7399,813.1135,804.2491,807.0696,778.0586,-0.2470703125,-0.00140380859375,0.97174072265625,5.39825439453125,-4.897308349609375,0.231781005859375,1,1.0,1.0,1.0,1.0,55.00
2021-04-16 10:13:57.054,0.13895984,0.05877413,-0.16182649,0.26614082,0.23025492,-0.21461618,-0.06382224,0.1732082,0.52398604,-0.2627153,0.025311133,0.11439355,0.015413884,-0.35532025,-0.36729237,0.0015642688,-0.45148098,-0.7314408,-0.7734399,-0.4534058,790.14655,806.26373,803.0403,796.99634,705.12823,-0.26318359375,0.01080322265625,0.97271728515625,6.990814208984375,-2.213134765625,0.10467529296875,1,1.0,1.0,1.0,1.0,55.00
2021-04-16 10:13:57.570,0.017947065,-0.030994138,-0.26322132,0.32585692,0.09152235,-0.1784909,-0.13508332,0.07132977,0.54865915,-0.23422031,-0.19684076,0.13899085,0.083751604,-0.23811372,-0.3410218,0.045281813,-0.49498948,-0.7219109,-0.74997294,-0.5121482,786.52014,804.2491,796.99634,799.41394,750.65936,-0.2413330078125,0.00213623046875,0.96527099609375,4.373931884765625,-3.177642822265625,3.887939453125,1,1.0,1.0,1.0,1.0,55.00
