TimeStamp,Delta_TP9,Delta_AF7,Delta_AF8,Delta_TP10,Theta_TP9,Theta_AF7,Theta_AF8,Theta_TP10,Alpha_TP9,Alpha_AF7,Alpha_AF8,Alpha_TP10,Beta_TP9,Beta_AF7,Beta_AF8,Beta_TP10,Gamma_TP9,Gamma_AF7,Gamma_AF8,Gamma_TP10,RAW_TP9,RAW_AF7,RAW_AF8,RAW_TP10,AUX_RIGHT,Accelerometer_X,Accelerometer_Y,Accelerometer_Z,Gyro_X,Gyro_Y,Gyro_Z,HeadBandOn,HSI_TP9,HSI_AF7,HSI_AF8,HSI_TP10,Battery,Elements
2021-04-09 09:13:09.430,0.93045574,0.06705827,-0.007884094,0.8381489,0.52659535,-0.123576924,0.017848458,0.5592296,-0.26516038,-0.17340936,0.015858032,0.41612455,0.19230543,0.055725127,0.10578519,0.69475615,-0.26457486,-0.2652934,-0.06698855,0.6584058,830.0366,810.696,809.4872,797.3993,1053.663,0.1453857421875,-0.1104736328125,0.98858642578125,5.09918212890625,-4.2169189453125,0.76263427734375,1,1.0,1.0,1.0,1.0,80.00
2021-04-09 09:13:09.938,0.7155278,-0.03173814,-0.08778526,0.65348136,0.44472915,-0.015040775,-0.09127536,0.4998663,-0.018523734,-0.026404053,0.006937446,0.47494382,0.19475757,0.022672424,0.08921865,0.6818167,-0.16189404,-0.2559748,-0.074235275,0.6404377,815.9341,805.05493,799.81683,815.5311,731.7216,0.14984130859375,-0.10028076171875,1.00079345703125,3.409423828125,-1.39068603515625,0.35888671875,1,1.0,1.0,1.0,1.0,80.00
2021-04-09 09:13:10.447,0.5549906,-0.23953332,-0.075121775,0.5202941,0.3313142,-0.06940431,-0.20881857,0.44352853,0.34360433,0.016505735,-0.070825085,0.47494382,0.29080486,-0.036181875,0.10939913,0.75443524,-0.15375255,-0.2968229,-0.107392386,0.60135967,831.6484,807.47253,815.5311,815.9341,801.8315,0.08056640625,-0.11956787109375,0.98626708984375,2.459869384765625,3.7384033203125,-1.248626708984375,1,1.0,1.0,1.0,1.0,80.00
2021-04-09 09:13:10.971,0.70598966,-0.14597784,-0.004430976,0.65935826,0.49905488,-0.12771821,-0.26559836,0.53188163,0.73733145,0.026155803,-0.07372509,0.56058055,0.50153494,-0.11163076,0.15577891,0.79403627,-0.12832601,-0.30427995,-0.1592881,0.55961347,807.47253,812.3077,805.4579,812.71063,710.3663,-0.0181884765625,-0.11383056640625,0.98834228515625,2.58697509765625,-1.016845703125,0.538330078125,1,1.0,1.0,1.0,1.0,80.00
2021-04-09 09:13:11.498,0.797315,-0.118708566,0.02981426,0.8454775,0.6010933,-0.18724138,-0.20827429,0.63434684,0.77173334,0.00269018,-0.067033194,0.6281658,0.53853786,-0.06830064,0.14282727,0.8083253,-0.1736349,-0.24184643,-0.24869365,0.52357364,784.90845,796.1905,803.44324,787.326,572.1612,-0.0211181640625,-0.146484375,1.00128173828125,1.9439697265625,-5.90667724609375,0.1495361328125,1,1.0,1.0,1.0,1.0,80.00
2021-04-09 09:13:12.001,0.86922044,-0.10740811,0.07501883,0.95788455,0.6322238,-0.14087375,-0.15417075,0.6501459,0.77159494,-0.069877476,-0.05186573,0.6857999,0.51251185,0.008649968,0.05602067,0.76363504,-0.19111983,-0.26932585,-0.25760588,0.55123234,807.8755,815.5311,812.3077,810.293,715.6044,-0.01116943359375,-0.16607666015625,0.98974609375,-0.067291259765625,2.175750732421875,-2.2430419921875,1,1.0,1.0,1.0,1.0,80.00
2021-04-09 09:13:12.512,0.80700225,-0.12000966,0.17205152,0.9886945,0.51509917,-0.051957883,-0.14106132,0.6120123,0.569813,0.15441415,0.19359776,0.6881799,0.40972313,0.09417352,0.03022509,0.72813636,-0.15169418,-0.29904675,-0.29142827,0.5549067,824.7985,804.2491,810.293,814.3223,788.1319,-0.13531494140625,-0.1280517578125,0.97216796875,22.004241943359375,11.14044189453125,-17.727508544921875,1,1.0,1.0,1.0,1.0,80.00
2021-04-09 09:13:12.558,,,,,,,,,,,,,,,,,,,,,,,,,,,,,,,,,,,,,,/muse/elements/blink
2021-04-09 09:13:12.859,,,,,,,,,,,,,,,,,,,,,,,,,,,,,,,,,,,,,,/muse/elements/blink
2021-04-09 09:13:13.030,1.2215741,0.47005346,0.8881504,0.9830276,1.1651127,0.40795732,0.6257827,0.48885354,1.2717843,0.4719971,0.758231,0.5141049,0.5024115,0.15713075,0.17303798,0.73003125,-0.09983075,-0.36515042,-0.22715946,0.574611,788.93774,806.26373,809.0842,790.14655,672.49084,-0.26953125,-0.04058837890625,0.965087890625,13.540496826171875,7.05810546875,-7.85064697265625,1,1.0,1.0,1.0,1.0,80.00
2021-04-09 09:13:13.542,1.4104098,0.6362392,1.0196254,1.2840128,1.6201273,0.5524821,0.8103158,1.7554852,1.5172378,0.5231216,0.78035694,1.5638272,0.7371223,0.2652699,0.31387785,0.84315825,0.049723957,-0.2405727,-0.15973252,0.3940715,804.65204,790.9524,817.5458,822.381,744.21246,-0.34814453125,0.00347900390625,0.94140625,6.676788330078125,4.50103759765625,4.478607177734375,1,1.0,1.0,1.0,1.0,80.00
2021-04-09 09:13:14.050,1.2984813,0.8044955,1.0050967,1.2840128,1.5582448,0.62779534,0.8046489,1.7554852,1.5172378,0.54694253,0.78035694,1.5638272,0.6903313,0.32189542,0.26146078,0.84315825,0.053414572,-0.20967267,-0.09799282,0.3940715,808.2784,814.7253,811.9048,815.5311,654.7619,-0.461669921875,0.08697509765625,0.91656494140625,9.8095703125,1.457977294921875,7.798309326171875,1,1.0,1.0,1.0,1.0,80.00
2021-04-09 09:13:14.554,0.86519474,0.78132695,0.44351184,1.0150009,1.2436205,0.42967975,0.39586246,1.4586909,1.4552221,0.47321302,0.6399916,1.5667784,0.60430574,0.29886815,0.10215506,0.7297236,-0.0154414205,-0.19567218,-0.10643512,-0.034803268,802.6374,803.44324,801.02563,793.36993,844.94507,-0.37530517578125,0.08599853515625,0.95074462890625,5.435638427734375,-13.0096435546875,10.99090576171875,1,1.0,1.0,1.0,1.0,80.00
2021-04-09 09:13:15.057,0.74971807,0.89996755,0.49760684,0.886799,0.66209257,0.53768873,0.31083015,0.63620496,1.1092577,0.51851654,0.511692,0.7935856,0.49277562,0.2993178,-0.03379753,0.6438656,-0.07835359,-0.23199844,-0.081720084,-0.10963341,812.71063,801.4286,788.93774,803.8461,784.90845,-0.34149169921875,0.10595703125,0.9439697265625,3.072967529296875,-5.57769775390625,-3.416900634765625,1,1.0,1.0,1.0,1.0,80.00
2021-04-09 09:13:15.570,0.8211412,1.0007166,0.63140744,1.0434397,0.80355763,0.6146783,0.41873753,0.8174644,0.8491332,0.520205,0.4918153,1.0756183,0.48811284,0.266211,-0.0356787,0.64141613,-0.1491289,-0.18996334,-0.09055274,-0.037100185,777.6557,801.4286,801.4286,795.78754,651.9414,-0.3482666015625,0.063232421875,0.93597412109375,5.674896240234375,-7.469329833984375,1.1663818359375,1,1.0,1.0,1.0,1.0,80.00
2021-04-09 09:13:16.089,0.8579402,0.80560243,0.67344224,0.9942429,0.8431521,0.5204065,0.4609451,0.92211664,0.8418395,0.511031,0.39742854,1.0732259,0.5319975,0.31906053,0.21932352,0.5957783,-0.16270734,-0.3479625,-0.08796211,0.072670735,864.2857,784.90845,816.337,878.7912,741.39197,-0.31689453125,0.06243896484375,0.94805908203125,-5.33843994140625,-5.166473388671875,9.787139892578125,1,1.0,1.0,1.0,1.0,80.00
2021-04-09 09:13:16.580,,,,,,,,,,,,,,,,,,,,,,,,,,,,,,,,,,,,,,/muse/elements/blink
2021-04-09 09:13:16.591,0.7996836,0.63957226,0.61896795,0.9590196,0.8601621,0.27736208,0.24079059,0.91068345,0.76410407,0.18186538,0.09422656,1.0647662,0.52984875,0.2912368,0.2541679,0.5616302,-0.23323992,-0.21437767,-0.20448382,0.09619011,831.2454,801.8315,801.4286,826.4103,709.9634,-0.3736572265625,0.0274658203125,0.919677734375,5.87677001953125,5.211334228515625,-12.777862548828125,1,1.0,1.0,1.0,1.0,80.00
2021-04-09 09:13:17.108,0.86730707,0.6688335,0.61896795,0.48991436,0.67095137,0.29845384,0.24079059,0.7997788,0.50143886,0.37088418,0.09422656,0.61524,0.5609949,0.2647534,0.2541679,0.5064452,-0.2450436,-0.15695354,-0.20448382,0.11622689,773.22345,821.5751,801.02563,768.3883,690.2198,-0.381591796875,0.07318115234375,0.941650390625,5.084228515625,-11.701202392578125,-0.859832763671875,1,1.0,1.0,1.0,1.0,80.00
2021-04-09 09:13:17.619,0.9891261,0.62124395,0.66455215,0.44159845,0.64110655,0.24242721,-0.09978533,0.6737341,0.42240292,0.38664043,0.010155668,0.58266264,0.6751187,0.19359155,0.13638851,0.5605298,-0.24278739,-0.077674195,-0.36103657,0.17425928,795.78754,790.9524,796.1905,797.8022,674.90845,-0.33837890625,0.05426025390625,0.94012451171875,3.192596435546875,-6.048736572265625,-1.1065673828125,1,1.0,1.0,1.0,1.0,80.00
2021-04-09 09:13:18.144,0.47990108,0.4661729,0.35650867,0.64153236,0.430497,0.14713822,-0.24910598,0.5888125,0.5940524,0.28643596,-0.01166277,0.77344215,0.32417762,0.15311839,0.09453341,0.26623574,-0.25925303,-0.10979038,-0.3119541,-0.029056437,794.57874,805.05493,804.65204,794.57874,829.2308,-0.3194580078125,0.0552978515625,0.94659423828125,5.33843994140625,-3.5589599609375,-0.22430419921875,1,1.0,1.0,1.0,1.0,80.00
2021-04-09 09:13:18.311,,,,,,,,,,,,,,,,,,,,,,,,,,,,,,,,,,,,,,/muse/elements/blink
2021-04-09 09:13:18.664,0.41646975,0.06938533,0.4727406,0.56591016,0.4152484,-0.044980012,-0.15113935,0.5473205,0.5940524,0.21945125,0.100278445,0.77616763,0.2747802,0.07812676,0.09074268,0.259416,-0.2787996,-0.14480849,-0.19386332,-0.03869776,818.3516,805.05493,800.6227,818.7546,826.8132,-0.398193359375,0.04052734375,0.918212890625,4.613189697265625,6.17584228515625,-1.734619140625,1,1.0,1.0,1.0,1.0,80.00
2021-04-09 09:13:19.197,0.41646975,0.030367432,0.60068965,0.56591016,0.4152484,-0.028255528,-0.06607692,0.5473205,0.5940524,0.08421494,0.049547557,0.77616763,0.2747802,0.059117332,0.03200668,0.259416,-0.2787996,-0.107031204,-0.07649308,-0.03869776,819.9634,804.65204,803.44324,810.696,867.1062,-0.4117431640625,0.0379638671875,0.914794921875,-0.16448974609375,-4.53094482421875,-2.086029052734375,1,1.0,1.0,1.0,1.0,80.00
2021-04-09 09:13:19.699,0.30157775,0.015810493,0.5486869,0.4269374,0.41996086,-0.13223976,-0.13073671,0.4561012,0.52290535,-0.008799191,0.12301109,0.5177106,0.2205205,0.03522752,-0.075844094,0.23222184,-0.31506866,-0.18155634,-0.05902278,-0.0763201,804.65204,806.6667,800.6227,807.8755,758.71796,-0.38995361328125,0.06268310546875,0.9259033203125,4.403839111328125,-5.839385986328125,1.12152099609375,1,1.0,1.0,1.0,1.0,80.00
2021-04-09 09:13:20.209,0.14247021,-0.13270225,0.41588235,-0.10203611,0.049912505,-0.29220068,-0.2796357,-0.101152904,0.34744123,0.07297835,0.10073957,0.20164965,-0.12927482,0.061203264,-0.16043139,0.17094477,-0.12177135,-0.24663502,-0.06474288,-0.027557442,794.17584,801.8315,802.23444,806.26373,726.08057,-0.39471435546875,0.052001953125,0.91986083984375,4.62066650390625,-4.358978271484375,2.863616943359375,1,1.0,1.0,1.0,1.0,80.00
2021-04-09 09:13:20.680,,,,,,,,,,,,,,,,,,,,,,,,,,,,,,,,,,,,,,/muse/elements/blink
2021-04-09 09:13:20.744,0.05075147,-0.24889275,0.02944327,-0.17264085,0.0025933716,-0.30011314,-0.4525687,-0.20318334,0.37271917,-0.032744404,0.1052713,0.20888229,-0.070924066,0.05144341,-0.07765985,0.20671162,-0.15490308,-0.34498686,-0.09401895,-0.013006982,852.6007,811.9048,804.65204,862.27106,701.9048,-0.41015625,0.08441162109375,0.90997314453125,4.0972900390625,-5.27862548828125,0.859832763671875,1,1.0,1.0,1.0,1.0,80.00
2021-04-09 09:13:21.272,0.048379548,0.5825532,0.92268777,-0.25028536,-0.028858593,0.517812,0.5407781,-0.2921546,0.35469848,0.64114445,0.5527558,0.18931897,-0.068719305,0.07366856,0.02399946,0.22434665,-0.13172804,-0.22981443,-0.084756345,0.0026522093,814.3223,810.293,809.0842,804.65204,710.3663,-0.38873291015625,0.081787109375,0.91058349609375,-0.515899658203125,-11.282501220703125,-0.785064697265625,1,1.0,1.0,1.0,1.0,80.00
2021-04-09 09:13:21.780,-0.19667092,0.68412757,0.98138565,-0.418898,-0.081080526,0.5533962,0.6189595,-0.48883,0.14897422,0.63943887,0.5532078,0.16398329,0.022746801,0.11562562,0.04615065,0.26662374,-0.15646294,-0.17241438,-0.10671137,-0.007938707,821.1722,814.7253,810.696,812.3077,848.5714,-0.37823486328125,0.01470947265625,0.915771484375,-4.42626953125,-8.73291015625,-10.06378173828125,1,1.0,1.0,1.0,1.0,80.00
2021-04-09 09:13:22.282,-0.19667092,0.7064739,0.9767736,-0.418898,-0.081080526,0.5409483,0.64300126,-0.48883,0.14897422,0.6449269,0.55204695,0.16398329,0.022746801,0.086367466,0.0426407,0.26662374,-0.15646294,-0.1965353,-0.2200554,-0.007938707,799.011,807.8755,805.05493,803.8461,678.5348,-0.26751708984375,-0.0244140625,0.97955322265625,10.15350341796875,0.575714111328125,5.914154052734375,1,1.0,1.0,1.0,1.0,100.00
2021-04-09 09:13:22.599,,,,,,,,,,,,,,,,,,,,,,,,,,,,,,,,,,,,,,/muse/elements/blink
2021-04-09 09:13:22.792,0.6958769,0.4213687,0.33265904,0.4946844,0.6810896,0.02382664,0.13703778,0.60059494,0.7303606,0.36965036,0.26624078,0.8870155,0.38631803,0.09504762,0.018632673,0.36785161,-0.28111556,-0.26003528,-0.13723387,-0.013912544,796.1905,800.2198,807.47253,798.20514,683.36993,-0.29364013671875,-0.03753662109375,0.967041015625,0.291595458984375,-5.211334228515625,1.233673095703125,1,1.0,1.0,1.0,1.0,100.00
2021-04-09 09:13:23.299,0.7921078,0.39803165,0.452599,0.6398998,0.9060314,0.34083867,0.19801503,0.8173945,0.8849901,0.41667402,0.3122372,1.0242372,0.3981144,0.14738405,0.065765575,0.32327443,-0.21635762,-0.23317116,-0.120547004,-0.0059805126,804.65204,800.6227,812.3077,802.6374,708.7546,-0.298095703125,-0.02703857421875,0.9537353515625,4.88983154296875,-3.529052734375,0.25421142578125,1,1.0,1.0,1.0,1.0,100.00
2021-04-09 09:13:23.812,0.7535158,0.37053353,0.4550507,0.5946434,0.88228697,0.346134,0.15194002,0.76555884,0.8849901,0.3619772,0.30489668,1.0242372,0.34991235,0.14508748,0.12409425,0.32929274,-0.19880345,-0.21684946,-0.09187007,-0.032229267,807.8755,802.6374,796.99634,794.57874,695.05493,-0.27325439453125,-0.03363037109375,0.9664306640625,5.091705322265625,-5.69732666015625,0.1495361328125,1,1.0,1.0,1.0,1.0,100.00
2021-04-09 09:13:24.318,0.5421085,0.13567814,0.3355297,0.43620428,0.7456325,0.29011536,0.040024973,0.63678324,0.88418394,0.41074866,0.33329555,1.0185649,0.25170857,0.15878908,0.18456325,0.29733822,-0.25474504,-0.2245578,-0.10924238,-0.10777356,815.12823,823.1868,792.96704,797.3993,831.6484,-0.28778076171875,-0.0316162109375,0.956787109375,4.29168701171875,-4.26177978515625,-0.0299072265625,1,1.0,1.0,1.0,1.0,100.00
2021-04-09 09:13:24.834,0.18765317,0.11698845,0.1867866,0.22535913,0.12122774,0.077637665,0.055783354,0.16502248,0.31986415,0.16991195,0.24314572,0.65001583,0.118712924,0.078394584,0.2144824,0.3628628,-0.33124655,-0.26025346,-0.1570755,-0.0779742,817.5458,807.47253,807.0696,808.2784,765.9707,-0.29425048828125,-0.03778076171875,0.96002197265625,4.418792724609375,-4.02252197265625,0.770111083984375,1,1.0,1.0,1.0,1.0,100.00
2021-04-09 09:13:25.346,0.47296366,0.25215957,0.43415767,0.6018494,0.070658,0.22451222,0.22109796,0.3215728,0.4447468,0.2319855,0.25657517,0.6948166,0.1562326,0.078285255,0.13693067,0.3934863,-0.37202856,-0.27051875,-0.23509833,-0.032312572,801.8315,801.02563,808.2784,811.0989,664.0293,-0.28900146484375,-0.04229736328125,0.95733642578125,4.269256591796875,-4.66552734375,0.844879150390625,1,1.0,1.0,1.0,1.0,100.00
2021-04-09 09:13:25.854,0.5387071,0.22951254,0.41812015,0.6632325,0.06476353,0.17593087,0.2116843,0.35376912,0.44370767,0.23422948,0.24520758,0.7797595,0.1383484,0.04291157,0.14058375,0.37271202,-0.32072598,-0.3092598,-0.33907065,-0.037615843,813.91943,804.65204,792.1612,799.41394,890.87915,-0.28826904296875,-0.04058837890625,0.95892333984375,4.4561767578125,-4.912261962890625,0.321502685546875,1,1.0,1.0,1.0,1.0,100.00
2021-04-09 09:13:26.364,0.47236285,0.20557046,0.24998455,0.4384167,0.1514882,-0.021136621,-0.05113478,0.08758202,0.52886075,0.11173836,0.10266048,0.6818884,0.14774494,0.093709625,0.11523752,0.31944937,-0.3247584,-0.28700197,-0.28778216,-0.13977155,795.78754,792.1612,809.4872,801.4286,753.47986,-0.28839111328125,-0.04278564453125,0.96148681640625,4.179534912109375,-5.555267333984375,1.517791748046875,1,1.0,1.0,1.0,1.0,100.00
2021-04-09 09:13:26.874,0.49452063,0.1824274,0.050605033,0.11373201,0.15758894,-0.20099053,-0.21329053,-0.0111805685,0.5805608,0.04710035,0.049464222,0.56691074,0.18693526,0.119902305,0.14905733,0.35466185,-0.32863942,-0.24097446,-0.23093463,-0.18235283,792.5641,795.78754,801.8315,790.54944,700.696,-0.28729248046875,-0.0457763671875,0.964599609375,4.41131591796875,-5.540313720703125,1.233673095703125,1,1.0,1.0,1.0,1.0,100.00
2021-04-09 09:13:27.381,0.4771186,0.2517168,0.15963578,-0.017777797,0.20454636,-0.25933078,-0.10581452,-0.03223566,0.5595616,0.11847406,0.083374895,0.37001264,0.17925337,0.09416972,0.0718176,0.29256195,-0.33011508,-0.2709939,-0.22072375,-0.27789217,798.60803,800.2198,794.9817,798.20514,778.46155,-0.28338623046875,-0.05755615234375,0.96875,5.69732666015625,-6.213226318359375,-0.07476806640625,1,1.0,1.0,1.0,1.0,100.00
2021-04-09 09:13:27.894,0.4515119,0.23391543,0.11698317,0.04118856,0.11832508,-0.40970156,-0.06334477,-0.024903404,0.55904603,0.12686577,0.11973702,0.28989008,0.16573828,0.07969808,0.02483661,0.2349064,-0.25830436,-0.30356145,-0.1893667,-0.18196228,813.1135,815.5311,811.9048,807.8755,773.22345,-0.2838134765625,0.017822265625,0.96728515625,12.583465576171875,1.45050048828125,4.44122314453125,1,1.0,1.0,1.0,1.0,100.00
2021-04-09 09:13:28.426,0.43085048,0.25251028,0.007225562,0.18461084,0.2447125,-0.19702026,-0.12739892,0.12226921,0.3068188,0.1420607,0.097264044,0.10794129,0.09838434,0.119047254,0.15447445,0.20229077,-0.15849209,-0.31376523,-0.15928635,-0.039665703,839.707,837.28937,771.6117,802.23444,767.98535,-0.355224609375,0.0684814453125,0.92620849609375,3.087921142578125,6.512298583984375,-2.056121826171875,1,1.0,1.0,1.0,1.0,100.00
2021-04-09 09:13:28.952,0.6898993,0.5609317,0.37928933,0.25666595,0.39858407,0.19567107,0.13654317,0.24659786,0.41248733,0.16916463,0.30509827,0.25598016,0.02686553,0.1074131,0.19554481,0.27470723,-0.12148808,-0.24135911,-0.15578496,0.034688752,789.34064,785.7143,811.0989,811.9048,724.87177,-0.3558349609375,0.02447509765625,0.9315185546875,0.10467529296875,-6.063690185546875,6.20574951171875,1,1.0,1.0,1.0,1.0,100.00
2021-04-09 09:13:29.463,0.92951596,0.68073255,0.98826444,0.60780543,0.6288572,0.36160672,0.5397167,0.3718847,0.8263567,0.107431136,0.59207296,0.5951957,0.10685114,0.11955377,0.26493493,0.4235182,-0.091988415,-0.21332777,-0.10791705,-0.029357035,795.38464,814.3223,793.7729,803.8461,626.9597,-0.3345947265625,0.01953125,0.94317626953125,5.211334228515625,-3.529052734375,0.052337646484375,1,1.0,1.0,1.0,1.0,100.00
2021-04-09 09:13:29.971,0.9409096,0.8297882,1.1535614,0.7404821,0.6939339,0.4369987,0.65416074,0.38619682,0.8263567,0.26746193,0.6017899,0.59579337,0.21850066,0.06397171,0.20441495,0.44880462,-0.1556466,-0.24974787,-0.0324701,-0.10016151,788.93774,800.2198,797.3993,780.87915,802.23444,-0.35064697265625,0.012939453125,0.94061279296875,3.349609375,-3.1103515625,-1.62994384765625,1,1.0,1.0,1.0,1.0,100.00
2021-04-09 09:13:30.478,0.77926284,0.8687256,1.2164525,0.84267807,0.688017,0.49465764,0.7145049,0.52578366,0.8263567,0.49589214,0.6017899,0.8550554,0.38944587,0.21792439,0.18809344,0.50359243,-0.15863119,-0.35823348,-0.037093475,-0.15054058,801.02563,804.2491,799.81683,798.20514,742.6007,-0.353759765625,0.00518798828125,0.93841552734375,4.7552490234375,-4.284210205078125,1.443023681640625,1,1.0,1.0,1.0,1.0,100.00
2021-04-09 09:13:31.007,0.60060346,0.74172676,0.9115772,0.7148219,0.61592764,0.28916535,0.45883462,0.60185426,0.68990785,0.49589214,0.43779835,0.8874666,0.37590048,0.22394846,0.182262,0.41198596,-0.18992479,-0.38081273,-0.17466983,-0.11661088,813.1135,807.47253,802.6374,813.5165,690.2198,-0.35009765625,-0.00323486328125,0.938720703125,4.65057373046875,-5.824432373046875,0.418701171875,1,1.0,1.0,1.0,1.0,100.00
2021-04-09 09:13:31.511,0.46229362,0.6599866,0.6375679,0.5471269,0.5039809,0.23510458,0.30203584,0.54137915,0.61438704,0.49589214,0.26818004,0.8874666,0.33889142,0.21015142,0.0979899,0.38861015,-0.22626239,-0.3497479,-0.28718647,-0.1429301,801.4286,796.5934,803.0403,793.36993,761.9414,-0.3494873046875,-0.00335693359375,0.9361572265625,4.089813232421875,-4.32159423828125,-0.76263427734375,1,1.0,1.0,1.0,1.0,100.00
2021-04-09 09:13:32.016,0.43852025,0.25643748,0.17823417,0.36396143,0.33371046,-0.19263788,0.044051547,0.33575165,0.580918,-6.93377E-4,0.058053833,0.7880196,0.26434886,0.115906335,0.051191445,0.24071522,-0.30402684,-0.38297477,-0.25949425,0.00952741,795.38464,806.6667,800.2198,796.5934,741.79486,-0.349853515625,-8.544921875E-4,0.9371337890625,4.358978271484375,-3.648681640625,0.142059326171875,1,1.0,1.0,1.0,1.0,100.00
2021-04-09 09:13:32.530,0.2505969,0.04421072,-0.10942809,0.29017276,0.12978964,-0.1255012,-0.034627423,0.17477477,0.65076816,0.03956253,-0.03237517,0.6370836,0.17793296,0.051370468,-0.11054326,0.20793399,-0.38509664,-0.3818715,-0.19131526,0.012998078,805.8608,803.0403,802.23444,799.81683,846.1539,-0.35015869140625,-0.00140380859375,0.9365234375,4.88983154296875,-3.81317138671875,0.441131591796875,1,1.0,1.0,1.0,1.0,85.00
2021-04-09 09:13:33.048,0.13051294,0.0069554523,0.0029105695,0.22182187,0.05774146,-0.26327968,0.0033456946,0.22963093,0.6171094,0.05417726,0.09377914,0.60742426,0.15992418,0.05868958,0.013299655,0.20906182,-0.4576568,-0.45009798,-0.20955722,-0.011558662,801.02563,806.6667,809.0842,804.65204,727.6923,-0.3546142578125,-0.00390625,0.93658447265625,4.658050537109375,-3.9178466796875,0.934600830078125,1,1.0,1.0,1.0,1.0,85.00
2021-04-09 09:13:33.574,-0.2692901,0.13025069,0.11380079,-0.009979028,-0.012632115,-0.24255961,0.020846335,0.23639044,0.6502899,0.07131049,0.31626245,0.60165113,0.11721296,0.106159166,-0.010402403,0.23191336,-0.4380797,-0.3983309,-0.1982468,-0.18403596,813.1135,800.2198,806.26373,813.5165,666.4469,-0.35418701171875,7.32421875E-4,0.93682861328125,4.329071044921875,-4.329071044921875,0.934600830078125,1,1.0,1.0,1.0,1.0,85.00
2021-04-09 09:13:34.082,-0.23622987,0.11995114,0.10244281,-0.10769341,0.044726573,-0.1835263,-0.0070098257,0.17468718,0.6128831,0.068618596,0.28932533,0.43447167,0.05901078,0.028901715,0.008774389,0.26831725,-0.36012307,-0.3003194,-0.24918248,-0.05685153,797.3993,793.7729,807.47253,801.02563,664.83514,-0.359619140625,-1.220703125E-4,0.93450927734375,4.71038818359375,-3.54400634765625,0.246734619140625,1,1.0,1.0,1.0,1.0,85.00
2021-04-09 09:13:34.592,-0.28788105,0.037872493,0.0073480327,-0.19786875,0.11222386,-0.082756646,0.043968722,0.08767749,0.6128831,0.15500253,0.2664432,0.3420395,0.085246526,-0.10118627,-0.016404878,0.27307248,-0.33051234,-0.30241948,-0.25770438,0.00545015,823.5897,820.3663,809.89014,811.50183,732.52747,-0.36083984375,-0.0048828125,0.94256591796875,3.96270751953125,-4.50103759765625,-0.3887939453125,1,1.0,1.0,1.0,1.0,85.00
2021-04-09 09:13:35.100,5.525579E-4,0.007940105,-0.0013531992,-0.14348584,0.29894966,0.09886502,-0.058049683,0.11085454,0.6185229,0.1380083,0.16852318,0.5034914,0.14299414,0.016093936,0.0037204148,0.29561448,-0.25090566,-0.35446155,-0.43577364,0.059897155,809.89014,807.47253,805.4579,807.47253,770.80585,-0.37445068359375,0.005126953125,0.92901611328125,5.33843994140625,-4.127197265625,2.205657958984375,1,1.0,1.0,1.0,1.0,85.00
2021-04-09 09:13:35.615,0.08519554,0.17381246,0.20169006,-0.2111858,0.37800762,0.16238737,-0.04968581,0.13988015,0.42648935,0.21403593,0.2129372,0.6259627,0.2174317,0.17595023,0.048631854,0.2629821,-0.25151363,-0.24832827,-0.41376182,-0.016666614,816.337,819.15753,794.9817,807.47253,747.03296,-0.37359619140625,0.00213623046875,0.927734375,3.970184326171875,-4.4561767578125,-0.70281982421875,1,1.0,1.0,1.0,1.0,85.00
2021-04-09 09:13:36.110,,,,,,,,,,,,,,,,,,,,,,,,,,,,,,,,,,,,,,/muse/elements/blink
2021-04-09 09:13:36.139,0.1885739,0.7123488,0.651955,-0.11861826,0.4350941,0.3256291,0.31218585,0.20106027,0.45171478,0.38506332,0.59802145,0.62324756,0.2451219,0.31266207,0.123186514,0.27059653,-0.22786336,-0.11502349,-0.40062487,-0.030767726,796.5934,799.41394,792.96704,795.38464,780.07324,-0.35675048828125,-0.00286865234375,0.93695068359375,4.194488525390625,-5.03936767578125,-0.112152099609375,1,1.0,1.0,1.0,1.0,85.00
2021-04-09 09:13:36.669,0.13680646,0.83879894,0.7291694,0.7807163,0.47730356,0.3081287,0.37758985,0.95277977,0.4428076,0.346894,0.59500664,1.1183271,0.24610807,0.29162,0.15388788,0.45822436,-0.26830545,-0.03634895,-0.24661545,-0.06143195,801.8315,800.2198,802.23444,804.65204,684.9817,-0.36456298828125,-0.00341796875,0.93426513671875,4.14215087890625,-4.478607177734375,0.441131591796875,1,1.0,1.0,1.0,1.0,85.00
2021-04-09 09:13:37.192,0.09530082,0.7875557,0.6736442,1.0116462,0.441938,0.22962378,0.36970165,1.1635387,0.354629,0.34540015,0.58936954,1.1183271,0.21249805,0.19446628,0.164313,0.57556725,-0.337859,-0.14023487,-0.16845797,-0.06561728,805.05493,794.57874,801.02563,801.8315,949.707,-0.3599853515625,-0.0030517578125,0.92987060546875,5.78704833984375,-4.523468017578125,0.85235595703125,1,1.0,1.0,1.0,1.0,85.00
2021-04-09 09:13:37.695,0.023545666,0.3756862,0.28317365,0.8030876,-0.20399237,-0.13282867,-0.05356465,0.96592563,0.43819848,0.234132,0.49203682,1.1183271,0.05671346,0.046357628,0.08223052,0.45337775,-0.4779008,-0.23658022,-0.16755836,0.034669776,806.26373,806.6667,807.0696,808.2784,767.5824,-0.36932373046875,-0.001708984375,0.93035888671875,4.844970703125,-4.239349365234375,0.55328369140625,1,1.0,1.0,1.0,1.0,85.00
2021-04-09 09:13:38.216,0.39611164,-0.52595574,-0.16442962,0.20970656,0.21946098,-0.47820055,-0.45995727,0.027521178,0.89636743,0.13668463,0.15134934,0.2583212,0.18931614,-0.07412258,0.13889141,0.2763334,-0.53910047,-0.32497418,-0.2563313,0.07779545,853.8095,805.05493,800.6227,863.0769,762.74725,-0.36517333984375,-6.7138671875E-4,0.93243408203125,4.83001708984375,-4.403839111328125,0.515899658203125,1,1.0,1.0,1.0,1.0,85.00
2021-04-09 09:13:38.250,,,,,,,,,,,,,,,,,,,,,,,,,,,,,,,,,,,,,,/muse/elements/blink
2021-04-09 09:13:38.737,0.43571374,-0.25447622,0.22175653,0.240757,0.25266916,0.006256022,-0.13392094,0.00161071,0.89636743,0.54381984,0.24422187,0.21990103,0.19787921,-0.027506586,0.13782741,0.27712616,-0.57085043,-0.28237808,-0.2995133,0.08627092,813.5165,811.50183,788.5348,812.71063,784.10254,-0.37249755859375,3.662109375E-4,0.9351806640625,4.508514404296875,-4.134674072265625,0.800018310546875,1,1.0,1.0,1.0,1.0,85.00
2021-04-09 09:13:39.242,0.650902,0.23070522,0.43979168,0.5024515,0.46908382,0.24745004,0.01251077,0.08242141,0.89455295,0.56060433,0.2708407,0.21186912,0.3374799,0.061157342,0.1557542,0.35106078,-0.6851391,-0.24541073,-0.26872241,0.072772056,800.2198,795.38464,806.26373,802.6374,682.5641,-0.36846923828125,-0.004150390625,0.9312744140625,4.605712890625,-4.38140869140625,0.61309814453125,1,1.0,1.0,1.0,1.0,85.00
2021-04-09 09:13:39.747,0.650902,0.333796,0.45797163,1.0216383,0.46908382,0.21495104,0.15729666,0.97630817,0.89455295,0.56060433,0.24368364,1.1989198,0.3374799,0.104270525,0.12736112,0.9419819,-0.6851391,-0.26225212,-0.21176875,7.312296E-4,805.4579,803.0403,796.99634,800.6227,889.67035,-0.3717041015625,-0.00146484375,0.9306640625,4.50103759765625,-4.6954345703125,0.91217041015625,1,1.0,1.0,1.0,1.0,85.00
2021-04-09 09:13:40.269,0.6673096,0.32832697,0.27967608,0.82214224,0.546219,-0.001908425,0.009634972,0.7983565,0.9241972,0.25606364,0.21624678,1.1989198,0.40743455,0.052468106,0.10150172,0.76466644,-0.06211723,-0.27615198,-0.17134461,0.034856692,804.2491,799.81683,802.23444,808.2784,724.0659,-0.37115478515625,-9.765625E-4,0.93023681640625,4.35150146484375,-4.882354736328125,0.575714111328125,1,1.0,1.0,1.0,1.0,85.00
2021-04-09 09:13:40.779,0.49150425,0.23098756,-0.043463837,0.6409602,0.36937773,-0.36836794,-0.04806093,0.64798266,0.92637753,0.14835796,0.19691703,1.1989198,0.2792041,0.018024867,0.068528004,0.6453081,-0.109711885,-0.19253007,-0.115855955,-0.021229403,805.05493,807.47253,808.2784,804.65204,679.34064,-0.37396240234375,0.00408935546875,0.9339599609375,4.329071044921875,-3.611297607421875,1.428070068359375,1,1.0,1.0,1.0,1.0,85.00
2021-04-09 09:13:41.292,0.09483263,0.09685123,-0.20225832,0.1593523,0.07061305,-0.27209592,-0.2577048,0.13410154,0.6422352,0.093833975,-0.13398017,0.64099693,0.15865313,0.0010698442,0.0022461447,0.28564015,-0.19153972,-0.104490645,-0.122120835,-0.106598586,789.34064,809.0842,798.20514,793.36993,794.9817,-0.36846923828125,3.0517578125E-4,0.93292236328125,5.1141357421875,-4.104766845703125,0.7476806640625,1,1.0,1.0,1.0,1.0,85.00
2021-04-09 09:13:41.805,0.00725582,0.1520624,0.14377955,0.26307762,-0.16859633,-0.04553732,-0.1030234,0.21405499,0.6533695,0.16358516,0.08559233,0.68722653,0.19275153,0.0705258,0.041368444,0.27869135,-0.1808936,-0.11666347,-0.11008006,-0.11628346,833.2601,807.8755,799.81683,817.5458,707.1429,-0.3978271484375,0.04632568359375,0.90692138671875,8.61328125,1.024322509765625,-0.28411865234375,1,1.0,1.0,1.0,1.0,85.00
2021-04-09 09:13:42.326,0.3062063,0.14968164,0.2671581,0.64963675,0.041244805,0.02012837,-0.034713324,0.39536762,0.74940723,0.31240267,0.2293894,0.7513654,0.24438953,0.1841234,0.12279863,0.23603868,-0.1289349,-0.15607998,-0.11352123,-0.08430152,699.89014,796.99634,804.2491,689.41394,720.84247,-0.4097900390625,-0.0140380859375,0.89959716796875,-0.70281982421875,-12.09747314453125,-5.96649169921875,1,1.0,1.0,1.0,1.0,85.00
2021-04-09 09:13:42.426,,,,,,,,,,,,,,,,,,,,,,,,,,,,,,,,,,,,,,/muse/elements/blink
2021-04-09 09:13:42.835,0.4320593,0.29754624,0.42948517,0.7449471,0.10495006,0.178974,0.008442743,0.5169812,0.7098743,0.38931814,0.2293894,0.7513654,0.20909563,0.18420297,0.15589926,0.2161428,-0.055265136,-0.17042829,-0.120825484,-0.009271548,801.8315,805.8608,805.05493,799.41394,736.1539,-0.28680419921875,-0.07183837890625,0.95574951171875,2.579498291015625,-9.637603759765625,-2.504730224609375,1,1.0,1.0,1.0,1.0,80.00
2021-04-09 09:13:43.336,0.60600376,0.590924,0.38561144,0.9040229,0.35471147,0.1446508,-0.11582086,0.5583652,0.7017831,0.38063574,0.108623154,0.66740793,0.18500128,0.12772521,0.18575573,0.11159084,-0.05555214,-0.15451849,-0.23156655,-0.08666675,816.7399,801.4286,791.3553,805.8608,771.6117,-0.27496337890625,-0.05120849609375,0.96270751953125,3.985137939453125,-4.94964599609375,2.145843505859375,1,1.0,1.0,1.0,1.0,80.00
2021-04-09 09:13:43.838,0.60600376,0.98266697,0.30322832,0.9040229,0.35471147,0.2188337,-0.21722336,0.5583652,0.7017831,0.34694818,-0.14435802,0.66740793,0.18500128,-0.017234473,0.13636853,0.11159084,-0.05555214,-0.17168829,-0.22872733,-0.08666675,807.0696,810.696,802.23444,802.23444,755.4945,-0.286376953125,-0.0487060546875,0.963134765625,4.83001708984375,-3.66363525390625,1.03179931640625,1,1.0,1.0,1.0,1.0,80.00
2021-04-09 09:13:44.232,,,,,,,,,,,,,,,,,,,,,,,,,,,,,,,,,,,,,,/muse/elements/blink
2021-04-09 09:13:44.366,0.60600376,0.9594258,0.039830383,-0.030147372,0.35471147,0.12579003,-0.18619008,-0.34433144,0.7017831,0.19943365,0.10094273,0.44308344,0.18500128,-0.105761744,0.042341653,0.30124217,-0.05555214,-0.22127858,-0.27042875,-0.50443256,836.4835,805.8608,805.4579,830.0366,808.68134,-0.27020263671875,-0.07244873046875,0.96881103515625,10.893707275390625,-10.99090576171875,7.05810546875,1,1.0,1.0,1.0,1.0,80.00
2021-04-09 09:13:44.711,,,,,,,,,,,,,,,,,,,,,,,,,,,,,,,,,,,,,,/muse/elements/blink
2021-04-09 09:13:44.883,0.60600376,0.9858427,0.12648644,-0.030147372,0.35471147,0.27542228,0.3230395,-0.34433144,0.7017831,0.26427385,0.15781483,0.44308344,0.18500128,-0.046918925,-0.09482774,0.30124217,-0.05555214,-0.31027874,-0.31859034,-0.50443256,892.49084,811.0989,803.44324,897.72894,661.6117,-0.343017578125,0.0634765625,0.93389892578125,3.66363525390625,6.759033203125,-0.82244873046875,1,1.0,1.0,1.0,1.0,80.00
2021-04-09 09:13:45.420,0.60600376,0.78304696,0.3188829,-0.030147372,0.35471147,0.44016066,0.4048172,-0.34433144,0.7017831,0.4657523,0.1416829,0.44308344,0.18500128,0.060947847,-0.068025015,0.30124217,-0.05555214,-0.34817418,-0.3527558,-0.50443256,792.1612,809.89014,799.81683,803.44324,777.6557,-0.345703125,0.01641845703125,0.945556640625,5.54779052734375,-10.15350341796875,0.067291259765625,1,1.0,1.0,1.0,1.0,80.00
2021-04-09 09:13:45.943,0.60600376,0.7628121,0.34763345,-0.030147372,0.35471147,0.47313285,0.37689215,-0.34433144,0.7017831,0.4657523,0.23127627,0.44308344,0.18500128,0.06420961,0.053885717,0.30124217,-0.05555214,-0.37211508,-0.3228011,-0.50443256,815.12823,805.4579,808.68134,818.7546,871.53845,-0.33172607421875,0.0269775390625,0.94512939453125,3.656158447265625,-3.327178955078125,0.9271240234375,1,1.0,1.0,1.0,1.0,80.00
2021-04-09 09:13:46.444,0.6934479,0.4250076,0.16212021,0.4488415,0.7430796,0.36125574,-0.097284645,0.7663144,0.5872425,0.4535506,0.13430573,0.7586818,0.3605594,0.03972785,0.12859966,0.43778327,-0.28324732,-0.3773992,-0.29009303,-0.06829303,801.8315,810.696,811.50183,805.4579,751.8681,-0.35650634765625,0.023681640625,0.9381103515625,2.8411865234375,-2.70660400390625,4.897308349609375,1,1.0,1.0,1.0,1.0,80.00
2021-04-09 09:13:46.959,0.8278482,0.38189137,0.21996471,0.47130066,0.901824,0.3326129,-0.15398689,0.82785326,0.7909697,0.33519083,0.1587639,0.7694612,0.4554696,0.016249226,0.08859999,0.4266179,-0.28236482,-0.49365968,-0.3395777,-0.14314607,809.4872,808.68134,800.2198,802.23444,809.89014,-0.35552978515625,0.027099609375,0.9371337890625,4.972076416015625,-4.7552490234375,1.637420654296875,1,1.0,1.0,1.0,1.0,80.00
2021-04-09 09:13:47.465,0.69161576,0.42229,0.17764202,0.34220776,0.7528728,0.25338826,-0.23573965,0.6901782,0.7909697,0.3306542,0.12390072,0.7694612,0.39009777,0.030645993,0.074389845,0.40140575,-0.3124919,-0.51680624,-0.3307714,-0.18082462,806.26373,819.5604,787.326,800.6227,667.25275,-0.3546142578125,0.02716064453125,0.936767578125,4.7552490234375,-4.8150634765625,-0.246734619140625,1,1.0,1.0,1.0,1.0,80.00
2021-04-09 09:13:47.970,0.70440865,0.60070354,0.18291928,0.21269815,0.6448764,0.21521907,-0.009179019,0.5583448,0.8026867,0.38715515,0.46968168,0.61911404,0.36546734,0.016063197,0.14104752,0.3738196,-0.21848285,-0.48715472,-0.24114154,-0.10941771,794.9817,803.8461,803.44324,797.3993,803.8461,-0.360595703125,0.0240478515625,0.9366455078125,4.8748779296875,-3.94775390625,0.052337646484375,1,1.0,1.0,1.0,1.0,80.00
2021-04-09 09:13:48.491,0.438454,0.56666636,0.057397194,-0.02368636,-0.070650086,-0.082493536,0.06130839,-0.017652545,0.4867961,0.12022467,0.46694487,0.39358187,0.22057267,-0.062362026,0.24606454,0.31171277,-0.1934676,-0.3951236,-0.22355321,-0.12326784,814.3223,810.293,804.2491,809.89014,759.5238,-0.36932373046875,0.0167236328125,0.932373046875,4.4561767578125,-4.42626953125,0.007476806640625,1,1.0,1.0,1.0,1.0,80.00
2021-04-09 09:13:49.019,0.5681357,0.5417233,0.071458936,0.3777182,0.33194274,-0.06638387,0.113855205,0.2517856,0.40137878,0.14127965,0.46767956,0.4267019,0.13519454,-0.1049826,0.25813016,0.26587895,-0.23179722,-0.2773062,-0.3242091,-0.10318548,812.3077,810.293,813.1135,810.696,716.0073,-0.367919921875,0.015380859375,0.93170166015625,3.955230712890625,-4.71038818359375,-0.052337646484375,1,1.0,1.0,1.0,1.0,80.00
2021-04-09 09:13:49.528,0.38076967,0.13853745,-0.10256705,0.43222588,0.45305544,-0.18602683,-0.19582959,0.45760712,0.23490958,0.025174994,0.32567486,0.47379392,0.056248885,-0.09570105,0.1832403,0.2203941,-0.33548132,-0.21351771,-0.51017666,-0.2622005,806.26373,799.81683,802.23444,793.7729,740.989,-0.3704833984375,0.02069091796875,0.94122314453125,4.583282470703125,-5.211334228515625,1.4056396484375,1,1.0,1.0,1.0,1.0,80.00
2021-04-09 09:13:50.033,0.30078095,-0.31104487,-0.111659415,0.38450173,0.3872334,-0.341775,-0.25795004,0.4580984,0.36148673,-0.035019662,0.066513166,0.37211725,0.11767505,-0.05127863,0.11798939,0.22532271,-0.38883656,-0.17737783,-0.5369238,-0.3163333,803.0403,807.47253,800.6227,802.6374,688.20514,-0.3671875,0.01751708984375,0.9351806640625,4.366455078125,-4.29168701171875,0.59814453125,1,1.0,1.0,1.0,1.0,80.00
2021-04-09 09:13:50.510,,,,,,,,,,,,,,,,,,,,,,,,,,,,,,,,,,,,,,/muse/elements/blink
2021-04-09 09:13:50.538,0.24487165,-0.50430125,-0.080222376,0.07627583,0.2870769,-0.2848194,-0.35245016,0.3676991,0.41841093,-0.037299722,0.029562276,0.31611297,0.14662333,0.027368765,0.11091111,0.25487155,-0.3474087,-0.21532844,-0.47414494,-0.34458184,906.99634,809.89014,794.17584,894.10254,694.2491,-0.36859130859375,0.0218505859375,0.93243408203125,4.972076416015625,-4.553375244140625,1.12152099609375,1,1.0,1.0,1.0,1.0,80.00
2021-04-09 09:13:51.059,0.24159427,-0.032009624,0.39508936,-0.08066964,0.15796247,0.025262982,0.04044167,0.10836066,0.41652462,0.023414355,0.03443427,0.18651032,0.19510184,-0.020531487,0.04657502,0.31180614,-0.4232822,-0.31346095,-0.27987874,-0.30196258,813.5165,799.41394,801.4286,804.2491,877.1795,-0.36834716796875,0.02459716796875,0.9398193359375,5.405731201171875,-5.869293212890625,1.016845703125,1,1.0,1.0,1.0,1.0,80.00
2021-04-09 09:13:51.585,0.30168644,0.022906723,0.37118027,-0.28832296,0.13567714,0.09781361,0.031580176,-0.04669339,0.25698575,0.06885198,0.05223626,-0.026831375,0.15294176,-0.05832241,0.052919954,0.30863866,-0.38685486,-0.33322152,-0.19724093,-0.28051594,808.68134,807.47253,805.4579,808.2784,751.8681,-0.361572265625,0.0157470703125,0.936279296875,4.53094482421875,-3.835601806640625,1.353302001953125,1,1.0,1.0,1.0,1.0,80.00
2021-04-09 09:13:52.112,0.30168644,0.04209808,0.3447976,-0.28832296,0.13567714,0.053083617,0.017605418,-0.04669339,0.25698575,0.11416777,0.13501048,-0.026831375,0.15294176,-0.04933462,0.022038478,0.30863866,-0.38685486,-0.3153411,-0.12904516,-0.28051594,812.71063,803.44324,806.6667,817.5458,699.0842,-0.36407470703125,0.01959228515625,0.93115234375,4.598236083984375,-4.822540283203125,0.13458251953125,1,1.0,1.0,1.0,1.0,80.00
2021-04-09 09:13:52.615,0.47388345,-0.2244168,-0.16383104,0.5087978,0.27648902,-0.21837784,-0.36103272,0.10292984,0.35069835,0.11003623,0.11072604,0.55647373,0.28093025,-0.0018553538,0.09562304,0.39974558,-0.18876699,-0.29692945,-0.2209725,-0.039392024,582.6374,790.9524,830.0366,592.3077,773.22345,-0.36444091796875,0.01904296875,0.93218994140625,4.42626953125,-4.59075927734375,0.874786376953125,1,1.0,1.0,1.0,1.0,80.00
2021-04-09 09:13:52.848,,,,,,,,,,,,,,,,,,,,,,,,,,,,,,,,,,,,,,/muse/elements/blink
2021-04-09 09:13:53.125,0.47388345,-0.04690358,0.23127049,0.5087978,0.27648902,-0.056283325,-0.021868069,0.10292984,0.35069835,0.13252534,0.3894583,0.55647373,0.28093025,0.11001477,0.06859407,0.39974558,-0.18876699,-0.32678193,-0.2753124,-0.039392024,816.7399,810.696,805.4579,810.696,769.19415,-0.36431884765625,0.02239990234375,0.9342041015625,5.301055908203125,-7.469329833984375,0.4486083984375,1,1.0,1.0,1.0,1.0,80.00
2021-04-09 09:13:53.660,0.5380474,0.1404244,0.58245695,0.49842638,0.38869455,0.01863063,0.24481216,0.065253645,0.31998765,0.053949453,0.4406324,0.5527639,0.3618169,0.16126469,0.06230132,0.49146006,-0.12998123,-0.24848576,-0.35823703,-0.04218094,807.8755,798.60803,793.7729,806.6667,847.76556,-0.3272705078125,0.0322265625,0.95257568359375,4.702911376953125,-4.65057373046875,1.084136962890625,1,1.0,1.0,1.0,1.0,80.00
2021-04-09 09:13:54.160,0.52574676,0.13712385,0.5755559,0.44940686,0.41472992,0.067970194,0.24261768,0.05531608,0.3136356,0.06288273,0.43919542,0.5527639,0.41391912,0.16657919,0.037087917,0.5419595,-0.098795325,-0.18248855,-0.3238735,-0.03645793,809.0842,807.0696,799.81683,806.6667,807.0696,-0.35662841796875,0.021240234375,0.94232177734375,5.106658935546875,-0.3887939453125,0.186920166015625,1,1.0,1.0,1.0,1.0,80.00
2021-04-09 09:13:54.678,0.02238808,-0.029712144,0.4125198,0.12497554,-0.14038229,-0.13595334,0.044843648,-0.05388953,0.11381163,-0.014046523,0.40825674,0.1476767,0.17937937,0.07277576,0.096807495,0.4214243,-0.5217502,-0.18408991,-0.3109682,-0.23134065,826.8132,795.38464,802.23444,816.7399,622.52747,-0.46783447265625,-0.05682373046875,0.891357421875,-27.088470458984375,16.576080322265625,-20.613555908203125,1,1.0,1.0,1.0,1.0,80.00
2021-04-09 09:13:55.180,0.05937352,-0.29739946,-0.20325719,0.24309663,0.09907113,-0.21246362,-0.42432082,0.13770398,0.44806954,-0.019270094,0.056840803,0.29031932,0.33367342,0.07710151,0.15339719,0.47886962,-0.25487053,-0.28047732,-0.3268152,-0.21158276,797.8022,806.26373,816.337,807.47253,645.89746,-0.526123046875,-0.35089111328125,0.787353515625,14.004058837890625,-13.899383544921875,5.166473388671875,1,1.0,1.0,1.0,1.0,80.00
2021-04-09 09:13:55.696,0.621817,0.65385884,0.9639034,0.61084056,0.27780154,0.07188412,0.2724259,0.45487958,0.691237,0.4767104,0.3962313,0.7281223,0.3794904,0.20961763,0.18357365,0.55266094,-0.16905884,-0.36619872,-0.32934144,0.04451972,802.23444,804.2491,801.02563,800.6227,734.94507,-0.4725341796875,-0.1842041015625,0.854736328125,17.383575439453125,-7.2076416015625,1.472930908203125,1,1.0,1.0,1.0,1.0,80.00
2021-04-09 09:13:56.200,0.7504341,0.77186495,1.0397123,0.7216098,0.50735515,0.121769324,0.31234404,0.64421904,0.78612345,0.47570887,0.40810493,0.7894056,0.3776805,0.2358156,0.14920838,0.50910646,-0.1429796,-0.40503997,-0.31742465,0.08797436,809.4872,799.41394,814.3223,807.0696,857.8388,-0.458984375,-0.05926513671875,0.89471435546875,8.80767822265625,-2.52716064453125,8.276824951171875,1,1.0,1.0,1.0,1.0,80.00
2021-04-09 09:13:56.710,0.96409565,0.8089971,1.0790583,1.023558,0.6607015,0.26776272,0.45110402,0.8283917,0.7762088,0.50513005,0.6231076,0.81204844,0.3628562,0.23363665,0.0828388,0.4474787,-0.25940228,-0.34539288,-0.20136636,0.09211505,804.2491,807.8755,790.9524,801.02563,746.2271,-0.4844970703125,-0.067626953125,0.8819580078125,4.90478515625,-6.11602783203125,1.786956787109375,1,1.0,1.0,1.0,1.0,80.00
2021-04-09 09:13:57.230,0.9106064,0.8339186,0.9954057,1.1116165,0.772458,0.5855528,0.48536184,0.8710783,0.7628103,0.5210426,0.6771342,0.80742604,0.4005992,0.15527175,0.0510715,0.36442244,-0.31209862,-0.33669806,-0.22644944,-0.06884504,798.60803,800.6227,803.0403,808.68134,637.8388,-0.47119140625,-0.02557373046875,0.88067626953125,7.6861572265625,-3.5888671875,4.358978271484375,1,1.0,1.0,1.0,1.0,80.00
2021-04-09 09:13:57.761,0.90455645,0.8507776,1.0061982,1.2046593,0.72091687,0.6259771,0.4978042,0.8446938,0.7196053,0.5286305,0.6590299,0.68874836,0.3744145,0.16097447,0.026542397,0.35900176,-0.26819697,-0.22531296,-0.24810459,-0.14550494,810.293,803.8461,816.7399,821.978,743.8095,-0.4119873046875,-0.0286865234375,0.90899658203125,-2.265472412109375,-9.31610107421875,27.574462890625,1,1.0,1.0,1.0,1.0,80.00
2021-04-09 09:13:58.273,0.85264856,1.0089804,1.1322056,1.234965,0.856287,0.7242719,0.7884252,1.1324319,0.6722417,0.7082141,0.68536234,0.8955015,0.2664091,0.1960665,0.1176759,0.3330577,-0.16754432,-0.25845432,-0.37198803,-0.124471836,822.381,810.696,808.2784,807.47253,807.8755,-0.37493896484375,0.0166015625,0.92333984375,0.411224365234375,-8.673095703125,4.104766845703125,1,1.0,1.0,1.0,1.0,80.00
2021-04-09 09:13:58.777,1.0605149,0.8443919,1.113567,1.2710519,0.93599683,0.4735584,0.91369146,1.1978331,0.6141842,0.7066518,0.576934,0.9255482,0.06808278,0.19848219,0.11526977,0.35176277,-0.100647956,-0.24198969,-0.31761962,-0.12355936,877.98535,818.3516,786.1172,859.0476,779.2674,-0.3460693359375,0.00341796875,0.95037841796875,9.16656494140625,0.889739990234375,-20.86029052734375,1,1.0,1.0,1.0,1.0,80.00
2021-04-09 09:13:58.875,,,,,,,,,,,,,,,,,,,,,,,,,,,,,,,,,,,,,,/muse/elements/blink
2021-04-09 09:13:59.284,1.1904622,0.8902242,1.2187989,1.3852961,1.0907412,0.5431735,1.0822239,1.396429,0.55846184,0.70301807,0.5366759,0.919649,0.07216793,0.24076897,0.16702159,0.38043803,-0.04898327,-0.32187882,-0.29560748,-0.055369694,814.3223,806.26373,802.6374,811.9048,828.022,-0.41607666015625,-0.02056884765625,0.914794921875,5.600128173828125,-4.3365478515625,0.201873779296875,1,1.0,1.0,1.0,1.0,80.00
2021-04-09 09:13:59.793,1.362371,0.57932806,1.2621232,1.4125317,1.1764646,0.1928608,1.0932921,1.4648829,0.54314053,0.51670814,0.5269643,0.8913833,-0.102121785,0.14254464,0.09210347,0.45974728,-0.048333503,-0.33763883,-0.18982507,8.073109E-4,803.8461,809.0842,796.5934,800.2198,926.7399,-0.4051513671875,-0.015625,0.9056396484375,7.125396728515625,-4.732818603515625,-3.2000732421875,1,1.0,1.0,1.0,1.0,80.00
2021-04-09 09:14:00.300,0.13078499,0.10176262,-0.6689119,0.15494357,0.13293445,-0.39082974,-0.1418452,0.10890612,0.60023427,-0.09091448,0.26100746,0.053143516,0.35316512,0.085701,-0.07163792,0.2878062,-0.654381,-0.16490547,-0.6907169,-0.110272184,823.1868,810.293,804.2491,802.6374,750.2564,-0.4090576171875,6.103515625E-5,0.9093017578125,5.570220947265625,-5.540313720703125,0.919647216796875,1,1.0,1.0,1.0,1.0,80.00
2021-04-09 09:14:00.819,-0.08993039,-0.14774922,-0.55974954,0.25540808,0.32797915,-0.40497375,-0.28744528,0.14685912,0.7689964,-0.076357394,0.29213226,0.27321365,0.2822406,0.11856379,-0.033352204,0.26655835,-0.6113587,-0.2365597,-0.46175358,-0.17055902,824.3956,813.5165,796.99634,815.9341,743.8095,-0.40325927734375,-0.00262451171875,0.91455078125,5.30853271484375,-4.85992431640625,0.381317138671875,1,1.0,1.0,1.0,1.0,80.00
2021-04-09 09:14:01.336,0.2330723,-0.09253411,-0.2521022,0.3066906,0.30083904,-0.21371482,-0.25551236,0.19778742,0.7694801,-0.076357394,0.29213226,0.30814895,0.2082352,0.04376004,-0.05753238,0.24353132,-0.58783674,-0.2928268,-0.4211624,-0.22070839,801.4286,811.0989,801.4286,802.23444,653.5531,-0.39984130859375,0.00531005859375,0.91583251953125,6.482391357421875,-4.523468017578125,3.050537109375,1,1.0,1.0,1.0,1.0,80.00
2021-04-09 09:14:01.855,0.9094596,0.6303217,0.26561806,0.3847627,0.73465025,-0.003358746,-0.29495552,0.3134186,0.9451036,-0.07917083,0.16469371,0.33945486,0.06846383,-0.013747585,-0.044667967,0.23420037,-0.48416716,-0.4347046,-0.36791402,-0.27013493,801.4286,819.5604,788.1319,794.57874,677.326,-0.3251953125,-0.00946044921875,0.93597412109375,-12.8900146484375,-25.0323486328125,21.929473876953125,1,1.0,1.0,1.0,1.0,80.00
2021-04-09 09:14:02.356,1.0786812,0.8009803,0.44482443,0.4310394,0.8306019,0.11333208,-0.20070209,0.4024165,0.8705381,-0.09958056,-0.14302823,0.30318615,-0.029477768,-0.12584762,-0.076479174,0.22166675,-0.4432515,-0.5040228,-0.40643388,-0.31104088,643.8828,816.337,769.59705,610.4396,748.24176,-0.2821044921875,-0.00140380859375,0.968017578125,19.581756591796875,12.5311279296875,-57.145233154296875,1,1.0,1.0,1.0,1.0,80.00
2021-04-09 09:14:02.587,,,,,,,,,,,,,,,,,,,,,,,,,,,,,,,,,,,,,,/muse/elements/blink
2021-04-09 09:14:02.873,1.3148544,1.0407282,0.66447765,0.380728,1.0708997,0.33238435,-0.19176108,0.52517277,0.8476599,0.2168794,-0.18700956,0.2859811,-0.100359045,-0.024520703,-0.02258164,0.24586849,-0.35862252,-0.41532773,-0.51224685,-0.28716657,808.2784,796.5934,800.2198,809.0842,804.65204,-0.198486328125,-0.047119140625,0.95086669921875,16.4190673828125,-7.768402099609375,5.45806884765625,1,1.0,1.0,1.0,1.0,80.00
2021-04-09 09:14:03.375,1.3818368,1.2337999,0.66447765,0.380728,1.13267,0.47916028,-0.19176108,0.52517277,0.83979356,0.2168794,-0.18700956,0.2859811,-0.112090714,0.029609134,-0.02258164,0.24586849,-0.33801824,-0.3120624,-0.51224685,-0.28716657,813.1135,811.0989,810.293,807.0696,809.0842,-0.28167724609375,-0.0067138671875,0.9619140625,6.407623291015625,-1.854248046875,-3.3197021484375,1,1.0,1.0,1.0,1.0,80.00
2021-04-09 09:14:03.892,1.3818368,0.82257074,0.514538,0.380728,1.13267,0.39319846,0.28293633,0.52517277,0.83979356,0.4076942,0.115909725,0.2859811,-0.112090714,0.12764616,0.119087584,0.24586849,-0.33801824,-0.24825048,-0.16648439,-0.28716657,823.5897,807.47253,809.4872,827.2161,789.7436,-0.275146484375,0.072509765625,0.97735595703125,4.284210205078125,1.27105712890625,6.661834716796875,1,1.0,1.0,1.0,1.0,80.00
2021-04-09 09:14:04.096,,,,,,,,,,,,,,,,,,,,,,,,,,,,,,,,,,,,,,/muse/elements/blink
2021-04-09 09:14:04.419,1.3415496,0.3947149,0.46785048,0.380728,1.0355881,0.45607612,0.23571274,0.52517277,1.2628778,0.35096043,0.15694635,0.2859811,0.6119342,0.21648057,0.07477926,0.24586849,-0.11454483,-0.35852152,-0.13358916,-0.28716657,801.4286,809.89014,802.23444,796.5934,748.6447,-0.41131591796875,0.01654052734375,0.9320068359375,4.000091552734375,-6.123504638671875,6.542205810546875,1,1.0,1.0,1.0,1.0,80.00
2021-04-09 09:14:04.921,1.273102,0.2665139,0.39509845,1.0090115,1.090875,0.38751623,0.12135838,0.884571,1.2862997,0.36478192,0.16168824,1.372837,0.60797834,0.1735236,0.04357495,0.55458933,-0.11409817,-0.17614388,-0.10951466,-0.07852646,803.44324,797.8022,803.8461,803.8461,861.4652,-0.15191650390625,0.02545166015625,1.03753662109375,2.28790283203125,-15.850830078125,1.54022216796875,1,1.0,1.0,1.0,1.0,80.00
2021-04-09 09:14:05.432,1.2262348,-0.0748066,0.6185282,0.91823715,1.0140601,0.3416748,-0.018239338,0.78511286,1.2862997,0.42894465,0.038391475,1.372837,0.5896106,0.19169177,0.106169425,0.4743306,-0.08539476,-0.04297694,-0.119927004,-0.12412879,691.02563,924.7253,808.68134,689.011,851.39197,-0.3782958984375,0.1087646484375,0.9307861328125,14.54986572265625,-2.549591064453125,6.9085693359375,1,1.0,1.0,1.0,1.0,80.00
2021-04-09 09:14:05.653,,,,,,,,,,,,,,,,,,,,,,,,,,,,,,,,,,,,,,/muse/elements/blink
2021-04-09 09:14:05.946,0.9721291,-0.11480201,0.820486,0.91823715,0.8881719,0.11369871,-0.096836954,0.78511286,1.2653146,0.36614323,0.28295207,1.372837,0.5088489,0.13330479,0.13113575,0.4743306,-0.12865338,0.059749708,-0.12181578,-0.12412879,809.89014,820.7692,805.4579,813.1135,616.8865,-0.3187255859375,0.16217041015625,0.9698486328125,10.12359619140625,-7.529144287109375,-9.28619384765625,1,1.0,1.0,1.0,1.0,80.00
2021-04-09 09:14:06.475,0.70937747,-0.24127668,0.83627355,0.4812135,0.019585673,-0.36290863,0.03157239,0.15735267,0.2665474,0.22150353,0.2983728,0.28462994,0.40981728,0.14334726,0.11057954,0.40686008,-0.11077347,0.15776683,-0.19883603,-0.12331388,801.4286,802.6374,807.47253,803.0403,755.89746,-0.34027099609375,0.2176513671875,0.9312744140625,7.73101806640625,-5.7122802734375,-3.207550048828125,1,1.0,1.0,1.0,1.0,80.00
2021-04-09 09:14:06.979,0.70937747,-0.24127668,0.6312828,0.4812135,0.019585673,-0.36290863,-0.022095822,0.15735267,0.2665474,0.22150353,0.2973861,0.28462994,0.40981728,0.14334726,0.055514026,0.40686008,-0.11077347,0.15776683,-0.29645482,-0.12331388,806.6667,804.2491,798.60803,806.26373,678.1319,-0.329345703125,0.13604736328125,0.94024658203125,1.60003662109375,-5.7122802734375,-4.08233642578125,1,1.0,1.0,1.0,1.0,80.00
2021-04-09 09:14:07.486,0.19840406,-0.20513444,0.017003663,0.15824538,0.27632558,-0.19192484,-0.24369624,0.4661525,0.37048915,-0.028109968,0.15608673,0.5876009,0.08903282,0.023462819,0.035353545,0.124251895,-0.5099674,-0.2903952,-0.4057555,-0.27710828,814.3223,815.9341,815.12823,808.68134,830.0366,-0.3233642578125,0.11376953125,0.94500732421875,1.846771240234375,-13.20404052734375,1.79443359375,1,1.0,1.0,1.0,1.0,80.00
2021-04-09 09:14:07.997,0.13595653,1.04125356E-4,-0.14323181,0.19239546,0.2866194,-0.17912513,-0.4526267,0.43934777,0.5419264,-0.02109746,-0.22781046,0.62190515,0.2588798,0.083152324,0.010512149,0.17382269,-0.51668864,-0.3249586,-0.3952514,-0.24223699,803.44324,804.65204,805.05493,813.5165,693.0403,-0.33367919921875,0.1153564453125,0.9420166015625,1.532745361328125,-1.45050048828125,0.0299072265625,1,1.0,1.0,1.0,1.0,80.00
2021-04-09 09:14:08.514,0.17169611,-0.011901316,-0.11955402,0.45922416,0.34824052,-0.08082868,-0.2849904,0.2960828,0.54933536,0.1645898,-0.1532839,0.45605728,0.31897673,0.0986392,0.016417457,0.2639012,-0.4727543,-0.35880288,-0.350729,-0.3037443,807.8755,803.8461,807.47253,813.1135,666.8498,-0.3919677734375,0.07733154296875,0.90802001953125,9.07684326171875,2.6617431640625,-2.392578125,1,1.0,1.0,1.0,1.0,80.00
2021-04-09 09:14:09.021,0.17288102,0.085267134,-0.22211501,0.4790042,0.6338013,-0.106685676,-0.18628313,0.50338507,0.5554878,0.1645898,-0.08382184,0.56843174,0.34910667,0.08953243,-0.01411796,0.3253024,-0.37142128,-0.33987826,-0.313195,-0.30694187,782.8938,799.011,802.23444,790.54944,697.8755,-0.42144775390625,0.08905029296875,0.89898681640625,2.3028564453125,-3.072967529296875,8.127288818359375,1,1.0,1.0,1.0,1.0,80.00
2021-04-09 09:14:09.534,0.23123632,-0.07615711,-0.18972184,0.5574359,0.6781434,-0.085118786,-0.08314819,0.5800554,0.49095958,0.17290603,-0.108320154,0.5898631,0.30174187,0.10673957,0.016830485,0.27081832,-0.34097123,-0.3365355,-0.31990576,-0.345549,792.96704,784.90845,823.1868,802.6374,861.4652,-0.52130126953125,0.050537109375,0.8814697265625,5.899200439453125,-3.3795166015625,10.108642578125,1,1.0,1.0,1.0,1.0,80.00
2021-04-09 09:14:10.035,0.338818,0.45499453,0.2798789,0.5086798,0.7698653,0.12584212,0.17366143,0.7145014,0.74882615,0.12044072,0.23047616,0.7766448,0.3138377,0.15466078,0.031070167,0.1764599,-0.35932317,-0.38727838,-0.28541517,-0.29401675,806.6667,799.011,801.4286,840.10986,710.7692,-0.37176513671875,0.11383056640625,0.78448486328125,12.762908935546875,-27.43988037109375,16.262054443359375,1,1.0,1.0,1.0,1.0,80.00
2021-04-09 09:14:10.550,0.83656293,0.64164037,0.5059454,0.8229422,0.63380384,0.20561406,0.35523376,0.80661744,0.7683392,0.12170228,0.22804499,1.3572426,0.3297566,0.13771033,0.021432096,0.5406787,-0.40599316,-0.4252643,-0.2770469,-0.24234916,785.7143,801.4286,797.8022,789.7436,748.24176,-0.16436767578125,0.08575439453125,0.9979248046875,-4.44122314453125,-13.286285400390625,12.508697509765625,1,1.0,1.0,1.0,1.0,80.00
2021-04-09 09:14:11.056,1.0765407,0.71041495,0.5028119,1.1941018,0.67081165,0.27381518,0.33946285,0.98252004,0.7683392,0.12337694,0.20014545,1.3604797,0.3328194,0.09523726,0.061973292,0.953857,-0.3062825,-0.4391584,-0.27271837,-0.07627299,796.5934,803.8461,798.20514,809.4872,751.8681,-0.15570068359375,0.06005859375,1.030029296875,-7.5665283203125,-9.88433837890625,14.2059326171875,1,1.0,1.0,1.0,1.0,80.00
2021-04-09 09:14:11.568,1.1149926,0.5510362,0.34122893,1.2681631,0.56678486,0.1186113,0.17370279,1.0785019,0.6603662,0.04641406,0.06549393,1.3604797,0.26532477,0.09787925,0.040426623,1.077044,-0.21137401,-0.32600367,-0.30992913,0.122285336,826.8132,813.1135,801.4286,811.50183,765.56775,-0.132568359375,-0.0155029296875,1.01129150390625,9.996490478515625,17.4658203125,-1.60003662109375,1,1.0,1.0,1.0,1.0,80.00
2021-04-09 09:14:12.076,0.945235,0.6759752,0.19181506,0.9918074,0.5729693,0.1911602,-0.07935752,0.86538833,0.65688765,-0.04760607,0.0283353,1.3418969,0.26426393,0.17180955,0.100570425,0.8236342,-0.19311962,-0.32104093,-0.28534788,0.07180924,806.6667,810.293,801.02563,792.5641,760.32965,-0.28082275390625,0.1568603515625,0.90704345703125,16.277008056640625,-15.41717529296875,-8.673095703125,1,1.0,1.0,1.0,1.0,80.00
2021-04-09 09:14:12.580,0.77816683,0.6983151,0.3043496,0.49205235,0.49898842,0.11308941,-0.09229433,0.59817713,0.65676266,-0.12446664,0.011391436,0.22597924,0.23031738,0.21772401,0.102782615,0.36044428,-0.1990699,-0.24266328,-0.24146742,-0.0019029692,803.0403,794.9817,803.44324,792.5641,685.38464,-0.0989990234375,0.145751953125,1.02130126953125,6.23565673828125,-0.620574951171875,-12.15728759765625,1,1.0,1.0,1.0,1.0,80.00
2021-04-09 09:14:13.097,0.7567278,0.6595413,0.32861307,0.70605224,0.33723745,0.107751496,0.027209777,0.39028287,0.68026775,0.28522938,-0.028350916,0.34638205,0.24131563,0.24051818,0.06779615,0.2892435,-0.120185584,-0.21971454,-0.22763595,-0.07793119,811.0989,792.96704,799.81683,807.8755,728.49817,-0.25885009765625,0.0672607421875,0.95172119140625,1.1065673828125,7.783355712890625,1.278533935546875,1,1.0,1.0,1.0,1.0,80.00
2021-04-09 09:14:13.614,0.7425547,0.10762068,0.2570566,0.80266,0.30273107,0.27619594,0.0022081542,0.45363247,0.52402925,0.3410497,0.013697591,0.36318508,0.18910483,0.21839674,0.032696426,0.2524759,-0.041587472,-0.20522001,-0.19114456,0.022246463,825.2015,811.9048,808.2784,811.50183,851.39197,-0.39593505859375,0.0743408203125,0.90057373046875,4.9346923828125,4.68048095703125,3.835601806640625,1,1.0,1.0,1.0,1.0,85.00
2021-04-09 09:14:14.142,0.66167307,0.12497144,0.17345463,0.7370013,0.37104273,0.37071678,0.015962891,0.5066195,0.5090704,0.39118198,0.050856467,0.3931433,0.25996485,0.16171873,0.061885804,0.26084447,-0.019760663,-0.19721512,-0.25084355,-0.041708093,801.02563,804.2491,806.26373,802.23444,768.3883,-0.49139404296875,0.11590576171875,0.8836669921875,2.056121826171875,-8.934783935546875,0.7476806640625,1,1.0,1.0,1.0,1.0,85.00
2021-04-09 09:14:14.646,0.68945616,0.31897905,0.16166629,0.5536497,0.43574697,0.36842382,-0.06297793,0.44816905,0.56940055,0.32421267,0.27671543,0.3758888,0.29206905,0.05789872,0.13378535,0.2596057,-0.037420064,-0.18505047,-0.16999522,-0.1040371,823.1868,807.47253,799.41394,812.3077,896.1172,-0.29486083984375,0.0548095703125,0.96014404296875,0.171966552734375,-2.55706787109375,-9.114227294921875,1,1.0,1.0,1.0,1.0,85.00
2021-04-09 09:14:15.163,0.79072547,0.6467294,0.28692546,0.34679478,0.48417798,0.29652882,0.10918591,0.31261548,0.6977132,0.22620484,0.32521418,0.36783305,0.314193,-0.016360791,0.11757616,0.2923843,-0.08696196,-0.19955733,-0.17098305,-0.38563785,786.9231,805.05493,788.1319,801.8315,717.619,-0.26385498046875,0.0628662109375,0.9764404296875,8.501129150390625,-8.351593017578125,2.429962158203125,1,1.0,1.0,1.0,1.0,85.00
2021-04-09 09:14:15.331,,,,,,,,,,,,,,,,,,,,,,,,,,,,,,,,,,,,,,/muse/elements/blink
2021-04-09 09:14:15.678,0.858547,0.68060523,0.60660946,0.31463027,0.46950835,0.2979624,0.49500534,0.225269,0.6884161,0.47280917,0.44969264,0.32735538,0.2751263,-0.031292614,0.038338814,0.35896724,-0.12309024,-0.34689984,-0.12628776,-0.37352693,755.09155,797.8022,792.96704,790.54944,398.49817,-0.38641357421875,0.07293701171875,0.88983154296875,3.521575927734375,4.6954345703125,8.650665283203125,1,1.0,1.0,1.0,1.0,85.00
2021-04-09 09:14:16.201,0.91761935,0.52083606,0.6169866,0.10791988,0.5561271,0.25892457,0.4722123,0.2443319,0.6793124,0.4515209,0.40707842,0.2003193,0.22847429,-0.016962606,-0.0072519225,0.42398196,-0.22260767,-0.38145575,-0.13376139,-0.37695676,780.07324,801.8315,799.41394,794.17584,826.8132,-0.2879638671875,0.064697265625,0.97265625,2.7813720703125,-9.6600341796875,1.614990234375,1,1.0,1.0,1.0,1.0,85.00
2021-04-09 09:14:16.708,0.91761935,0.16219787,0.5740191,0.10791988,0.5561271,0.15289643,0.40659133,0.2443319,0.6793124,0.45110464,0.34207228,0.2003193,0.22847429,-0.026359454,0.005499637,0.42398196,-0.22260767,-0.4310549,-0.154134,-0.37695676,803.44324,804.65204,810.293,804.65204,641.06226,-0.34356689453125,0.03729248046875,0.9381103515625,3.252410888671875,1.727142333984375,2.4822998046875,1,1.0,1.0,1.0,1.0,85.00
2021-04-09 09:14:17.220,0.724413,0.027471082,0.39518636,0.7204415,0.2229498,-0.08751027,0.006027746,0.16865848,0.4793895,0.4116611,0.28252453,0.021045858,0.2306009,0.026275583,0.020142209,0.09226012,-0.018895604,-0.3777824,-0.18152563,-0.13983384,747.4359,801.02563,806.26373,777.6557,448.46155,-0.3887939453125,0.0440673828125,0.92218017578125,5.286102294921875,1.18133544921875,2.7813720703125,1,1.0,1.0,1.0,1.0,85.00
2021-04-09 09:14:17.727,0.76793987,-0.061674543,0.20224026,0.7233222,0.22991517,-0.3028546,-0.5313835,0.20462719,0.48357797,0.03787695,0.0661333,0.23787256,0.22826871,0.08836913,0.037839122,0.15718961,-0.07101197,-0.26012164,-0.18326327,-0.12024071,776.4469,807.8755,808.2784,795.78754,748.6447,-0.4151611328125,0.07586669921875,0.920166015625,3.641204833984375,-9.682464599609375,3.072967529296875,1,1.0,1.0,1.0,1.0,85.00
2021-04-09 09:14:18.251,0.6770872,0.027155457,0.12754735,0.5643575,0.32978544,-0.23196068,-0.35781446,0.30247816,0.51059157,-0.0011455544,0.1784965,0.4042715,0.20725197,0.10493602,0.047581263,0.14490527,-0.142986,-0.24504253,-0.17202626,-0.02728016,827.2161,801.8315,803.8461,803.0403,1017.8022,-0.38055419921875,0.06903076171875,0.924560546875,4.613189697265625,-8.560943603515625,0.411224365234375,1,1.0,1.0,1.0,1.0,85.00
2021-04-09 09:14:18.762,0.5904958,-0.027042247,-0.17008388,0.44207895,0.42036557,-0.24939513,-0.45336062,0.3255208,0.6459408,0.21368794,0.15286745,0.4919788,0.0640735,0.07724315,0.006722667,0.10818659,-0.33321857,-0.2849585,-0.2006837,-0.059542693,846.1539,806.26373,809.4872,810.696,1017.8022,-0.36773681640625,0.0557861328125,0.93353271484375,4.687957763671875,-5.84686279296875,0.25421142578125,1,1.0,1.0,1.0,1.0,85.00
2021-04-09 09:14:19.274,0.27879488,-0.11759594,-0.49732104,0.13736556,0.40082723,-0.3276586,-0.5824416,0.24388285,0.6403923,0.12387646,0.109368004,0.50753707,-0.004614757,0.06858883,-0.012835289,0.077443354,-0.4181745,-0.40782538,-0.31453186,-0.13840672,781.685,795.38464,810.293,796.1905,450.4762,-0.35186767578125,0.059814453125,0.93023681640625,5.151519775390625,-4.822540283203125,1.30096435546875,1,1.0,1.0,1.0,1.0,85.00
2021-04-09 09:14:19.789,-0.0062955325,-0.20967558,-0.40737236,0.09956961,0.29585147,-0.41292074,-0.67988515,0.19173007,0.6616848,0.09141298,-0.1157493,0.46321693,0.019105343,0.075713225,0.0966389,0.1530662,-0.45833358,-0.42109033,-0.37958717,-0.24839953,753.47986,802.23444,803.44324,790.54944,388.02197,-0.34600830078125,0.0533447265625,0.93316650390625,3.058013916015625,-3.8580322265625,1.51031494140625,1,1.0,1.0,1.0,1.0,85.00
2021-04-09 09:14:20.302,0.24871509,-0.14111896,-0.16453406,0.3519305,0.1369702,-0.34457558,-0.3194356,0.2764882,0.9456843,0.13288859,0.03613795,0.92058057,0.19712156,0.06151084,0.12013552,0.28235668,-0.3842225,-0.3811381,-0.29958403,-0.23696405,801.4286,798.60803,801.8315,812.3077,849.7802,-0.368896484375,0.06842041015625,0.93304443359375,6.078643798828125,-4.94964599609375,5.1141357421875,1,1.0,1.0,1.0,1.0,85.00
2021-04-09 09:14:20.808,0.59967697,0.021422708,-0.07020639,0.65208876,0.1749322,-0.09762504,-0.18722624,0.33641,0.9581365,0.008258738,0.08234335,0.9751217,0.35734388,0.012218118,0.10252163,0.34682608,-0.31470796,-0.3186667,-0.13643825,-0.1868712,850.58606,808.68134,805.05493,816.337,1048.8279,-0.3577880859375,0.08148193359375,0.93804931640625,4.957122802734375,-3.476715087890625,2.026214599609375,1,1.0,1.0,1.0,1.0,85.00
2021-04-09 09:14:21.325,0.65675026,0.032489944,-0.10063849,0.7199844,0.18432425,-0.10540851,-0.23258841,0.30280542,0.9581365,0.08080211,0.02951953,0.9568568,0.34503716,0.0432717,-0.008225143,0.31587377,-0.3021472,-0.2983809,-0.08664824,-0.2859033,643.8828,794.17584,825.2015,619.304,760.32965,-0.3687744140625,0.1041259765625,0.94000244140625,1.89910888671875,-4.4561767578125,-4.0972900390625,1,1.0,1.0,1.0,1.0,85.00
2021-04-09 09:14:21.497,,,,,,,,,,,,,,,,,,,,,,,,,,,,,,,,,,,,,,/muse/elements/blink
2021-04-09 09:14:21.836,0.6877498,0.21621339,0.38590777,0.76906973,0.19220132,0.067073226,0.098511286,0.2042813,0.95241016,0.16273095,0.027301785,0.9340024,0.32416433,0.074063644,0.0022414755,0.2967837,-0.30371574,-0.3011734,-0.055358253,-0.33631578,804.2491,794.17584,803.8461,806.6667,837.28937,-0.3992919921875,0.01141357421875,0.90533447265625,-0.58319091796875,-8.501129150390625,-5.69732666015625,1,1.0,1.0,1.0,1.0,85.00
2021-04-09 09:14:22.341,0.31642112,0.36831695,0.69775856,0.60393894,0.0293528,0.14551829,0.33832112,0.07274716,0.26151437,0.1737092,0.03917293,0.028527327,0.036334146,0.13176271,-0.089809746,0.17158328,-0.3904633,-0.3733983,-0.16873229,-0.6581921,850.58606,809.0842,813.5165,829.2308,1052.0513,-0.38079833984375,-0.03497314453125,0.920166015625,4.613189697265625,-9.5703125,0.8673095703125,1,1.0,1.0,1.0,1.0,85.00
2021-04-09 09:14:22.863,0.2560261,0.72013015,0.7949412,0.52010286,-0.025639366,0.24850658,0.5168197,0.10138699,0.19695342,0.24929385,0.3609707,-0.13093953,-0.009054013,0.09280672,0.008679907,0.14907089,-0.39378044,-0.39332765,-0.22048575,-0.6461714,814.7253,801.4286,798.20514,813.91943,849.7802,-0.39483642578125,-0.02020263671875,0.9193115234375,1.42059326171875,-2.55706787109375,4.867401123046875,1,1.0,1.0,1.0,1.0,85.00
2021-04-09 09:14:23.388,0.74605966,0.7082205,0.65454775,0.8987652,0.834604,0.1813286,0.39773834,0.9519026,1.0099913,0.19831887,0.35407135,0.8351775,0.5266759,0.0061316635,-0.029035963,0.4493265,-0.4075932,-0.43406805,-0.30171695,-0.39373907,772.8205,794.17584,811.9048,797.3993,549.59705,-0.38818359375,-0.0084228515625,0.935302734375,4.62066650390625,-3.880462646484375,2.213134765625,1,1.0,1.0,1.0,1.0,85.00
2021-04-09 09:14:23.913,0.71201825,0.60070425,0.2909782,0.71511704,0.7871581,-0.019145988,0.23336637,0.76335686,1.0099913,0.12149419,0.37817574,0.8351775,0.47023806,-0.06723564,-0.033606622,0.36752504,-0.43140745,-0.41254556,-0.25827295,-0.37157097,811.0989,809.0842,801.02563,806.6667,711.1722,-0.3741455078125,-0.0228271484375,0.91986083984375,6.706695556640625,-3.09539794921875,5.061798095703125,1,1.0,1.0,1.0,1.0,80.00
2021-04-09 09:14:24.415,0.5991919,0.14437051,-0.15741816,0.5924047,0.66858613,-0.11873142,-0.11662344,0.65227985,1.0099913,0.14978187,0.08118498,0.8351775,0.36875418,-0.06306908,-0.11217559,0.31063053,-0.45259368,-0.43147933,-0.1806704,-0.32379594,772.8205,800.6227,801.02563,796.99634,593.5165,-0.36865234375,0.13470458984375,0.92828369140625,8.44879150390625,-6.041259765625,8.25439453125,1,1.0,1.0,1.0,1.0,80.00
2021-04-09 09:14:24.936,0.16684666,0.1582364,-0.23445146,0.16577743,0.21268812,-0.17736141,-0.16345517,0.12508792,0.7154042,0.14770605,0.14508212,0.5993763,0.015512732,-0.026499225,-0.026229046,0.18182166,-0.41878858,-0.3858933,-0.12115897,-0.27166808,899.34064,827.619,792.96704,840.5128,1047.2161,-0.35345458984375,0.1578369140625,0.929931640625,2.415008544921875,-5.7122802734375,-9.2413330078125,1,1.0,1.0,1.0,1.0,80.00
2021-04-09 09:14:25.440,0.6993523,0.4141988,-0.014207997,0.40329677,0.5988435,0.06923392,-0.09337047,0.6593145,0.735307,0.22329718,0.30478263,0.6731643,0.045122225,-0.05646505,0.013211411,0.18221961,-0.36194685,-0.4158101,-0.07543153,-0.11071036,834.0659,816.7399,814.3223,815.9341,843.73627,-0.36962890625,0.04180908203125,0.9356689453125,0.814971923828125,-5.30853271484375,-7.19268798828125,1,1.0,1.0,1.0,1.0,80.00
2021-04-09 09:14:25.947,0.8969004,0.5113541,0.13792968,0.5374826,0.68974924,0.04584207,-0.1327975,0.72901744,0.81047505,0.1776068,0.32972026,0.69156,0.11851533,-1.6525826E-4,-0.004247759,0.21110032,-0.32856882,-0.37992492,-0.11867192,-0.0766535,791.3553,796.5934,800.6227,818.7546,636.2271,-0.36151123046875,0.02203369140625,0.923583984375,4.658050537109375,-5.21881103515625,9.031982421875,1,1.0,1.0,1.0,1.0,80.00
2021-04-09 09:14:26.048,,,,,,,,,,,,,,,,,,,,,,,,,,,,,,,,,,,,,,/muse/elements/blink
2021-04-09 09:14:26.460,1.3183134,0.64110047,0.25647977,1.0740145,1.3656206,0.33028957,-0.041345634,1.3480986,1.491272,0.10272053,0.34142035,1.4073781,0.52159137,0.10153738,0.010363177,0.47367284,-0.16915798,-0.32998592,-0.2003875,3.3264537E-4,785.7143,799.011,806.26373,785.7143,660.0,-0.27581787109375,0.09234619140625,0.95751953125,9.04693603515625,-17.802276611328125,1.472930908203125,1,1.0,1.0,1.0,1.0,80.00
2021-04-09 09:14:26.979,1.2937548,0.6105227,0.22220825,1.1700312,1.3945756,0.3220126,-0.20411584,1.4208704,1.491272,0.12547512,0.30304644,1.4073781,0.58144855,0.15408708,0.116309375,0.5537019,-0.15139493,-0.23044059,-0.2670185,-0.05340633,828.4249,811.50183,799.41394,812.3077,867.1062,-0.27154541015625,0.10321044921875,0.942626953125,4.02252197265625,8.89739990234375,3.36456298828125,1,1.0,1.0,1.0,1.0,80.00
2021-04-09 09:14:27.500,1.179804,0.4487754,0.05159529,1.1631896,1.3739169,0.41422912,-0.08431614,1.428371,1.491272,0.100939825,0.30429742,1.4073781,0.54501414,0.19381845,0.121622495,0.54556906,-0.06587296,-0.18077345,-0.259161,-0.05726156,846.1539,811.9048,819.9634,822.7839,1091.1355,-0.34906005859375,0.05145263671875,0.93798828125,2.011260986328125,-7.947845458984375,-4.77020263671875,1,1.0,1.0,1.0,1.0,80.00
2021-04-09 09:14:28.029,0.70112973,0.045080427,-0.07707834,0.6915427,0.87025625,0.35639602,-0.072752826,0.91157687,1.0382277,0.12181562,0.16551724,0.8782894,0.3123078,0.14285411,0.15856658,0.3230775,-0.1409609,-0.15357918,-0.20369849,-0.09811531,821.5751,809.4872,802.6374,810.293,776.8498,-0.30511474609375,0.03289794921875,0.94403076171875,4.463653564453125,-5.854339599609375,-0.530853271484375,1,1.0,1.0,1.0,1.0,80.00
2021-04-09 09:14:28.531,0.53604484,-0.19363025,-0.08874299,0.54598993,0.6358577,0.35379532,-0.042499937,0.6815471,0.6151347,0.22215164,0.08931173,0.46205634,0.20528673,0.14463505,0.080224924,0.2551875,-0.18244678,-0.18981957,-0.21072228,-0.06479171,851.79486,817.1429,807.0696,824.3956,986.77655,-0.28662109375,0.02593994140625,0.9654541015625,4.20196533203125,-4.26177978515625,0.28411865234375,1,1.0,1.0,1.0,1.0,80.00
2021-04-09 09:14:29.038,0.3050887,-0.22185561,-0.082672365,0.3489422,0.45690405,0.18512101,-0.2394276,0.47382608,0.48479202,0.23682281,-0.0060442593,0.41030055,0.14596249,0.06797582,0.07262559,0.23283316,-0.31061932,-0.19393963,-0.28437835,-0.11834671,819.5604,810.696,809.4872,818.7546,622.52747,-0.30029296875,0.028076171875,0.95770263671875,4.47113037109375,-5.14404296875,-8.097381591796875,1,1.0,1.0,1.0,1.0,80.00
2021-04-09 09:14:29.551,0.13456447,0.650389,0.42698443,0.58003324,0.37497666,0.21652912,0.13409568,0.3230439,0.4009245,0.3629281,0.47960776,0.3331237,0.042747624,0.08834221,-0.007122636,0.22389698,-0.3207194,-0.2859681,-0.31171936,-0.116645694,838.0952,796.1905,811.0989,827.2161,965.0183,-0.31982421875,-0.01702880859375,0.952880859375,3.0206298828125,0.321502685546875,0.9271240234375,1,1.0,1.0,1.0,1.0,80.00
2021-04-09 09:14:30.059,0.8211504,0.94559985,0.8287933,1.0891962,0.06895234,0.32783052,0.35067794,0.34406823,0.321853,0.44404864,0.48837936,0.32949132,0.14200228,0.010894223,0.03281798,0.27180344,-0.23362231,-0.3199625,-0.31645137,-0.17760803,851.79486,812.71063,805.4579,828.4249,1003.2967,-0.35791015625,-0.01055908203125,0.93402099609375,4.104766845703125,3.06549072265625,1.128997802734375,1,1.0,1.0,1.0,1.0,80.00
2021-04-09 09:14:30.567,0.9120691,1.0991788,1.0103538,1.2659979,0.10077573,0.52471423,0.57917595,0.7005515,0.3114532,0.44763324,0.48837936,0.44074586,0.22747122,0.052456196,0.090475135,0.34350538,-0.351064,-0.4444584,-0.29532197,-0.24189267,794.9817,804.65204,805.8608,807.0696,693.8461,-0.36407470703125,0.0230712890625,0.95208740234375,3.626251220703125,-13.435821533203125,12.03765869140625,1,1.0,1.0,1.0,1.0,80.00
2021-04-09 09:14:31.079,0.9983959,1.0080327,0.9596376,1.2053658,0.33451834,0.5409696,0.47952494,0.74361753,0.4569604,0.51019245,0.37202737,0.4952795,0.2066669,0.017682744,0.1355153,0.2673495,-0.3626469,-0.4097451,-0.32314205,-0.30639362,718.4249,808.68134,790.9524,747.4359,371.50183,-0.35296630859375,-0.0052490234375,0.9415283203125,1.936492919921875,-9.622650146484375,-5.5029296875,1,1.0,1.0,1.0,1.0,80.00
2021-04-09 09:14:31.599,1.0525405,0.88427466,0.7289175,1.0054234,0.52687913,0.45741147,0.4211092,0.8885679,0.8172653,0.43566278,0.3180002,0.7674039,0.16550422,0.06208394,0.09460535,0.21244137,-0.41617638,-0.43497878,-0.36004665,-0.41852584,782.8938,803.8461,801.8315,794.9817,725.6777,-0.283203125,-0.02685546875,0.95306396484375,6.29547119140625,-3.850555419921875,2.444915771484375,1,1.0,1.0,1.0,1.0,80.00
2021-04-09 09:14:32.125,1.0932871,0.69547665,0.24581817,0.7750554,0.613988,0.2488906,0.12789567,0.8188541,0.8784167,0.3929965,0.34091944,0.7894691,0.26553887,0.017678108,0.04549712,0.22886789,-0.38649994,-0.40217176,-0.35243705,-0.283122,804.2491,805.8608,808.68134,796.1905,705.5311,-0.29437255859375,-0.02020263671875,0.9615478515625,3.641204833984375,-4.6356201171875,-1.054229736328125,1,1.0,1.0,1.0,1.0,80.00
2021-04-09 09:14:32.649,0.9161749,0.5293146,0.0436347,0.70298785,0.45628166,-0.08300836,0.1563869,0.75091916,0.8784167,0.3651621,0.3408975,0.7894691,0.3188129,0.022772778,0.06847172,0.3045741,-0.3863918,-0.40328348,-0.31472293,-0.2986342,844.94507,816.7399,805.05493,813.91943,938.022,-0.30462646484375,-0.01947021484375,0.952392578125,5.211334228515625,-2.392578125,1.263580322265625,1,1.0,1.0,1.0,1.0,80.00
2021-04-09 09:14:33.153,0.528247,0.31837603,0.19824003,0.51949626,0.44977626,-0.20473526,0.0893831,0.51196843,0.86399335,0.18409218,0.2080498,0.776825,0.34901097,0.084841624,0.14166845,0.32046017,-0.33987075,-0.27592802,-0.2307104,-0.26431167,804.2491,803.44324,804.65204,807.0696,560.4762,-0.33001708984375,-0.0205078125,0.946533203125,4.44122314453125,-3.96270751953125,-0.25421142578125,1,1.0,1.0,1.0,1.0,80.00
2021-04-09 09:14:33.672,0.3048042,0.3538305,0.3101092,0.45390555,0.77118045,-0.10141183,0.0067867874,0.55240756,0.66189575,0.18932119,0.04894,0.41522077,0.30949324,0.12430892,0.14920259,0.31537482,-0.3127475,-0.23141667,-0.19758312,-0.31407928,753.0769,797.8022,799.81683,786.9231,407.36264,-0.32318115234375,-0.0213623046875,0.94720458984375,4.179534912109375,-5.48797607421875,0.85235595703125,1,1.0,1.0,1.0,1.0,80.00
2021-04-09 09:14:34.195,0.5558136,0.30472153,0.2790041,0.5303153,0.8067196,0.015177573,-0.15749705,0.6139868,0.62758076,0.22906461,-0.18399708,0.4193998,0.28265464,0.07545911,0.093500935,0.35373923,-0.3216322,-0.17453685,-0.2563745,-0.28223234,785.7143,801.4286,798.20514,789.7436,713.5897,-0.323974609375,-0.0279541015625,0.94842529296875,3.760833740234375,-4.149627685546875,0.411224365234375,1,1.0,1.0,1.0,1.0,80.00
2021-04-09 09:14:34.725,0.6476516,0.19067107,-0.009733386,0.5402204,0.6807417,0.04016333,-0.35768667,0.53783035,0.59201664,0.37645444,0.22558382,0.39856935,0.26110408,-0.04867561,0.034830194,0.3713181,-0.36912248,-0.2791311,-0.26551116,-0.29456288,855.42126,817.9487,811.9048,828.4249,1086.3004,-0.3348388671875,-0.02703857421875,0.9493408203125,4.433746337890625,-5.15899658203125,1.9140625,1,1.0,1.0,1.0,1.0,80.00
2021-04-09 09:14:35.238,0.63176495,0.12941583,-0.06511892,0.50141627,0.18081355,0.019774504,-0.20914732,0.29153377,0.34725899,0.367229,0.2643716,0.19754384,0.18159091,-0.05898939,-0.0070457663,0.31153017,-0.37691578,-0.3250423,-0.32342193,-0.32694423,802.6374,817.5458,785.7143,784.10254,896.9231,-0.3292236328125,-0.02520751953125,0.943603515625,4.344024658203125,-4.44122314453125,0.2392578125,1,1.0,1.0,1.0,1.0,80.00
2021-04-09 09:14:35.763,0.4013336,0.43061033,0.2888334,0.48811325,0.067151174,0.028444923,0.22394003,0.30155292,0.5823907,0.3476522,0.4366056,0.7022427,0.05820293,0.04443351,0.044981997,0.20172669,-0.2595753,-0.3368572,-0.32852808,-0.3292443,857.4359,814.7253,806.6667,828.4249,1048.4249,-0.3311767578125,-0.03082275390625,0.9429931640625,4.702911376953125,-4.964599609375,0.35888671875,1,1.0,1.0,1.0,1.0,80.00
2021-04-09 09:14:36.276,0.40623713,0.5265632,0.38646033,0.65498495,0.03550484,0.0483053,0.30124074,0.4966579,0.58108056,0.32911974,0.3548996,0.73892736,0.15642709,0.04673518,0.03280387,0.27075407,-0.24260661,-0.2825546,-0.39552534,-0.26285073,830.84247,807.0696,804.2491,819.9634,825.6044,-0.3360595703125,-0.034912109375,0.94598388671875,4.3963623046875,-4.68048095703125,1.861724853515625,1,1.0,1.0,1.0,1.0,80.00
2021-04-09 09:14:36.795,0.5925288,0.6743114,0.66046727,0.86461234,0.1824634,0.3176496,0.469079,0.62356275,0.64684814,0.36452028,0.33817437,0.7440927,0.2837525,0.060476277,0.11333057,0.36203402,-0.20452482,-0.25116515,-0.37288973,-0.19369543,772.01465,798.60803,801.02563,786.1172,483.9194,-0.32269287109375,-0.03155517578125,0.94696044921875,4.47113037109375,-4.02252197265625,0.396270751953125,1,1.0,1.0,1.0,1.0,80.00
2021-04-09 09:14:37.299,0.739984,0.76372945,0.7745708,0.90602076,0.26952043,0.39112675,0.4379762,0.63338906,0.6509933,0.46855658,0.4842398,0.70552397,0.3099001,0.08584797,0.12956025,0.4067542,-0.26501733,-0.3326295,-0.37477398,-0.21585748,779.2674,807.47253,796.1905,790.9524,553.6264,-0.3292236328125,-0.031982421875,0.9500732421875,4.942169189453125,-4.508514404296875,0.897216796875,1,1.0,1.0,1.0,1.0,80.00
2021-04-09 09:14:37.809,0.6965361,0.8205367,0.79683477,0.77918017,0.3840972,0.4039184,0.42833298,0.4499032,0.64876634,0.47001463,0.46050775,0.47823322,0.21592644,0.08035006,0.10410957,0.4035588,-0.25373015,-0.40400517,-0.3384164,-0.27673978,823.5897,809.4872,805.4579,815.5311,918.68134,-0.33148193359375,-0.03692626953125,0.94287109375,4.643096923828125,-4.26177978515625,-0.5084228515625,1,1.0,1.0,1.0,1.0,80.00
2021-04-09 09:14:38.330,0.63906485,0.702843,0.58914244,0.44069234,0.33090407,0.12856814,0.1789096,0.2220684,0.5450935,0.36468235,0.44222122,0.51089317,0.15170492,0.105640925,0.026705138,0.4233404,-0.22716106,-0.46271116,-0.22864158,-0.3020879,850.18317,808.2784,801.02563,825.6044,1187.8389,-0.3460693359375,-0.03375244140625,0.9420166015625,5.151519775390625,-3.611297607421875,-0.1495361328125,1,1.0,1.0,1.0,1.0,80.00
2021-04-09 09:14:38.844,0.4481399,0.46480134,0.2994636,0.2694304,0.20851007,-0.08704176,-0.03926972,0.11695588,0.54401904,0.117271066,0.22100392,0.55769056,0.073008865,0.062025145,-0.0068597863,0.331421,-0.23988257,-0.39062476,-0.21705443,-0.2541845,812.71063,810.696,802.23444,805.05493,717.619,-0.346923828125,-0.03680419921875,0.9405517578125,4.5159912109375,-4.44122314453125,-0.246734619140625,1,1.0,1.0,1.0,1.0,80.00
2021-04-09 09:14:39.352,0.4262703,0.07209034,0.112883516,0.5121175,0.008179319,-0.2411474,-0.26842028,0.22656345,0.509046,-0.018525712,0.109735444,0.5856657,0.066111125,0.056096926,0.056062866,0.24618082,-0.27709824,-0.42628157,-0.23849545,-0.2941,767.5824,805.05493,809.4872,792.96704,413.00366,-0.353271484375,-0.0382080078125,0.9375,4.822540283203125,-4.314117431640625,0.059814453125,1,1.0,1.0,1.0,1.0,80.00
2021-04-09 09:14:39.872,0.3767399,-0.13985066,-0.16429251,0.60753566,0.3116175,-0.29612577,-0.40321344,0.39630985,0.41756183,-0.04062386,-0.08593904,0.56426764,0.10504257,0.016839394,0.0652411,0.2869578,-0.38163906,-0.4466685,-0.36665583,-0.3596196,852.6007,810.293,814.3223,825.6044,1172.1245,-0.35247802734375,-0.04144287109375,0.93414306640625,4.486083984375,-5.0543212890625,0.979461669921875,1,1.0,1.0,1.0,1.0,80.00
2021-04-09 09:14:40.171,,,,,,,,,,,,,,,,,,,,,,,,,,,,,,,,,,,,,,/muse/elements/blink
2021-04-09 09:14:40.376,0.45373124,0.20568703,0.22530816,0.7000667,0.38381413,0.023745785,-0.09237568,0.5118128,0.35813817,0.22026552,0.03786377,0.57441133,0.18906763,0.06292104,0.1326482,0.38861063,-0.3369059,-0.50831974,-0.31028402,-0.403246,849.7802,807.47253,801.02563,834.87177,809.0842,-0.3529052734375,-0.0380859375,0.93829345703125,4.299163818359375,-4.05242919921875,1.07666015625,1,1.0,1.0,1.0,1.0,80.00
2021-04-09 09:14:40.881,0.4857534,1.0985589,0.29557443,0.6355553,0.5335417,0.89305836,-0.021022154,0.5440111,0.33710513,0.68590754,0.025504854,0.42711663,0.2418552,0.10103275,0.12708265,0.47639585,-0.3235158,-0.39843723,-0.32649368,-0.42568594,772.8205,803.8461,803.0403,799.011,431.53845,-0.3475341796875,-0.0411376953125,0.9415283203125,3.349609375,-5.644989013671875,5.6524658203125,1,1.0,1.0,1.0,1.0,80.00
2021-04-09 09:14:41.399,0.4473547,1.1644999,0.5538984,0.5731555,0.52115566,0.919466,0.35312682,0.5889128,0.16117635,0.69099444,0.19076307,0.3669391,0.26599643,0.07522776,0.14652777,0.52358294,-0.22339095,-0.34725255,-0.24433199,-0.35875684,766.3736,805.8608,803.44324,781.28204,509.70697,-0.38336181640625,-0.04388427734375,0.9249267578125,3.5888671875,-3.461761474609375,1.2261962890625,1,1.0,1.0,1.0,1.0,80.00
2021-04-09 09:14:41.917,0.41767606,1.1481751,0.6750829,0.5707062,0.38005126,0.8558506,0.5352214,0.6014465,0.05342155,0.6971262,0.6712473,0.75637174,0.43039903,0.12755033,-0.06326468,0.3119263,-0.30496308,-0.323099,-0.42017654,-0.2193039,807.0696,794.17584,814.7253,802.6374,928.7546,-0.352294921875,-0.0462646484375,0.9427490234375,5.09918212890625,-6.3702392578125,0.157012939453125,1,1.0,1.0,1.0,1.0,80.00
2021-04-09 09:14:42.436,0.53457296,0.90415764,0.8765715,0.5339533,0.30195197,0.33252642,0.5948824,0.655316,0.26490518,0.37524807,0.72369343,0.8632815,0.28809503,0.15233961,0.03014836,0.26594046,-0.34896505,-0.28482217,-0.27954748,-0.21914347,857.4359,809.0842,811.0989,830.84247,1082.674,-0.35174560546875,-0.0374755859375,0.94085693359375,4.747772216796875,-4.134674072265625,1.966400146484375,1,1.0,1.0,1.0,1.0,80.00
2021-04-09 09:14:42.965,0.44372934,0.8869135,0.8304343,0.41090265,0.29368693,0.38939863,0.54923,0.52328557,0.3412755,0.3579958,0.72369343,0.8632815,0.21382764,0.14681463,0.05843419,0.23446503,-0.35587505,-0.28524888,-0.285843,-0.26078922,814.7253,804.65204,804.65204,805.4579,780.87915,-0.3525390625,-0.04022216796875,0.93890380859375,5.121612548828125,-4.4561767578125,-0.710296630859375,1,1.0,1.0,1.0,1.0,80.00
2021-04-09 09:14:43.494,0.47367483,0.887257,0.8112836,0.21385165,0.23135605,0.4697435,0.41819873,0.4330603,0.32525596,0.46444058,0.71778685,0.8169736,0.08596871,0.0885167,0.09525079,0.20454699,-0.32785442,-0.34586233,-0.27159736,-0.2569874,761.9414,794.17584,813.91943,801.02563,302.1978,-0.3541259765625,-0.0438232421875,0.93719482421875,4.5159912109375,-4.493560791015625,0.650482177734375,1,1.0,1.0,1.0,1.0,80.00
2021-04-09 09:14:44.000,0.32014215,0.6429173,0.45473358,-0.047568616,0.15053417,0.36555403,0.07097843,0.2572016,0.24463685,0.44758385,0.203989,0.29953697,0.03491051,-0.044856615,0.05492825,0.14346729,-0.33316758,-0.48405224,-0.35136545,-0.27782524,802.6374,805.4579,804.2491,808.68134,669.67035,-0.35162353515625,-0.04345703125,0.93798828125,4.71038818359375,-4.807586669921875,0.755157470703125,1,1.0,1.0,1.0,1.0,80.00
2021-04-09 09:14:44.528,0.33849993,0.6606537,0.54535043,0.31073317,0.11097834,0.41544995,0.17510933,0.42489663,0.290828,0.46409,0.31974322,0.46367308,0.14028805,-0.06307384,0.024596168,0.13640633,-0.34177166,-0.42288774,-0.2904082,-0.2338692,832.8571,800.6227,800.2198,820.7692,1082.674,-0.3486328125,-0.051513671875,0.9373779296875,4.673004150390625,-3.96270751953125,0.545806884765625,1,1.0,1.0,1.0,1.0,85.00
2021-04-09 09:14:44.958,,,,,,,,,,,,,,,,,,,,,,,,,,,,,,,,,,,,,,/muse/elements/blink
2021-04-09 09:14:45.049,0.21565934,0.75340635,0.6112985,0.54097563,0.16400622,0.40084988,0.34187973,0.43361536,0.24374697,0.39932,0.61523193,0.547863,0.23191123,-0.17637832,0.08883855,0.11837271,-0.35973617,-0.33178496,-0.28457168,-0.1754073,781.28204,803.8461,800.6227,799.81683,660.80585,-0.35394287109375,-0.04443359375,0.93719482421875,4.702911376953125,-4.44122314453125,2.026214599609375,1,1.0,1.0,1.0,1.0,85.00
2021-04-09 09:14:45.565,0.9595537,0.92939967,0.6797958,0.9228643,0.9763738,0.6194809,0.46789977,0.9424568,1.2286556,0.56046367,0.62856114,1.0335771,0.32270262,-0.1023332,0.10356436,0.17380457,-0.26576456,-0.28988937,-0.33027804,-0.1554897,840.9158,817.1429,803.44324,803.8461,1042.7839,-0.35528564453125,-0.03179931640625,0.93524169921875,4.732818603515625,-4.5758056640625,1.487884521484375,1,1.0,1.0,1.0,1.0,85.00
2021-04-09 09:14:46.073,0.9722366,0.892725,0.6895572,1.0193242,1.0005554,0.5750087,0.44823697,1.0860771,1.227283,0.53429055,0.62242115,1.0362546,0.2705062,-0.07314319,0.10881256,0.33365878,-0.2237434,-0.41663456,-0.35336882,-0.14731552,844.1392,813.5165,800.6227,813.91943,861.8681,-0.35760498046875,-0.030029296875,0.936767578125,4.538421630859375,-4.388885498046875,0.620574951171875,1,1.0,1.0,1.0,1.0,85.00
2021-04-09 09:14:46.588,0.87013155,0.7281575,0.5452969,0.9433393,0.90352094,0.4922687,0.31030467,1.032224,1.2269297,0.51324904,0.46562535,1.0362546,0.21266109,-0.031938877,0.039138194,0.3536754,-0.24529195,-0.37791225,-0.32225177,-0.25630885,786.52014,798.60803,798.20514,803.44324,620.9158,-0.35986328125,-0.017822265625,0.93682861328125,4.807586669921875,-3.880462646484375,0.67291259765625,1,1.0,1.0,1.0,1.0,85.00
2021-04-09 09:14:47.096,0.24155259,0.32174572,0.44748855,0.6784346,0.37811634,0.08728924,0.09439413,0.7493574,0.61036646,0.29317898,0.3963322,0.76385784,0.19113612,-0.03106747,0.0015879108,0.29531065,-0.2905139,-0.33359092,-0.2646937,-0.2878033,834.0659,802.23444,803.8461,822.381,1007.72894,-0.36175537109375,-0.02294921875,0.92535400390625,4.239349365234375,-3.27484130859375,0.5682373046875,1,1.0,1.0,1.0,1.0,85.00
2021-04-09 09:14:47.601,-0.21503383,0.0563021,0.15591879,0.2845976,0.15333694,-0.09043761,-0.17485097,0.4007456,0.34884426,0.19700974,0.2243215,0.5789932,0.21204779,-0.039708085,0.03576435,0.26555455,-0.20941958,-0.30476242,-0.28154716,-0.3085993,847.76556,810.696,800.2198,813.1135,966.2271,-0.364990234375,-0.021240234375,0.9296875,4.5758056640625,-4.964599609375,2.265472412109375,1,1.0,1.0,1.0,1.0,85.00
2021-04-09 09:14:48.107,0.012223427,0.044165693,0.039084285,0.035645533,0.1244437,-0.19552729,-0.10571212,0.19234309,0.28190863,-0.019526534,0.25898236,0.18603876,0.23465942,-0.051438436,-0.010113586,0.1742442,-0.20643327,-0.3591094,-0.36821637,-0.3230084,797.8022,807.47253,799.41394,801.8315,642.27106,-0.37237548828125,-0.01312255859375,0.9285888671875,4.35150146484375,-3.887939453125,2.190704345703125,1,1.0,1.0,1.0,1.0,85.00
2021-04-09 09:14:48.493,,,,,,,,,,,,,,,,,,,,,,,,,,,,,,,,,,,,,,/muse/elements/blink
2021-04-09 09:14:48.620,0.11452912,0.1568541,0.21853372,0.124883235,0.10161258,-0.14173067,0.030545114,0.17779964,0.2841814,0.0048277103,0.25898236,0.096885286,0.26778883,-0.034569018,1.4297682E-4,0.23937394,-0.17596126,-0.4481865,-0.4236353,-0.33181116,785.7143,808.68134,802.6374,804.2491,473.84616,-0.377197265625,-0.01275634765625,0.92718505859375,4.254302978515625,-4.2767333984375,2.04864501953125,1,1.0,1.0,1.0,1.0,85.00
2021-04-09 09:14:49.123,0.3194153,0.44599828,0.74743503,0.1543861,0.09558413,0.013150378,0.4086111,-0.14753109,0.28189534,0.0664815,0.2632835,0.042340465,0.2910694,0.08426186,-0.027385686,0.14308763,-0.3377685,-0.36489353,-0.3570283,-0.45628637,777.25275,805.05493,801.02563,786.1172,699.89014,-0.39361572265625,0.0343017578125,0.9195556640625,8.620758056640625,-4.85992431640625,14.437713623046875,1,1.0,1.0,1.0,1.0,85.00
2021-04-09 09:14:49.629,0.36692217,0.3906142,0.72268325,0.11439238,0.10211223,-0.002013757,0.3871506,-0.20655589,0.2708644,0.058614366,0.15589313,-0.039565556,0.3516585,0.120555595,0.060286302,0.16109006,-0.4263455,-0.31213567,-0.2734068,-0.4874151,840.5128,809.0842,803.44324,818.3516,1083.8828,-0.355712890625,0.1129150390625,0.94085693359375,6.68426513671875,-14.392852783203125,-6.018829345703125,1,1.0,1.0,1.0,1.0,85.00
2021-04-09 09:14:50.134,0.21769059,0.36815813,0.7222118,0.15429679,0.10789182,-0.014794865,0.36963707,-0.4942367,0.47692898,0.058614366,0.022847733,0.14297155,0.28268695,0.10467199,0.027672743,0.36581254,-0.19576217,-0.16771293,-0.18808834,-0.20149292,757.50916,803.44324,800.6227,783.69965,481.50183,-0.28924560546875,0.06988525390625,0.964111328125,2.58697509765625,-5.420684814453125,-11.05072021484375,1,1.0,1.0,1.0,1.0,85.00
2021-04-09 09:14:50.639,0.27837119,-0.11798784,0.044985708,0.19445604,-0.0054772305,-0.48844543,-0.2222446,-0.28423935,0.48463464,-0.15838274,0.1463401,0.2615513,0.14251937,0.04554504,-0.010675907,0.23988605,-0.27611032,-0.10365977,-0.18393563,-0.118635505,850.989,814.3223,805.05493,835.6777,1068.5714,-0.34344482421875,0.00201416015625,0.9373779296875,3.297271728515625,-7.035675048828125,-0.964508056640625,1,1.0,1.0,1.0,1.0,85.00
2021-04-09 09:14:51.163,0.7072434,0.4153243,0.26572406,0.38085842,0.26309055,0.028116047,-0.055901747,-0.090933174,0.50872636,0.5481672,0.33070865,0.35653818,0.12801759,0.0440126,-0.09729473,0.25458476,-0.25270492,-0.15156218,-0.18495703,-0.08935279,761.53845,791.75824,801.02563,785.31134,483.11356,-0.30535888671875,-0.0377197265625,0.950439453125,6.183319091796875,-1.62994384765625,-9.6600341796875,1,1.0,1.0,1.0,1.0,85.00
2021-04-09 09:14:51.683,0.9402245,0.7576592,0.4817567,0.7833385,0.37965542,0.3200286,0.18212935,0.26202178,0.5499476,0.56333953,0.38582134,0.46304628,0.061852153,0.07466963,-0.018628044,0.3105429,-0.27548555,-0.35126367,-0.2002569,-0.05410352,839.304,809.4872,804.2491,826.4103,986.77655,-0.30908203125,-0.03070068359375,0.95318603515625,5.2935791015625,-4.179534912109375,-0.590667724609375,1,1.0,1.0,1.0,1.0,85.00
2021-04-09 09:14:52.190,1.0149009,0.8772487,0.6357827,0.8143501,0.4201572,0.39300838,0.21894543,0.26002097,0.6248796,0.5793435,0.38861924,0.45056957,0.22386377,0.12587178,0.08654736,0.38593248,-0.23260064,-0.45136747,-0.17915376,-0.10128049,850.989,817.1429,803.0403,823.5897,1149.5604,-0.30572509765625,-0.030029296875,0.95611572265625,4.47113037109375,-4.613189697265625,1.77947998046875,1,1.0,1.0,1.0,1.0,85.00
2021-04-09 09:14:52.695,0.88786495,0.8087228,0.5202949,0.7705242,0.19836952,0.2635694,0.079980515,0.23461388,0.63432014,0.54524004,0.4077478,0.49698338,0.28537843,0.14867134,0.15874074,0.39480007,-0.20689252,-0.43086776,-0.21270087,-0.1701874,746.63007,796.5934,798.60803,776.4469,385.6044,-0.31195068359375,-0.03277587890625,0.95733642578125,4.807586669921875,-3.431854248046875,0.46356201171875,1,1.0,1.0,1.0,1.0,85.00
2021-04-09 09:14:52.870,,,,,,,,,,,,,,,,,,,,,,,,,,,,,,,,,,,,,,/muse/elements/blink
2021-04-09 09:14:53.201,0.88682353,0.53444505,0.26676774,0.7434641,0.70837826,-1.4488043E-5,-0.2637291,0.5526536,0.99075294,0.27228892,0.45562476,1.2389432,0.44592318,0.19306955,0.17983241,0.49900174,-0.1846081,-0.3653595,-0.32978004,-0.2317048,792.96704,808.2784,804.2491,815.9341,628.97437,-0.32373046875,-0.0313720703125,0.94757080078125,4.643096923828125,-4.209442138671875,1.375732421875,1,1.0,1.0,1.0,1.0,85.00
2021-04-09 09:14:53.720,1.023469,0.30621657,-0.13260184,1.0582587,0.9520591,-0.048664916,-0.4899903,0.94187427,0.9971638,0.21462025,0.40288234,1.2400994,0.48373207,0.19301017,0.12461674,0.63666743,-0.28172356,-0.30801335,-0.3257394,-0.28990638,849.7802,822.7839,811.50183,834.0659,1079.4506,-0.33294677734375,-0.04400634765625,0.94244384765625,3.81317138671875,-0.478515625,0.321502685546875,1,1.0,1.0,1.0,1.0,85.00
2021-04-09 09:14:54.248,1.0207114,0.1366154,-0.13083585,1.0868744,0.98510355,0.08166015,-0.5533326,0.96203744,0.98072845,0.25998294,0.42408827,1.2400994,0.45534816,0.11578999,0.038155265,0.5999397,-0.43383458,-0.33074823,-0.279294,-0.32220432,840.10986,819.9634,823.1868,830.84247,1010.9524,-0.35675048828125,-0.001953125,0.90997314453125,9.45068359375,-6.945953369140625,7.16278076171875,1,1.0,1.0,1.0,1.0,85.00
2021-04-09 09:14:54.774,0.9351789,0.13718826,-0.08222423,0.94040984,0.89798313,0.13876839,-0.57900524,0.892392,0.9436836,0.2588966,0.30321002,1.0815071,0.32534564,0.027424254,0.027017659,0.43779674,-0.4996934,-0.38400012,-0.25112948,-0.29080206,778.46155,802.23444,807.0696,791.3553,562.0879,-0.450439453125,0.01519775390625,0.894287109375,0.52337646484375,-0.04486083984375,12.36663818359375,1,1.0,1.0,1.0,1.0,80.00
2021-04-09 09:14:55.018,,,,,,,,,,,,,,,,,,,,,,,,,,,,,,,,,,,,,,/muse/elements/blink
2021-04-09 09:14:55.280,0.85822767,0.055669364,-0.12888876,0.76844263,0.8439288,0.050225876,-0.46506068,0.79236287,0.94660634,0.24270639,0.27364781,0.9569747,0.29487926,-0.04956572,0.06315051,0.31236526,-0.38666967,-0.28466338,-0.21437243,-0.101810254,740.58606,803.44324,809.0842,791.3553,534.68866,-0.2701416015625,-0.03509521484375,0.974853515625,1.4654541015625,-20.3070068359375,-2.639312744140625,1,1.0,1.0,1.0,1.0,80.00
2021-04-09 09:14:55.786,0.8597941,-0.022118796,-0.1258765,0.7592182,0.90049183,-0.065017775,-0.4079134,0.8479433,0.9548088,0.2046723,0.27410585,0.9842253,0.3156534,-0.056795787,0.19415562,0.41430256,-0.23507322,-0.24866834,-0.1841323,0.0629609,801.4286,815.5311,815.9341,812.3077,718.022,-0.23736572265625,0.00933837890625,0.97723388671875,3.446807861328125,-1.62994384765625,1.742095947265625,1,1.0,1.0,1.0,1.0,80.00
2021-04-09 09:14:56.299,0.88965464,0.054913647,-0.057056654,0.7522749,0.77668804,-0.14949894,-0.30954424,0.77176744,0.9565079,-0.13025475,0.11832065,0.9964068,0.36009532,0.020912929,0.20381683,0.5266231,-0.07005601,-0.14071739,-0.15883322,0.10993731,845.34796,804.65204,806.6667,808.68134,1004.5055,-0.21734619140625,-0.01641845703125,0.97723388671875,3.342132568359375,-4.658050537109375,1.4654541015625,1,1.0,1.0,1.0,1.0,80.00
2021-04-09 09:14:56.815,0.8035066,0.17569563,-0.003624481,0.64809936,0.58500797,-0.07102308,-0.21659201,0.6896993,0.90270805,-0.1056405,0.118713856,0.9306285,0.3274221,0.03253552,0.17854892,0.53254914,-0.021683596,-0.19750889,-0.253819,0.07017677,850.989,803.0403,804.65204,824.7985,929.5604,-0.2125244140625,-0.0269775390625,0.98291015625,4.149627685546875,-8.620758056640625,3.51409912109375,1,1.0,1.0,1.0,1.0,80.00
2021-04-09 09:14:57.342,0.79784185,0.16265948,-0.13689496,0.7349425,0.4231577,-0.21213563,-0.23782262,0.5628457,0.7684187,-0.08783212,0.13794716,0.7744283,0.3375403,0.0479013,0.050167285,0.5190023,-0.038229562,-0.20768793,-0.2637542,-0.13873796,765.16486,792.1612,812.3077,790.9524,519.3773,-0.21209716796875,-0.0394287109375,0.985595703125,2.27294921875,-7.177734375,5.09918212890625,1,1.0,1.0,1.0,1.0,80.00
2021-04-09 09:14:57.855,0.74246967,0.037686333,-0.09838024,0.8146428,0.41677567,-0.332453,-0.21635695,0.361841,0.782104,0.35996103,0.20281537,0.60898644,0.18791655,6.552154E-4,-0.04864972,0.40765217,-0.22995852,-0.24583943,-0.19542994,-0.2200483,751.8681,796.99634,805.8608,787.72894,496.41025,-0.16778564453125,-0.04571533203125,0.9906005859375,3.910369873046875,-4.29168701171875,1.27105712890625,1,1.0,1.0,1.0,1.0,80.00
2021-04-09 09:14:58.357,0.73818797,0.13000819,-0.0096669,0.7250959,0.40602225,-0.12826161,-0.20067132,0.3100653,0.7838155,0.4085715,0.19127934,0.6077932,0.14002754,-0.026244251,-0.07927653,0.35017264,-0.21896802,-0.2739776,-0.18130314,-0.12889236,790.14655,797.3993,796.5934,799.81683,792.96704,-0.1865234375,-0.06500244140625,0.99072265625,4.02252197265625,-6.11602783203125,1.577606201171875,1,1.0,1.0,1.0,1.0,80.00
2021-04-09 09:14:58.861,0.51599956,0.23293291,0.038984492,0.39495522,0.24261199,-0.028704002,-0.11112416,0.07302132,0.7838155,0.4085715,0.1621683,0.68156344,0.10133137,-0.06794796,-0.083639674,0.31452015,-0.10730112,-0.25589627,-0.22467558,-0.01002009,861.4652,804.65204,802.23444,823.5897,970.2564,-0.173828125,-0.0562744140625,0.9825439453125,3.671112060546875,-3.57391357421875,2.0037841796875,1,1.0,1.0,1.0,1.0,80.00
2021-04-09 09:14:59.394,0.281443,0.3052051,-0.015079906,-0.21085247,0.32063714,0.010751349,-0.016949082,0.11600206,0.627702,0.28754517,0.04760068,0.7206163,0.08391445,-0.126146,0.0033950706,0.2422934,-0.094653375,-0.36143556,-0.3228541,-0.02482603,844.1392,805.8608,799.41394,815.9341,923.91943,-0.172119140625,-0.06640625,0.988525390625,4.9346923828125,-4.852447509765625,0.22430419921875,1,1.0,1.0,1.0,1.0,80.00
2021-04-09 09:14:59.645,,,,,,,,,,,,,,,,,,,,,,,,,,,,,,,,,,,,,,/muse/elements/blink
2021-04-09 09:14:59.919,0.15216228,0.4307357,0.4257829,-0.4940724,0.38420564,0.23606561,0.33927163,0.08178786,0.39108592,0.4306782,0.128609,0.7206163,0.0921494,-0.09429323,0.13834704,0.24052086,-0.10018947,-0.35378557,-0.35836464,-0.026226472,781.685,838.9011,767.5824,769.59705,477.47253,-0.189208984375,-0.06365966796875,0.98565673828125,4.26177978515625,-3.760833740234375,-0.710296630859375,1,1.0,1.0,1.0,1.0,80.00
2021-04-09 09:15:00.448,0.30038136,0.95895875,0.57594407,-0.6161062,0.5250132,0.7220197,0.46372363,0.25474426,0.36706915,0.61103463,0.12723893,0.5875474,0.039185964,-0.012874097,0.21614023,0.11406495,-0.34640646,-0.30613226,-0.40617058,-0.19493778,762.3443,807.8755,805.8608,794.57874,396.0806,-0.18988037109375,-0.07366943359375,0.97998046875,4.66552734375,-4.732818603515625,0.897216796875,1,1.0,1.0,1.0,1.0,80.00
2021-04-09 09:15:00.957,0.40911672,1.0158736,0.7048401,-0.67489064,0.5934427,0.78423387,0.5008787,0.3334614,0.35525072,0.61103463,0.19705087,0.4396552,0.039194226,0.119225875,0.30829197,0.09059671,-0.3953589,-0.1683291,-0.37805903,-0.17559406,795.78754,805.8608,811.50183,812.3077,884.43225,-0.1876220703125,-0.0745849609375,0.9818115234375,4.78515625,-4.11224365234375,1.114044189453125,1,1.0,1.0,1.0,1.0,80.00
2021-04-09 09:15:01.486,0.49447155,0.9474214,0.3658939,0.26164237,0.48062137,0.70715845,-0.041831393,0.20438404,0.57971126,0.58334076,0.17280027,0.20986837,0.2272448,0.12178254,0.3198121,0.38323772,-0.31507853,-0.13918899,-0.29075745,-0.08276111,859.45056,818.3516,807.8755,826.4103,1112.4908,-0.19061279296875,-0.081298828125,0.98028564453125,4.015045166015625,-4.9346923828125,0.500946044921875,1,1.0,1.0,1.0,1.0,80.00
2021-04-09 09:15:01.998,0.36685082,0.17454466,0.2081558,0.35789007,0.256335,-0.052972253,0.036653172,0.2039245,0.57971126,0.39205414,0.26516232,0.32663533,0.14706558,0.17532648,0.25890347,0.3137391,-0.23260796,-0.13465896,-0.23819348,-0.17754498,817.5458,804.2491,809.0842,809.4872,994.43225,-0.18804931640625,-0.0810546875,0.9827880859375,4.717864990234375,-4.94964599609375,1.158905029296875,1,1.0,1.0,1.0,1.0,80.00
2021-04-09 09:15:02.404,,,,,,,,,,,,,,,,,,,,,,,,,,,,,,,,,,,,,,/muse/elements/blink
2021-04-09 09:15:02.510,0.3726137,0.10584619,0.26987898,0.46584365,0.23480685,-0.030108463,0.19597112,0.23658474,0.5764253,0.3728699,0.13844351,0.2913709,0.11503457,0.12116961,0.15724228,0.2799921,-0.23293893,-0.25912112,-0.21239364,-0.2142007,862.674,811.9048,807.47253,836.4835,1061.3187,-0.19293212890625,-0.07501220703125,0.9783935546875,4.912261962890625,-4.47113037109375,0.785064697265625,1,1.0,1.0,1.0,1.0,80.00
2021-04-09 09:15:03.022,0.2151848,0.584003,0.8758613,0.5388486,-0.19068053,0.352263,0.56001616,0.19703043,0.20840782,0.42591184,0.16380517,0.28191128,0.007010941,0.16877972,0.14897174,0.21858278,-0.19549808,-0.2552061,-0.19610505,-0.3291299,819.15753,814.3223,801.02563,810.293,711.978,-0.1966552734375,-0.07684326171875,0.98553466796875,4.3365478515625,-4.553375244140625,1.143951416015625,1,1.0,1.0,1.0,1.0,80.00
2021-04-09 09:15:03.534,0.2157288,0.5430468,0.8924647,0.6607421,-0.18916568,0.35970637,0.5262286,0.19354355,0.14770582,0.4342904,0.1780336,0.28191128,-0.08859365,0.11526719,0.18405725,0.22511677,-0.23573264,-0.26460242,-0.2086167,-0.3807836,810.293,806.6667,806.26373,804.65204,855.82416,-0.19342041015625,-0.07806396484375,0.9832763671875,4.822540283203125,-4.53094482421875,1.233673095703125,1,1.0,1.0,1.0,1.0,80.00
2021-04-09 09:15:04.035,0.09851805,0.54742604,0.88314617,0.21376747,-0.1391322,0.35905907,0.49529836,0.2310188,0.3032898,0.37458,0.2250611,0.6220227,0.19081663,0.06344737,0.20626216,0.29741028,-0.30886164,-0.23358414,-0.22801971,-0.28567487,856.2271,814.7253,809.4872,823.9927,1141.0989,-0.18780517578125,-0.081298828125,0.9830322265625,4.1571044921875,-4.08233642578125,0.5682373046875,1,1.0,1.0,1.0,1.0,80.00
2021-04-09 09:15:04.560,0.57538235,0.8574296,0.7666418,0.58117014,0.5298144,0.2783512,0.4765456,0.9108854,0.5847726,0.6271049,0.47428834,0.91822785,0.26021335,-0.0064980616,0.10613849,0.41350317,-0.16554253,-0.2693798,-0.13790514,-0.19031803,820.3663,814.3223,812.71063,807.47253,725.6777,-0.1881103515625,-0.08306884765625,0.9815673828125,4.32159423828125,-4.523468017578125,0.94207763671875,1,1.0,1.0,1.0,1.0,80.00
2021-04-09 09:15:05.060,0.47035587,0.90402174,0.77508163,0.48298228,0.40670487,0.31639934,0.5034643,0.76839936,0.6593694,0.6217464,0.47196618,0.9192931,0.2744336,0.032341465,0.07993414,0.4026256,-0.157297,-0.2919152,-0.119282044,-0.09259701,764.35895,798.60803,805.05493,790.54944,489.56042,-0.187744140625,-0.08111572265625,0.9830322265625,4.7552490234375,-4.44122314453125,1.009368896484375,1,1.0,1.0,1.0,1.0,80.00
2021-04-09 09:15:05.568,0.41691422,0.8672073,0.7347131,0.3964273,0.39902464,0.3008205,0.45407385,0.71431357,0.68195146,0.621013,0.47196618,0.91336095,0.35879105,0.068473004,0.1058658,0.42972678,-0.14402089,-0.28787035,-0.12800288,-0.03313999,762.74725,803.8461,805.05493,793.7729,508.9011,-0.18743896484375,-0.0787353515625,0.9837646484375,4.77020263671875,-4.493560791015625,1.622467041015625,1,1.0,1.0,1.0,1.0,80.00
2021-04-09 09:15:05.889,,,,,,,,,,,,,,,,,,,,,,,,,,,,,,,,,,,,,,/muse/elements/blink
2021-04-09 09:15:06.090,0.121922344,0.43234345,0.2990007,0.051910713,0.047116894,0.057757955,0.06817723,0.1826802,0.5179659,0.3301509,0.26328608,0.65774137,0.37740114,0.08843417,0.16279718,0.38852435,-0.17442927,-0.2976807,-0.1757975,0.0026630193,849.3773,813.1135,813.91943,831.2454,802.23444,-0.18865966796875,-0.0814208984375,0.982421875,4.762725830078125,-4.329071044921875,0.291595458984375,1,1.0,1.0,1.0,1.0,80.00
2021-04-09 09:15:06.613,-0.57913923,0.73470104,0.9028075,-0.5080052,-0.038372517,0.36259687,0.4536068,-0.31366596,0.39645213,0.29383972,0.19294834,0.30557358,0.46602026,0.0458341,0.19286,0.40391952,-0.21040314,-0.28900915,-0.14334446,-0.06438082,858.24176,841.31866,784.10254,802.23444,1053.2601,-0.1949462890625,-0.08013916015625,0.98052978515625,3.895416259765625,-4.762725830078125,0.157012939453125,1,1.0,1.0,1.0,1.0,80.00
2021-04-09 09:15:07.117,-0.5233706,0.8984085,1.0319089,-0.61047655,-0.035654142,0.45390123,0.6166548,-0.24513532,0.38700292,0.45335826,0.5974353,0.2968024,0.45352224,0.035578378,0.15926802,0.37430543,-0.2049956,-0.31580666,-0.13561688,-0.10009324,801.02563,805.4579,808.68134,805.8608,645.89746,-0.1854248046875,-0.083251953125,0.9798583984375,4.4561767578125,-4.65057373046875,0.9869384765625,1,1.0,1.0,1.0,1.0,80.00
2021-04-09 09:15:07.629,0.37521127,0.9300452,1.0288574,0.79300916,0.4996712,0.4019011,0.62722915,0.73300356,0.33399907,0.45418876,0.6104935,0.7902798,0.20857942,0.06505264,0.051782694,0.3914983,-0.22204432,-0.34353372,-0.090003595,-0.26516867,741.79486,790.14655,819.9634,798.60803,472.23444,-0.18597412109375,-0.08551025390625,0.9859619140625,4.613189697265625,-4.02252197265625,1.637420654296875,1,1.0,1.0,1.0,1.0,80.00
2021-04-09 09:15:08.139,0.39336717,0.7245148,0.71429294,0.63017374,0.4103339,0.12416309,0.43897334,0.56021434,0.36843926,0.4578576,0.60552096,0.7944264,0.18186633,0.016874537,-0.009971662,0.2942222,-0.30330908,-0.3640596,-0.12601866,-0.2171239,776.4469,821.978,790.14655,791.3553,684.17584,-0.1866455078125,-0.08465576171875,0.9853515625,4.3365478515625,-4.239349365234375,0.142059326171875,1,1.0,1.0,1.0,1.0,80.00
2021-04-09 09:15:08.644,0.61629486,0.6197054,0.5271352,0.47276968,0.24034025,-0.03434214,0.33958793,0.34829393,0.3551346,0.34954083,0.56532323,0.71200246,0.1749295,0.04572653,0.09037267,0.26384857,-0.33842376,-0.28205878,-0.052428316,-0.2613408,828.4249,814.3223,810.293,813.1135,755.89746,-0.18951416015625,-0.08551025390625,0.98858642578125,4.673004150390625,-4.628143310546875,1.338348388671875,1,1.0,1.0,1.0,1.0,80.00
2021-04-09 09:15:09.145,0.7845578,0.58204734,0.3973783,0.33870375,0.1336368,-0.06103599,0.25625136,0.14753562,0.4872484,0.12082399,0.3291579,0.36825612,0.15416694,0.008127471,0.121556215,0.24024518,-0.31063727,-0.27243698,-0.09034399,-0.22560221,775.2381,811.50183,815.5311,809.89014,422.27106,-0.19091796875,-0.07879638671875,0.984375,4.224395751953125,-4.015045166015625,1.069183349609375,1,1.0,1.0,1.0,1.0,80.00
2021-04-09 09:15:09.671,0.83735096,0.70335937,0.5089995,0.44099534,0.2846574,0.17489697,0.34426272,0.23046695,0.5244265,0.26675573,0.43530807,0.46844518,0.14783153,0.084216036,0.16733429,0.2658293,-0.23368773,-0.33835623,-0.021274747,-0.21873069,743.8095,794.57874,801.4286,790.14655,593.5165,-0.1927490234375,-0.087646484375,0.9842529296875,4.418792724609375,-4.44122314453125,0.49346923828125,1,1.0,1.0,1.0,1.0,80.00
2021-04-09 09:15:10.176,0.75795466,0.66344565,0.57338244,0.5708509,0.4693416,0.13949093,0.32068396,0.5174922,0.6204826,0.24556714,0.4528116,0.52919096,0.19988628,0.082920045,0.13187468,0.2779139,-0.23375942,-0.40297753,-0.057804793,-0.2109594,817.9487,810.696,805.4579,814.3223,911.8315,-0.19879150390625,-0.09149169921875,0.9837646484375,5.0543212890625,-4.0673828125,0.79254150390625,1,1.0,1.0,1.0,1.0,80.00
2021-04-09 09:15:10.681,0.6863972,0.489721,0.50684065,0.70916003,0.6008869,0.059101205,0.19504239,0.57099545,0.7135071,0.20668605,0.4355878,0.5284666,0.29927087,0.074134946,0.13839555,0.2640246,-0.2666817,-0.42970872,-0.067581065,-0.2518488,852.1978,812.71063,813.1135,826.4103,1058.9011,-0.1968994140625,-0.09576416015625,0.97772216796875,4.897308349609375,-4.388885498046875,0.777587890625,1,1.0,1.0,1.0,1.0,80.00
2021-04-09 09:15:11.046,,,,,,,,,,,,,,,,,,,,,,,,,,,,,,,,,,,,,,/muse/elements/blink
2021-04-09 09:15:11.196,0.6655996,0.29426914,0.5026191,0.7363428,0.599498,-0.09735658,0.23154573,0.6096474,0.7270197,0.29460657,0.42140988,0.52020645,0.3491861,0.034734387,0.08512953,0.2752678,-0.3108438,-0.37085435,-0.12350869,-0.3260301,817.9487,799.81683,799.011,815.12823,630.58606,-0.193359375,-0.09307861328125,0.97998046875,4.3963623046875,-4.224395751953125,0.3887939453125,1,1.0,1.0,1.0,1.0,80.00
2021-04-09 09:15:11.715,0.6941367,0.54866046,0.8907021,0.7304028,0.62300897,0.3658704,0.64212835,0.39055958,0.7270197,0.35708323,0.25655097,0.3994041,0.37674606,0.05704315,0.06299513,0.19939877,-0.2583174,-0.32242694,-0.18988732,-0.3389398,745.82416,798.20514,796.5934,788.93774,408.97437,-0.19207763671875,-0.094970703125,0.9805908203125,4.8150634765625,-4.41131591796875,0.949554443359375,1,1.0,1.0,1.0,1.0,80.00
2021-04-09 09:15:12.221,0.5607661,0.58123,0.9038439,0.6070646,0.44147348,0.4233451,0.6766607,0.15444441,0.6389405,0.4192456,0.23101264,0.27396208,0.27049035,0.057090715,0.035465136,0.18515533,-0.2655654,-0.27366132,-0.18187702,-0.3814547,790.14655,812.3077,803.44324,805.05493,618.9011,-0.189453125,-0.09600830078125,0.97528076171875,4.493560791015625,-4.658050537109375,0.82244873046875,1,1.0,1.0,1.0,1.0,80.00
2021-04-09 09:15:12.753,1.0710095,0.5296972,0.8511741,0.7484669,1.0289122,0.4279719,0.60577357,0.96038836,0.2935128,0.4192456,0.26816216,0.37443447,0.15944886,0.114828795,0.1262441,0.17032318,-0.20412411,-0.25422788,-0.2168617,-0.3500859,773.6264,799.011,804.2491,747.4359,1029.0842,-0.18994140625,-0.09429931640625,0.9818115234375,3.955230712890625,-4.059906005859375,0.13458251953125,1,1.0,1.0,1.0,1.0,80.00
2021-04-09 09:15:12.954,,,,,,,,,,,,,,,,,,,,,,,,,,,,,,,,,,,,,,/muse/elements/blink
2021-04-09 09:15:13.278,1.0710095,0.03891142,0.027012864,0.7484669,1.0289122,0.02380346,-0.13735616,0.96038836,0.2935128,0.16257171,0.13232265,0.37443447,0.15944886,0.06458133,0.11524742,0.17032318,-0.20412411,-0.2474731,-0.24244294,-0.3500859,850.18317,813.91943,806.6667,826.8132,974.2857,-0.19708251953125,-0.1004638671875,0.98046875,4.85992431640625,-4.18701171875,0.67291259765625,1,1.0,1.0,1.0,1.0,80.00
2021-04-09 09:15:13.780,1.2179401,0.11005136,-0.09077938,1.0621368,1.0655417,-0.16511902,-0.47083896,1.0935357,0.9108535,0.09084229,0.040607683,0.9342868,0.30075604,0.048282154,0.10283102,0.37664902,-0.22542676,-0.24200107,-0.2949346,-0.23320837,795.38464,805.8608,806.26373,801.4286,621.31866,-0.19378662109375,-0.10101318359375,0.97802734375,4.583282470703125,-4.14215087890625,1.12152099609375,1,1.0,1.0,1.0,1.0,80.00
2021-04-09 09:15:14.285,1.0223353,0.38455135,0.39058015,1.2314243,0.7589057,-0.14090934,0.22365382,1.1217207,0.9108535,0.098818675,0.40801945,0.9342868,0.30593213,-0.047800537,-0.007232735,0.48901856,-0.31950057,-0.1914888,-0.23727745,-0.1291626,759.5238,798.20514,808.68134,791.3553,398.09525,-0.1988525390625,-0.10272216796875,0.9794921875,4.306640625,-4.14215087890625,0.64300537109375,1,1.0,1.0,1.0,1.0,80.00
2021-04-09 09:15:14.807,0.7612293,0.54001945,0.651496,1.1175989,0.39127612,0.059082314,0.3633404,0.67859817,0.74424386,0.19266103,0.44050428,0.8124264,0.31978154,0.053983815,0.053335033,0.31303814,-0.29504418,-0.19904417,-0.12891498,-0.017575577,784.10254,803.8461,801.02563,802.23444,832.4542,-0.19732666015625,-0.09698486328125,0.97900390625,4.762725830078125,-4.35150146484375,1.443023681640625,1,1.0,1.0,1.0,1.0,80.00
2021-04-09 09:15:15.313,0.3470506,0.63131356,0.7172146,0.84908974,-0.09432511,0.17991838,0.44287243,0.22100504,0.35654217,0.19141115,0.441046,0.59679407,0.3119271,0.075484894,0.06792054,0.22956404,-0.2757699,-0.2201193,-0.15566245,-0.078555815,850.989,827.619,808.68134,820.7692,1153.9927,-0.1968994140625,-0.10113525390625,0.97991943359375,4.628143310546875,-4.358978271484375,0.897216796875,1,1.0,1.0,1.0,1.0,80.00
2021-04-09 09:15:15.820,0.31136408,0.511887,0.5818655,0.70298946,-0.06446723,0.098225094,0.225232,0.16452318,0.3927942,0.21623251,0.3705548,0.6011776,0.28903738,0.08672801,0.07521209,0.2403461,-0.24327716,-0.32329676,-0.20244075,-0.138099,753.0769,799.41394,806.6667,793.7729,397.69232,-0.19329833984375,-0.10565185546875,0.97698974609375,4.463653564453125,-4.53094482421875,0.515899658203125,1,1.0,1.0,1.0,1.0,80.00
2021-04-09 09:15:16.330,,,,,,,,,,,,,,,,,,,,,,,,,,,,,,,,,,,,,,/muse/elements/blink
2021-04-09 09:15:16.331,-0.053999003,0.26251635,0.30426222,0.1604297,-0.2653808,0.019080093,0.08627969,0.21564518,0.24358924,0.22493345,0.31762657,0.5365703,0.23442024,0.01628065,0.036712702,0.2621256,-0.21672414,-0.32985255,-0.26047093,-0.20192318,816.7399,809.89014,786.9231,839.707,515.7509,-0.195556640625,-0.103759765625,0.977294921875,3.7982177734375,-4.0673828125,0.994415283203125,1,1.0,1.0,1.0,1.0,80.00
2021-04-09 09:15:16.839,-0.19495633,0.574457,0.88509697,-0.26317483,-0.32305646,0.29500163,0.42070106,0.28203464,0.23224233,0.3876608,0.17683488,0.21368596,0.16556503,0.006697055,0.046128336,0.28374174,-0.21685885,-0.3066276,-0.19943503,-0.2347706,836.4835,807.8755,805.05493,816.337,1062.9304,-0.201171875,-0.10601806640625,0.9796142578125,4.553375244140625,-4.224395751953125,0.605621337890625,1,1.0,1.0,1.0,1.0,80.00
2021-04-09 09:15:17.355,-0.15216404,0.71163094,1.0150428,-0.24275456,-0.566106,0.3097344,0.504677,0.47906047,0.062004212,0.38337272,0.20579985,0.08748044,0.21089546,0.024925547,0.107517816,0.26169965,-0.20396416,-0.20611404,-0.13716683,-0.18740554,839.707,814.7253,811.0989,829.6337,890.4762,-0.1988525390625,-0.11083984375,0.97607421875,4.725341796875,-5.084228515625,0.83740234375,1,1.0,1.0,1.0,1.0,80.00
2021-04-09 09:15:17.882,-0.37105116,0.70901066,1.0008875,0.088884436,0.15550517,0.28982723,0.48422977,0.08886379,0.23685367,0.39188796,0.20448852,0.35197765,0.06755784,0.044095427,0.21086274,0.30915093,-0.40427956,-0.24232024,-0.17866108,-0.3814998,780.4762,802.23444,800.6227,786.52014,529.85345,-0.20184326171875,-0.105224609375,0.97882080078125,4.702911376953125,-4.725341796875,1.203765869140625,1,1.0,1.0,1.0,1.0,80.00
2021-04-09 09:15:18.393,-0.14510056,0.13346793,0.34791985,0.09173327,0.34770182,-0.2780748,0.0041085994,0.32535824,0.3671256,0.23083383,0.053156476,0.48202175,0.08169279,0.06188843,0.230844,0.33663055,-0.35216227,-0.2992578,-0.21427149,-0.25009707,752.27106,797.3993,806.26373,797.8022,400.1099,-0.205078125,-0.10247802734375,0.9776611328125,4.53094482421875,-4.11224365234375,1.9140625,1,1.0,1.0,1.0,1.0,80.00
2021-04-09 09:15:18.919,0.11854897,-0.2370495,0.04757713,0.15339237,0.2818821,-0.29277235,-0.077615306,0.27490553,0.3687918,0.22380026,0.012231413,0.48433548,0.08428181,0.032244347,0.21978682,0.32664788,-0.37444842,-0.34003606,-0.28656155,-0.25110933,794.17584,807.0696,802.23444,807.8755,798.20514,-0.198486328125,-0.0977783203125,0.97698974609375,4.486083984375,-5.084228515625,1.577606201171875,1,1.0,1.0,1.0,1.0,80.00
2021-04-09 09:15:19.422,0.21091107,-0.43994033,0.04316164,0.19737978,0.31129095,-0.37764618,0.03573418,0.35317293,0.38655284,0.04356203,0.15439202,0.46319237,0.10905956,0.06416561,0.10672573,0.32774445,-0.3487098,-0.34314826,-0.25745696,-0.1748503,921.0989,822.381,792.96704,906.99634,1142.3077,-0.1868896484375,-0.0819091796875,0.98046875,5.495452880859375,-4.366455078125,9.510498046875,1,1.0,1.0,1.0,1.0,80.00
2021-04-09 09:15:19.473,,,,,,,,,,,,,,,,,,,,,,,,,,,,,,,,,,,,,,/muse/elements/blink
2021-04-09 09:15:19.932,0.3113883,-0.24373989,0.33032826,0.25137755,0.18687466,-0.2726361,0.1147334,0.27840775,0.22074874,0.04076703,0.2601449,0.35402378,0.11899252,0.053311694,0.08198077,0.30810666,-0.37151006,-0.33200303,-0.21750727,-0.17936723,835.6777,1041.5751,790.9524,803.0403,815.5311,-0.2095947265625,-0.06170654296875,0.97821044921875,4.97955322265625,-5.51788330078125,7.917938232421875,1,1.0,1.0,1.0,1.0,80.00
2021-04-09 09:15:20.449,0.25864172,-0.095419504,0.47036052,0.2742977,0.2757119,-0.15669592,0.27636898,0.41342303,0.14624953,0.04076703,0.25967923,0.3175587,0.15953231,0.14630668,0.051552307,0.32293102,-0.31480595,-0.33026153,-0.12894508,-0.0997942,771.2088,781.685,823.9927,805.8608,614.4689,-0.18841552734375,-0.06060791015625,0.983642578125,4.433746337890625,-3.9776611328125,-0.418701171875,1,1.0,1.0,1.0,1.0,80.00
2021-04-09 09:15:20.957,0.25864172,0.027838688,0.64652747,0.2742977,0.2757119,-0.08116418,0.3215649,0.41342303,0.14624953,0.037452642,0.24845749,0.3175587,0.15953231,0.20176817,-0.0011484342,0.32293102,-0.31480595,-0.27381143,-0.030004514,-0.0997942,743.4066,782.49084,797.8022,782.0879,611.6484,-0.2052001953125,-0.07147216796875,0.97711181640625,3.46923828125,-3.955230712890625,-0.785064697265625,1,1.0,1.0,1.0,1.0,80.00
2021-04-09 09:15:21.460,0.5763295,0.027838688,0.40096647,0.5430461,0.4385629,-0.08116418,-0.19183025,0.44398174,0.24531297,0.037452642,-0.505017,0.26159546,0.22821254,0.20176817,-0.07729437,0.33509976,-0.21099217,-0.27381143,-0.223757,0.11937217,822.381,794.57874,802.23444,804.65204,800.2198,-0.205078125,-0.07562255859375,0.9814453125,4.35150146484375,-4.403839111328125,0.35888671875,1,1.0,1.0,1.0,1.0,80.00
2021-04-09 09:15:21.971,0.5210258,0.19448254,0.2741646,0.48048258,0.49922907,-0.066327766,-0.22652324,0.45863208,0.53901,0.042789068,0.100533426,0.53141695,0.22140267,0.2901824,0.13823,0.35341573,-0.15212229,-0.20467728,-0.2480926,0.081792146,859.0476,800.2198,801.8315,827.2161,1052.0513,-0.2080078125,-0.0753173828125,0.98004150390625,4.658050537109375,-4.673004150390625,1.114044189453125,1,1.0,1.0,1.0,1.0,80.00
2021-04-09 09:15:22.481,0.50561965,0.117105596,0.13824666,0.43074694,0.464055,-0.11635308,-0.10330397,0.4038708,0.5407505,0.076237574,0.17945309,0.5463778,0.15754952,0.15667476,0.1160516,0.3750106,-0.16761968,-0.282608,-0.28542656,0.0882767,810.293,793.7729,797.8022,813.91943,720.0366,-0.2080078125,-0.07928466796875,0.979736328125,4.523468017578125,-4.20196533203125,0.25421142578125,1,1.0,1.0,1.0,1.0,80.00
2021-04-09 09:15:23.000,0.30545047,0.15785052,-0.17551383,0.15952478,0.27396813,-0.14975423,-0.11904066,0.22041526,0.49171293,0.12281375,0.17945309,0.56716657,0.1423213,0.120876275,0.07500529,0.41445646,-0.24627721,-0.34871078,-0.33170864,0.02755127,747.8388,780.87915,811.0989,791.75824,406.55676,-0.20654296875,-0.08099365234375,0.98065185546875,4.239349365234375,-4.373931884765625,0.179443359375,1,1.0,1.0,1.0,1.0,80.00
2021-04-09 09:15:23.508,0.1991318,0.084520675,-0.42576677,-0.07422401,0.16551033,-0.28110337,-0.17118998,0.30096516,0.42429617,0.11286534,0.09446317,0.6507646,0.16396637,0.057460558,0.011009874,0.43041933,-0.32556453,-0.38462865,-0.36630324,0.09992981,858.6447,791.75824,813.1135,833.2601,1025.8608,-0.20281982421875,-0.08648681640625,0.97845458984375,4.35150146484375,-4.08233642578125,0.40374755859375,1,1.0,1.0,1.0,1.0,80.00
2021-04-09 09:15:24.034,0.22014078,0.04218095,-0.46907958,-0.09686348,0.24054797,-0.28312054,-0.27680108,0.40877315,0.43121046,0.10457554,-0.029114833,0.6481478,0.15635113,0.08255844,0.028772227,0.39162415,-0.3568403,-0.37032938,-0.36825183,0.073481314,870.7326,805.05493,803.0403,865.89746,713.1868,-0.20556640625,-0.080810546875,0.98297119140625,4.44122314453125,-4.2169189453125,0.874786376953125,1,1.0,1.0,1.0,1.0,80.00
2021-04-09 09:15:24.172,,,,,,,,,,,,,,,,,,,,,,,,,,,,,,,,,,,,,,/muse/elements/blink
2021-04-09 09:15:24.543,0.2800197,0.403775,0.43940437,-0.14253752,0.37666863,0.10015191,0.32223228,0.54948235,0.4289542,0.6458925,0.19475818,0.64261633,0.15338305,0.12296407,0.10198485,0.3393494,-0.31602016,-0.2954794,-0.40776548,0.1426656,762.74725,785.31134,792.1612,788.5348,441.2088,-0.204833984375,-0.0870361328125,0.97918701171875,4.583282470703125,-4.74029541015625,1.099090576171875,1,1.0,1.0,1.0,1.0,80.00
2021-04-09 09:15:25.071,0.41037667,0.5876759,0.63406926,-0.03869371,0.3516823,0.33602253,0.47398025,0.46889693,0.22839367,0.6396282,0.196073,0.19256876,-0.044808153,0.1173465,0.1273428,0.19504799,-0.39270732,-0.28937602,-0.3640475,0.034344755,773.22345,799.41394,801.4286,790.9524,614.0659,-0.2041015625,-0.08795166015625,0.9775390625,4.91973876953125,-4.80010986328125,1.27105712890625,1,1.0,1.0,1.0,1.0,80.00
2021-04-09 09:15:25.576,0.18046007,0.7874208,0.69789803,0.39195612,0.32547143,0.4406305,0.47990474,0.513887,0.3851168,0.6400697,0.4026236,0.45230824,0.30720025,0.21050906,0.119615145,0.48164397,-0.30558637,-0.31688747,-0.36436555,0.07627276,821.1722,795.38464,811.9048,815.12823,994.43225,-0.20452880859375,-0.08770751953125,0.9801025390625,4.65057373046875,-4.299163818359375,0.73272705078125,1,1.0,1.0,1.0,1.0,80.00
2021-04-09 09:15:26.102,0.3079957,0.763949,0.40931994,0.4113413,0.3953187,0.3175084,0.074520275,0.43096268,0.5392943,0.4380581,0.37137303,0.45230824,0.2175053,0.11054367,0.090929344,0.41279536,-0.19419251,-0.33130965,-0.2619247,-0.08190594,782.49084,794.17584,799.011,808.2784,759.92676,-0.2025146484375,-0.08941650390625,0.9776611328125,4.433746337890625,-4.104766845703125,0.456085205078125,1,1.0,1.0,1.0,1.0,80.00
2021-04-09 09:15:26.623,0.36887896,0.9647257,0.5917975,0.43095246,0.43289715,0.31979805,0.11269231,0.33955544,0.7233087,0.5098365,0.4418897,0.46160257,0.24882661,0.066726804,0.14968537,0.4272143,-0.2770251,-0.34244165,-0.22771136,-0.12751703,848.97437,806.26373,803.44324,810.293,1062.9304,-0.205078125,-0.08709716796875,0.9786376953125,4.373931884765625,-5.0244140625,0.777587890625,1,1.0,1.0,1.0,1.0,80.00
2021-04-09 09:15:27.134,0.30857602,0.8383535,0.5510404,0.3494824,0.33495167,0.13629209,0.097203456,0.27116138,0.71191466,0.5098365,0.4037512,0.35333538,0.21720168,-0.03609499,0.15641955,0.35764125,-0.2658966,-0.25977543,-0.1979718,-0.17339326,835.6777,804.65204,801.02563,809.4872,855.42126,-0.2073974609375,-0.08734130859375,0.98248291015625,3.955230712890625,-4.14215087890625,-0.34393310546875,1,1.0,1.0,1.0,1.0,80.00
2021-04-09 09:15:27.644,0.1795146,0.77436346,0.555475,0.22701128,0.16306986,0.056080364,0.11766997,0.43085882,0.700348,0.50647855,0.34914535,0.3967242,0.2053809,0.011955267,0.23508286,0.4163624,-0.31315163,-0.2559821,-0.17921679,-0.082104005,783.69965,799.81683,812.3077,810.696,542.74725,-0.20751953125,-0.0887451171875,0.9759521484375,4.463653564453125,-4.38140869140625,0.46356201171875,1,1.0,1.0,1.0,1.0,80.00
2021-04-09 09:15:28.156,-0.11692567,0.20209306,0.28070277,0.18029805,-0.054938946,-0.08947146,0.011093518,0.50889474,0.23392701,0.0768848,0.13691871,0.49247435,0.14496991,0.020219339,0.18678394,0.41745484,-0.1899267,-0.2515775,-0.16444507,0.0011396488,840.10986,799.41394,794.57874,807.8755,1018.60803,-0.20355224609375,-0.093994140625,0.97747802734375,4.56085205078125,-5.091705322265625,0.37384033203125,1,1.0,1.0,1.0,1.0,80.00
2021-04-09 09:15:28.667,0.3233922,0.22688963,0.32336465,0.22734408,0.08907641,0.032489143,0.047254328,0.468431,0.19242416,0.09738399,0.18714224,0.46789145,0.13086127,0.040700756,0.21083798,0.41408926,-0.20720555,-0.3646044,-0.13882942,-0.04367304,800.2198,797.8022,809.89014,801.02563,885.64105,-0.21044921875,-0.09710693359375,0.97650146484375,4.433746337890625,-4.358978271484375,0.665435791015625,1,1.0,1.0,1.0,1.0,80.00
2021-04-09 09:15:29.177,0.35260928,0.19072364,0.33243483,0.33397537,0.15655246,0.035476133,0.010037429,0.24635488,0.46634248,0.40996188,0.27900705,0.5396188,0.19285467,0.07787661,0.14827414,0.31628442,-0.2312068,-0.38771942,-0.12793905,-0.081821986,778.0586,802.6374,802.6374,792.5641,510.51282,-0.2147216796875,-0.097900390625,0.98052978515625,4.583282470703125,-4.179534912109375,0.7476806640625,1,1.0,1.0,1.0,1.0,80.00
2021-04-09 09:15:29.690,0.3949611,0.5714459,0.6156476,0.59412146,0.25926858,0.14728065,0.14535786,0.058035787,0.652314,0.71756756,0.49541223,0.5561144,0.23845898,0.19847073,0.12511657,0.29675406,-0.25252357,-0.36495453,-0.0948243,-0.11148969,746.2271,802.6374,796.5934,796.99634,445.64102,-0.20440673828125,-0.09881591796875,0.97686767578125,4.673004150390625,-4.717864990234375,0.418701171875,1,1.0,1.0,1.0,1.0,80.00
2021-04-09 09:15:30.219,0.19817355,0.7035407,0.68983644,0.68746567,0.3424855,0.23215736,0.1440438,0.20986064,0.6622425,0.7155137,0.46971363,0.5191783,0.28344774,0.23910892,0.08702437,0.2969067,-0.11172745,-0.28624645,-0.08425951,-0.042154167,797.3993,793.7729,800.2198,800.6227,888.0586,-0.20318603515625,-0.10125732421875,0.97662353515625,4.299163818359375,-5.076751708984375,-0.007476806640625,1,1.0,1.0,1.0,1.0,80.00
2021-04-09 09:15:30.747,0.5086307,0.7291223,0.71986866,0.6536823,0.50749683,0.28877985,0.21397364,0.33128875,0.6794552,0.71743447,0.47092998,0.75997424,0.25016746,0.2617185,0.06077452,0.3303704,-0.044143856,-0.25170624,-0.10442468,-0.0041715517,857.4359,812.71063,799.81683,812.71063,1048.4249,-0.20709228515625,-0.10247802734375,0.97845458984375,3.865509033203125,-4.508514404296875,0.530853271484375,1,1.0,1.0,1.0,1.0,80.00
2021-04-09 09:15:31.252,0.5440569,0.6066264,0.45573512,0.34636572,0.47973737,0.22959301,0.1306774,0.49618047,0.5049647,0.43163553,0.2738813,0.6953319,0.19392887,0.11619114,0.0042435518,0.26368722,-0.06673541,-0.255818,-0.20710427,0.047306508,898.93774,801.8315,801.02563,887.25275,963.8095,-0.21417236328125,-0.1026611328125,0.97625732421875,4.418792724609375,-4.62066650390625,0.500946044921875,1,1.0,1.0,1.0,1.0,80.00
2021-04-09 09:15:31.359,,,,,,,,,,,,,,,,,,,,,,,,,,,,,,,,,,,,,,/muse/elements/blink
2021-04-09 09:15:31.761,0.61427784,0.7044454,0.6559282,0.19540852,0.4677832,0.2681082,0.42121366,0.52221006,0.46423012,0.3836818,0.48719323,0.66875315,0.13524671,0.03844715,0.0114914365,0.26817685,-0.137259,-0.18977621,-0.11607487,0.07298164,861.06226,813.5165,810.696,829.6337,1017.8022,-0.2080078125,-0.10345458984375,0.975341796875,4.605712890625,-4.523468017578125,0.844879150390625,1,1.0,1.0,1.0,1.0,80.00
2021-04-09 09:15:32.287,0.15033266,0.81453454,0.7065555,0.2249608,0.16702104,0.34928006,0.44541907,0.58655137,0.38310528,0.44886747,0.4057257,0.49812868,0.09538053,0.0037818006,0.06919614,0.1751658,-0.24795423,-0.21297422,-0.13329995,0.11880819,763.95605,802.6374,806.26373,793.7729,549.19415,-0.2059326171875,-0.10491943359375,0.97137451171875,4.62066650390625,-4.702911376953125,0.575714111328125,1,1.0,1.0,1.0,1.0,80.00
